%OpenBCI Raw EEG Data
%
%Sample Rate = 200.0 Hz
%First Column = SampleIndex
%Last Column = Timestamp 
%Other Columns = EEG data in microvolts followed by Accel Data (in G) interleaved with Aux Data
0, 41.32, -698.27, 16.63, 12.82, 0.000, 0.000, 0.000, 15:13:07.750
1, 184.19, -689.73, 19.35, 18.41, 0.000, 0.000, 0.000, 15:13:07.757
2, 80.82, -816.44, 4.87, 7.83, 0.000, 0.000, 0.000, 15:13:07.758
3, -0.62, -1691.07, 6.46, 12.52, 0.000, 0.000, 0.000, 15:13:07.770
4, 166.64, -1045.96, 15.37, 16.75, 0.000, 0.000, 0.000, 15:13:07.771
5, 137.43, -595.03, 5.21, 8.53, 0.000, 0.000, 0.000, 15:13:07.772
6, 4.29, -1477.95, -0.49, 9.65, 0.000, 0.000, 0.000, 15:13:07.772
7, 109.33, -1415.86, 20.45, 18.38, 0.000, 0.000, 0.000, 15:13:07.793
8, 176.08, -523.97, 13.79, 17.65, 0.000, 0.000, 0.000, 15:13:07.793
9, 38.97, -1157.86, 5.87, 9.21, 0.000, 0.000, 0.000, 15:13:07.794
10, 46.19, -1669.53, 20.82, 13.99, 0.000, 0.000, 0.000, 15:13:07.794
11, 189.14, -697.07, 20.61, 14.10, 0.000, 0.000, 0.000, 15:13:07.815
12, 82.31, -827.95, 1.73, 6.66, 0.000, 0.000, 0.000, 15:13:07.815
13, 7.10, -1689.56, 10.30, 11.85, 0.000, 0.000, 0.000, 15:13:07.816
14, 165.07, -1044.98, 18.13, 17.59, 0.000, 0.000, 0.000, 15:13:07.816
15, 132.13, -593.83, 7.85, 11.82, 0.000, 0.000, 0.000, 15:13:07.837
16, 2.37, -1472.51, 3.72, 6.13, 0.000, 0.000, 0.000, 15:13:07.838
17, 112.91, -1406.03, 18.64, 18.49, 0.000, 0.000, 0.000, 15:13:07.840
18, 181.14, -524.40, 9.61, 11.72, 0.000, 0.000, 0.000, 15:13:07.840
19, 42.43, -1155.72, 7.40, 8.25, 0.000, 0.000, 0.000, 15:13:07.848
20, 46.19, -1668.36, 15.27, 13.00, 0.000, 0.000, 0.000, 15:13:07.848
21, 188.59, -692.03, 17.30, 12.02, 0.000, 0.000, 0.000, 15:13:07.865
22, 77.46, -833.28, 5.79, 5.10, 0.000, 0.000, 0.000, 15:13:07.866
23, 2.22, -1683.52, 3.42, 8.59, 0.000, 0.000, 0.000, 15:13:07.866
24, 170.20, -1023.67, 19.27, 17.46, 0.000, 0.000, 0.000, 15:13:07.866
25, 132.48, -597.06, 8.53, 10.42, 0.000, 0.000, 0.000, 15:13:07.883
26, 6.98, -1495.45, 5.54, 7.87, 0.000, 0.000, 0.000, 15:13:07.883
27, 109.61, -1404.75, 16.07, 18.53, 0.000, 0.000, 0.000, 15:13:07.886
28, 175.61, -508.04, 10.92, 15.35, 0.000, 0.000, 0.000, 15:13:07.890
29, 26.32, -1182.40, 3.55, 5.81, 0.000, 0.000, 0.000, 15:13:07.907
30, 43.87, -1683.62, 15.31, 11.60, 0.000, 0.000, 0.000, 15:13:07.907
31, 191.02, -1659.61, 13.61, 19.13, 0.000, 0.000, 0.000, 15:13:07.908
32, 78.65, -1827.77, 6.91, 6.74, 0.000, 0.000, 0.000, 15:13:07.908
33, 5.54, -2661.42, 17.49, 12.41, 0.000, 0.000, 0.000, 15:13:07.928
34, 174.26, -2010.28, 17.23, 19.02, 0.000, 0.000, 0.000, 15:13:07.929
35, 131.49, -1583.00, 4.31, 8.05, 0.000, 0.000, 0.000, 15:13:07.931
36, 6.01, -2455.43, 7.20, 9.05, 0.000, 0.000, 0.000, 15:13:07.931
37, 111.04, -2407.09, 19.83, 13.64, 0.000, 0.000, 0.000, 15:13:07.932
38, 171.30, -1488.57, 11.67, 17.51, 0.000, 0.000, 0.000, 15:13:07.933
39, 28.89, -2155.78, -0.23, 8.12, 0.000, 0.000, 0.000, 15:13:07.951
40, 50.49, -2629.72, 12.85, 12.63, 0.000, 0.000, 0.000, 15:13:07.951
41, 192.27, -1664.44, 12.73, 16.92, 0.000, 0.000, 0.000, 15:13:07.953
42, 79.27, -1828.81, 6.60, 8.07, 0.000, 0.000, 0.000, 15:13:07.953
43, 3.65, -2667.70, 7.48, 10.49, 0.000, 0.000, 0.000, 15:13:07.973
44, 168.59, -2007.47, 20.98, 14.70, 0.000, 0.000, 0.000, 15:13:07.974
45, 129.57, -1581.54, 10.39, 10.80, 0.000, 0.000, 0.000, 15:13:07.974
46, 4.42, -2475.52, 7.02, 7.71, 0.000, 0.000, 0.000, 15:13:07.974
47, 112.73, -2398.04, 19.56, 15.80, 0.000, 0.000, 0.000, 15:13:07.995
48, 176.93, -1499.96, 11.62, 11.13, 0.000, 0.000, 0.000, 15:13:07.995
49, 34.70, -2150.90, 4.66, 6.95, 0.000, 0.000, 0.000, 15:13:07.996
50, 50.70, -2660.47, 18.13, 13.99, 0.000, 0.000, 0.000, 15:13:07.996
51, 192.70, -1690.31, 15.40, 16.78, 0.000, 0.000, 0.000, 15:13:08.017
52, 74.35, -1816.77, 5.07, 10.04, 0.000, 0.000, 0.000, 15:13:08.018
53, 4.78, -2651.93, 10.12, 14.56, 0.000, 0.000, 0.000, 15:13:08.018
54, 172.08, -1999.75, 19.48, 15.21, 0.000, 0.000, 0.000, 15:13:08.019
55, 132.51, -1586.02, 6.90, 10.22, 0.000, 0.000, 0.000, 15:13:08.019
56, 3.11, -2476.03, 6.38, 7.83, 0.000, 0.000, 0.000, 15:13:08.019
57, 114.65, -2383.92, 18.29, 20.28, 0.000, 0.000, 0.000, 15:13:08.040
58, 172.08, -1503.66, 11.40, 13.32, 0.000, 0.000, 0.000, 15:13:08.040
59, 34.14, -2159.94, 3.49, 5.64, 0.000, 0.000, 0.000, 15:13:08.041
60, 47.32, -2638.02, 14.79, 14.60, 0.000, 0.000, 0.000, 15:13:08.041
61, 193.46, -2635.74, 11.66, 13.24, 0.000, 0.000, 0.000, 15:13:08.062
62, 81.76, -2811.06, 2.63, 10.68, 0.000, 0.000, 0.000, 15:13:08.063
63, 4.80, -3657.45, 13.12, 10.81, 0.000, 0.000, 0.000, 15:13:08.063
64, 167.77, -2979.48, 16.61, 18.74, 0.000, 0.000, 0.000, 15:13:08.063
65, 133.99, -2557.31, 11.83, 8.59, 0.000, 0.000, 0.000, 15:13:08.085
66, 2.07, -3448.79, 5.67, 4.82, 0.000, 0.000, 0.000, 15:13:08.085
67, 117.14, -3353.43, 18.68, 18.48, 0.000, 0.000, 0.000, 15:13:08.086
68, 180.82, -2487.93, 11.44, 6.11, 0.000, 0.000, 0.000, 15:13:08.086
69, 36.71, -3143.38, 1.14, 5.78, 0.000, 0.000, 0.000, 15:13:08.107
70, 45.07, -3618.44, 12.77, 13.84, 0.000, 0.000, 0.000, 15:13:08.108
71, 189.01, -3609.04, 17.19, 16.91, 0.000, 0.000, 0.000, 15:13:08.108
72, 77.36, -3776.43, 2.00, 3.58, 0.000, 0.000, 0.000, 15:13:08.109
73, 5.62, -4626.21, 7.40, 13.99, 0.000, 0.000, 0.000, 15:13:08.109
74, 171.51, -3950.76, 15.45, 15.13, 0.000, 0.000, 0.000, 15:13:08.110
75, 131.78, -3539.96, 9.39, 10.44, 0.000, 0.000, 0.000, 15:13:08.130
76, 3.74, -4430.53, 6.24, 6.49, 0.000, 0.000, 0.000, 15:13:08.130
77, 115.88, -4330.37, 22.40, 18.36, 0.000, 0.000, 0.000, 15:13:08.131
78, 175.92, -3461.11, 12.78, 6.09, 0.000, 0.000, 0.000, 15:13:08.131
79, 34.11, -4116.79, 2.86, 6.40, 0.000, 0.000, 0.000, 15:13:08.152
80, 49.56, -4603.01, 15.36, 19.01, 0.000, 0.000, 0.000, 15:13:08.153
81, 197.18, -4594.02, 16.18, 13.63, 0.000, 0.000, 0.000, 15:13:08.153
82, 84.22, -4762.53, 5.74, 7.09, 0.000, 0.000, 0.000, 15:13:08.153
83, 5.77, -5610.59, 9.70, 10.13, 0.000, 0.000, 0.000, 15:13:08.175
84, 173.00, -4929.99, 15.70, 16.03, 0.000, 0.000, 0.000, 15:13:08.176
85, 134.05, -4525.25, 8.49, 10.07, 0.000, 0.000, 0.000, 15:13:08.176
86, 0.18, -5421.15, 9.09, 8.77, 0.000, 0.000, 0.000, 15:13:08.177
87, 114.60, -5314.44, 15.96, 15.65, 0.000, 0.000, 0.000, 15:13:08.197
88, 174.60, -4440.92, 10.06, 10.13, 0.000, 0.000, 0.000, 15:13:08.198
89, 31.63, -5114.10, 4.53, 6.64, 0.000, 0.000, 0.000, 15:13:08.199
90, 54.39, -5581.91, 15.80, 14.40, 0.000, 0.000, 0.000, 15:13:08.199
91, 195.15, -5560.41, 14.38, 16.51, 0.000, 0.000, 0.000, 15:13:08.199
92, 76.77, -5750.59, 5.23, 10.93, 0.000, 0.000, 0.000, 15:13:08.199
93, 9.87, -6593.29, 8.31, 14.55, 0.000, 0.000, 0.000, 15:13:08.220
94, 169.21, -5914.64, 18.46, 18.06, 0.000, 0.000, 0.000, 15:13:08.221
95, 128.15, -5515.23, 8.32, 8.11, 0.000, 0.000, 0.000, 15:13:08.222
96, 2.32, -6405.37, 0.70, 7.65, 0.000, 0.000, 0.000, 15:13:08.222
97, 116.48, -6293.05, 20.97, 14.57, 0.000, 0.000, 0.000, 15:13:08.243
98, 175.46, -5428.86, 7.70, 12.06, 0.000, 0.000, 0.000, 15:13:08.244
99, 30.53, -6091.12, 3.26, 8.56, 0.000, 0.000, 0.000, 15:13:08.244
100, 50.95, -6557.74, 12.30, 17.08, 0.000, 0.000, 0.000, 15:13:08.245
101, 194.53, -6549.82, 14.38, 13.72, 0.000, 0.000, 0.000, 15:13:08.265
102, 82.98, -6741.15, 7.84, 6.25, 0.000, 0.000, 0.000, 15:13:08.265
103, 9.08, -7576.09, 10.59, 12.65, 0.000, 0.000, 0.000, 15:13:08.265
104, 170.94, -6876.53, 21.74, 15.64, 0.000, 0.000, 0.000, 15:13:08.266
105, 128.63, -6489.59, 7.71, 7.52, 0.000, 0.000, 0.000, 15:13:08.287
106, 2.40, -7388.02, 7.62, 11.07, 0.000, 0.000, 0.000, 15:13:08.289
107, 116.41, -7258.13, 22.18, 17.65, 0.000, 0.000, 0.000, 15:13:08.289
108, 175.19, -6399.78, 9.93, 11.23, 0.000, 0.000, 0.000, 15:13:08.290
109, 31.64, -7061.36, 4.05, 6.68, 0.000, 0.000, 0.000, 15:13:08.290
110, 51.88, -7534.52, 13.22, 14.30, 0.000, 0.000, 0.000, 15:13:08.291
111, 191.08, -6558.04, 15.85, 13.31, 0.000, 0.000, 0.000, 15:13:08.310
112, 76.17, -6736.43, 3.53, 7.92, 0.000, 0.000, 0.000, 15:13:08.310
113, 2.40, -7569.33, 12.03, 10.48, 0.000, 0.000, 0.000, 15:13:08.311
114, 171.07, -6875.66, 19.49, 18.21, 0.000, 0.000, 0.000, 15:13:08.311
115, 128.62, -6490.94, 8.71, 7.87, 0.000, 0.000, 0.000, 15:13:08.332
116, 1.91, -7385.70, 4.86, 6.66, 0.000, 0.000, 0.000, 15:13:08.333
117, 118.61, -7268.22, 20.39, 17.70, 0.000, 0.000, 0.000, 15:13:08.333
118, 169.55, -6403.35, 13.00, 8.84, 0.000, 0.000, 0.000, 15:13:08.334
119, 30.01, -7073.70, 5.08, 6.49, 0.000, 0.000, 0.000, 15:13:08.355
120, 55.68, -7538.84, 15.26, 15.47, 0.000, 0.000, 0.000, 15:13:08.356
121, 189.56, -7529.19, 13.93, 16.57, 0.000, 0.000, 0.000, 15:13:08.357
122, 71.34, -7714.01, 4.60, 4.88, 0.000, 0.000, 0.000, 15:13:08.357
123, -1.64, -8556.15, 8.80, 15.76, 0.000, 0.000, 0.000, 15:13:08.378
124, 165.19, -7862.78, 18.08, 20.13, 0.000, 0.000, 0.000, 15:13:08.379
125, 131.46, -7484.21, 7.71, 10.23, 0.000, 0.000, 0.000, 15:13:08.379
126, 7.34, -8393.02, 6.09, 12.45, 0.000, 0.000, 0.000, 15:13:08.381
127, 125.15, -8250.42, 20.48, 15.46, 0.000, 0.000, 0.000, 15:13:08.384
128, 179.81, -7408.19, 9.22, 8.45, 0.000, 0.000, 0.000, 15:13:08.384
129, 37.53, -8075.33, 4.32, 6.28, 0.000, 0.000, 0.000, 15:13:08.400
130, 67.78, -8501.81, 15.11, 14.39, 0.000, 0.000, 0.000, 15:13:08.400
131, 207.43, -8483.57, 12.18, 10.32, 0.000, 0.000, 0.000, 15:13:08.401
132, 89.70, -8668.48, 6.12, 6.89, 0.000, 0.000, 0.000, 15:13:08.401
133, 11.21, -9518.02, 7.17, 12.95, 0.000, 0.000, 0.000, 15:13:08.422
134, 171.09, -8826.64, 19.16, 19.58, 0.000, 0.000, 0.000, 15:13:08.423
135, 124.88, -8443.36, 8.02, 8.57, 0.000, 0.000, 0.000, 15:13:08.423
136, -5.20, -9348.52, 4.12, 12.42, 0.000, 0.000, 0.000, 15:13:08.423
137, 112.17, -9221.45, 14.84, 15.77, 0.000, 0.000, 0.000, 15:13:08.445
138, 168.78, -8375.74, 9.66, 12.03, 0.000, 0.000, 0.000, 15:13:08.445
139, 24.55, -9054.93, 4.31, 9.97, 0.000, 0.000, 0.000, 15:13:08.445
140, 49.58, -9501.66, 16.79, 16.53, 0.000, 0.000, 0.000, 15:13:08.446
141, 182.76, -9487.81, 12.73, 16.79, 0.000, 0.000, 0.000, 15:13:08.467
142, 72.21, -9690.13, 2.50, 6.56, 0.000, 0.000, 0.000, 15:13:08.468
143, 1.40, -10518.70, 13.21, 11.21, 0.000, 0.000, 0.000, 15:13:08.468
144, 169.72, -9815.99, 18.01, 21.25, 0.000, 0.000, 0.000, 15:13:08.469
145, 130.31, -9443.68, 8.21, 8.68, 0.000, 0.000, 0.000, 15:13:08.469
146, 0.83, -10339.94, 2.60, 9.96, 0.000, 0.000, 0.000, 15:13:08.469
147, 119.47, -10196.60, 19.34, 14.24, 0.000, 0.000, 0.000, 15:13:08.490
148, 171.82, -9345.95, 7.33, 8.75, 0.000, 0.000, 0.000, 15:13:08.490
149, 24.63, -10024.41, 6.10, 7.05, 0.000, 0.000, 0.000, 15:13:08.491
150, 56.46, -10472.98, 13.47, 13.66, 0.000, 0.000, 0.000, 15:13:08.491
151, 193.17, -10466.67, 17.67, 13.07, 0.000, 0.000, 0.000, 15:13:08.512
152, 78.14, -10673.21, 3.18, 10.19, 0.000, 0.000, 0.000, 15:13:08.513
153, 7.24, -11508.75, 9.49, 12.75, 0.000, 0.000, 0.000, 15:13:08.513
154, 172.43, -10791.38, 18.13, 16.92, 0.000, 0.000, 0.000, 15:13:08.513
155, 124.02, -10414.34, 11.11, 4.61, 0.000, 0.000, 0.000, 15:13:08.535
156, 0.88, -11319.12, 6.73, 9.91, 0.000, 0.000, 0.000, 15:13:08.535
157, 121.61, -11171.21, 21.15, 19.44, 0.000, 0.000, 0.000, 15:13:08.535
158, 179.78, -10328.49, 13.02, 12.93, 0.000, 0.000, 0.000, 15:13:08.536
159, 30.09, -11009.47, 6.98, 5.97, 0.000, 0.000, 0.000, 15:13:08.557
160, 46.60, -11450.65, 12.38, 15.65, 0.000, 0.000, 0.000, 15:13:08.558
161, 187.37, -11446.72, 14.22, 13.95, 0.000, 0.000, 0.000, 15:13:08.559
162, 74.42, -11651.71, 3.03, 5.82, 0.000, 0.000, 0.000, 15:13:08.559
163, 10.61, -12480.69, 13.37, 11.26, 0.000, 0.000, 0.000, 15:13:08.559
164, 179.38, -11763.09, 18.90, 17.68, 0.000, 0.000, 0.000, 15:13:08.560
165, 129.77, -11399.14, 6.95, 10.39, 0.000, 0.000, 0.000, 15:13:08.580
166, 6.13, -12297.03, 9.33, 6.19, 0.000, 0.000, 0.000, 15:13:08.580
167, 119.40, -12144.37, 21.97, 20.13, 0.000, 0.000, 0.000, 15:13:08.580
168, 172.58, -11305.43, 9.32, 13.85, 0.000, 0.000, 0.000, 15:13:08.581
169, 30.94, -11993.65, 0.08, 9.29, 0.000, 0.000, 0.000, 15:13:08.602
170, 54.97, -12431.24, 15.42, 14.69, 0.000, 0.000, 0.000, 15:13:08.603
171, 193.91, -12421.81, 17.15, 12.58, 0.000, 0.000, 0.000, 15:13:08.604
172, 81.34, -12636.92, 7.88, 6.68, 0.000, 0.000, 0.000, 15:13:08.604
173, 10.67, -13474.57, 11.92, 10.47, 0.000, 0.000, 0.000, 15:13:08.626
174, 179.03, -12763.18, 18.03, 19.23, 0.000, 0.000, 0.000, 15:13:08.627
175, 133.55, -12372.91, 4.14, 10.20, 0.000, 0.000, 0.000, 15:13:08.627
176, -4.65, -13283.27, 3.14, 5.20, 0.000, 0.000, 0.000, 15:13:08.628
177, 119.76, -13128.38, 22.63, 16.77, 0.000, 0.000, 0.000, 15:13:08.647
178, 171.61, -12292.82, 11.14, 10.23, 0.000, 0.000, 0.000, 15:13:08.648
179, 31.81, -12994.07, 4.78, 8.13, 0.000, 0.000, 0.000, 15:13:08.648
180, 56.35, -13401.26, 13.91, 14.76, 0.000, 0.000, 0.000, 15:13:08.648
181, 194.42, -13392.02, 14.79, 14.85, 0.000, 0.000, 0.000, 15:13:08.649
182, 77.15, -13615.77, 5.91, 8.87, 0.000, 0.000, 0.000, 15:13:08.649
183, 6.53, -14444.14, 11.27, 11.90, 0.000, 0.000, 0.000, 15:13:08.671
184, 175.12, -13711.02, 19.31, 17.16, 0.000, 0.000, 0.000, 15:13:08.671
185, 130.14, -13360.12, 6.57, 6.58, 0.000, 0.000, 0.000, 15:13:08.672
186, 2.08, -14264.95, 5.25, 7.58, 0.000, 0.000, 0.000, 15:13:08.672
187, 117.57, -14099.59, 21.10, 16.77, 0.000, 0.000, 0.000, 15:13:08.692
188, 173.68, -13261.03, 15.51, 11.84, 0.000, 0.000, 0.000, 15:13:08.693
189, 31.17, -13963.44, 2.22, 6.03, 0.000, 0.000, 0.000, 15:13:08.693
190, 56.56, -14382.48, 15.34, 14.48, 0.000, 0.000, 0.000, 15:13:08.693
191, 189.77, -14370.23, 11.65, 15.19, 0.000, 0.000, 0.000, 15:13:08.715
192, 75.18, -14590.22, 3.66, 6.12, 0.000, 0.000, 0.000, 15:13:08.715
193, 9.24, -15414.40, 6.53, 9.30, 0.000, 0.000, 0.000, 15:13:08.715
194, 174.98, -14696.02, 19.96, 17.37, 0.000, 0.000, 0.000, 15:13:08.716
195, 123.31, -14342.78, 10.18, 7.39, 0.000, 0.000, 0.000, 15:13:08.737
196, -1.12, -15249.02, 4.08, 9.29, 0.000, 0.000, 0.000, 15:13:08.738
197, 121.26, -15088.53, 17.15, 15.82, 0.000, 0.000, 0.000, 15:13:08.738
198, 168.94, -14243.01, 8.84, 14.58, 0.000, 0.000, 0.000, 15:13:08.738
199, 26.97, -14944.16, 4.06, 9.96, 0.000, 0.000, 0.000, 15:13:08.739
200, 52.41, -15370.29, 17.57, 16.47, 0.000, 0.000, 0.000, 15:13:08.739
0, 196.19, 335.86, 10.63, 15.01, 0.000, 0.000, 0.000, 15:13:08.760
1, 69.23, 101.06, 0.26, 7.81, 0.000, 0.000, 0.000, 15:13:08.761
2, 1.63, -728.66, 11.81, 8.46, 0.000, 0.000, 0.000, 15:13:08.761
3, 170.21, 7.95, 19.90, 18.36, 0.000, 0.000, 0.000, 15:13:08.782
4, 123.16, 354.67, 6.23, 7.24, 0.000, 0.000, 0.000, 15:13:08.782
5, -2.98, -557.25, 7.87, 7.94, 0.000, 0.000, 0.000, 15:13:08.783
6, 124.65, -381.70, 18.17, 15.74, 0.000, 0.000, 0.000, 15:13:08.783
7, 171.12, 456.04, 9.97, 11.47, 0.000, 0.000, 0.000, 15:13:08.783
8, 26.13, -258.70, 0.41, 6.02, 0.000, 0.000, 0.000, 15:13:08.784
9, 55.85, -666.00, 16.56, 20.06, 0.000, 0.000, 0.000, 15:13:08.805
10, 193.74, -641.80, 13.20, 16.30, 0.000, 0.000, 0.000, 15:13:08.805
11, 70.87, -883.47, 3.49, 4.45, 0.000, 0.000, 0.000, 15:13:08.805
12, 10.02, -1704.36, 10.55, 11.66, 0.000, 0.000, 0.000, 15:13:08.806
13, 176.02, -946.49, 20.66, 15.37, 0.000, 0.000, 0.000, 15:13:08.827
14, 121.81, -628.45, 9.18, 9.55, 0.000, 0.000, 0.000, 15:13:08.828
15, -5.24, -1530.55, 4.42, 7.91, 0.000, 0.000, 0.000, 15:13:08.829
16, 117.65, -1347.27, 19.44, 18.70, 0.000, 0.000, 0.000, 15:13:08.829
17, 171.33, -514.72, 9.86, 14.45, 0.000, 0.000, 0.000, 15:13:08.850
18, 27.60, -1223.35, 4.06, 7.14, 0.000, 0.000, 0.000, 15:13:08.850
19, 52.95, -1642.72, 19.06, 18.40, 0.000, 0.000, 0.000, 15:13:08.850
20, 191.70, -1622.80, 13.53, 13.10, 0.000, 0.000, 0.000, 15:13:08.851
21, 74.25, -1860.00, 2.17, 6.30, 0.000, 0.000, 0.000, 15:13:08.873
22, 5.46, -2692.16, 15.06, 9.48, 0.000, 0.000, 0.000, 15:13:08.873
23, 177.82, -1933.04, 20.22, 15.68, 0.000, 0.000, 0.000, 15:13:08.873
24, 125.13, -1600.22, 7.63, 8.92, 0.000, 0.000, 0.000, 15:13:08.874
25, 0.55, -2514.09, 6.29, 6.66, 0.000, 0.000, 0.000, 15:13:08.874
26, 122.22, -2319.07, 22.61, 17.71, 0.000, 0.000, 0.000, 15:13:08.874
27, 171.89, -1498.77, 14.17, 12.40, 0.000, 0.000, 0.000, 15:13:08.895
28, 24.79, -2215.75, 1.29, 4.10, 0.000, 0.000, 0.000, 15:13:08.895
29, 60.77, -2625.11, 13.44, 15.89, 0.000, 0.000, 0.000, 15:13:08.896
30, 192.52, -2607.77, 17.42, 15.02, 0.000, 0.000, 0.000, 15:13:08.896
31, 68.58, -2853.18, 3.99, 5.24, 0.000, 0.000, 0.000, 15:13:08.917
32, 10.05, -3671.19, 15.32, 10.20, 0.000, 0.000, 0.000, 15:13:08.917
33, 174.00, -2930.18, 21.09, 18.34, 0.000, 0.000, 0.000, 15:13:08.918
34, 123.52, -2590.08, 6.73, 12.86, 0.000, 0.000, 0.000, 15:13:08.918
35, 0.13, -3496.52, 7.06, 7.91, 0.000, 0.000, 0.000, 15:13:08.940
36, 121.58, -3302.30, 19.06, 12.50, 0.000, 0.000, 0.000, 15:13:08.940
37, 171.48, -2483.67, 9.02, 12.29, 0.000, 0.000, 0.000, 15:13:08.941
38, 25.84, -3204.68, 0.00, 9.70, 0.000, 0.000, 0.000, 15:13:08.941
39, 58.50, -3598.59, 12.95, 14.88, 0.000, 0.000, 0.000, 15:13:08.962
40, 195.41, -3571.95, 12.68, 14.54, 0.000, 0.000, 0.000, 15:13:08.962
41, 73.96, -3847.04, 7.87, 10.37, 0.000, 0.000, 0.000, 15:13:08.963
42, 11.54, -4652.11, 10.11, 11.36, 0.000, 0.000, 0.000, 15:13:08.963
43, 172.00, -3895.14, 19.75, 14.36, 0.000, 0.000, 0.000, 15:13:08.963
44, 115.74, -3570.50, 7.93, 8.84, 0.000, 0.000, 0.000, 15:13:08.964
45, -2.29, -4494.38, 3.81, 8.69, 0.000, 0.000, 0.000, 15:13:08.984
46, 120.13, -4280.67, 23.60, 19.52, 0.000, 0.000, 0.000, 15:13:08.985
47, 167.99, -3464.08, 12.08, 10.87, 0.000, 0.000, 0.000, 15:13:08.985
48, 23.52, -4158.39, 1.31, 5.22, 0.000, 0.000, 0.000, 15:13:08.986
49, 62.27, -4564.50, 18.72, 15.36, 0.000, 0.000, 0.000, 15:13:09.007
50, 196.60, -4549.51, 12.95, 13.28, 0.000, 0.000, 0.000, 15:13:09.008
51, 77.53, -4815.04, 4.97, 7.14, 0.000, 0.000, 0.000, 15:13:09.008
52, 14.01, -5635.46, 7.32, 11.61, 0.000, 0.000, 0.000, 15:13:09.008
53, 179.38, -4870.89, 16.41, 19.08, 0.000, 0.000, 0.000, 15:13:09.030
54, 118.97, -4551.63, 6.96, 8.13, 0.000, 0.000, 0.000, 15:13:09.030
55, -0.50, -5463.56, 4.13, 7.09, 0.000, 0.000, 0.000, 15:13:09.030
56, 126.46, -5262.14, 21.17, 17.26, 0.000, 0.000, 0.000, 15:13:09.031
57, 168.12, -4442.46, 10.63, 13.20, 0.000, 0.000, 0.000, 15:13:09.052
58, 26.77, -5164.35, 3.59, 5.71, 0.000, 0.000, 0.000, 15:13:09.053
59, 58.09, -5548.18, 16.49, 14.61, 0.000, 0.000, 0.000, 15:13:09.054
60, 192.99, -5531.15, 15.80, 15.16, 0.000, 0.000, 0.000, 15:13:09.055
61, 73.45, -5788.87, 4.19, 7.70, 0.000, 0.000, 0.000, 15:13:09.055
62, 10.34, -6611.43, 13.26, 12.09, 0.000, 0.000, 0.000, 15:13:09.056
63, 177.47, -5858.86, 18.87, 17.72, 0.000, 0.000, 0.000, 15:13:09.075
64, 126.65, -5546.71, 4.04, 11.15, 0.000, 0.000, 0.000, 15:13:09.075
65, 4.47, -6449.29, 5.74, 7.29, 0.000, 0.000, 0.000, 15:13:09.075
66, 121.46, -6231.68, 20.92, 16.48, 0.000, 0.000, 0.000, 15:13:09.076
67, 161.76, -5424.95, 7.22, 13.15, 0.000, 0.000, 0.000, 15:13:09.097
68, 19.08, -6140.18, 2.82, 9.18, 0.000, 0.000, 0.000, 15:13:09.098
69, 58.99, -6532.20, 16.26, 14.82, 0.000, 0.000, 0.000, 15:13:09.098
70, 191.66, -6516.04, 17.14, 12.58, 0.000, 0.000, 0.000, 15:13:09.098
71, 71.47, -6775.88, 3.11, 6.03, 0.000, 0.000, 0.000, 15:13:09.120
72, 7.24, -7588.38, 13.93, 13.42, 0.000, 0.000, 0.000, 15:13:09.121
73, 175.93, -6827.73, 17.74, 13.99, 0.000, 0.000, 0.000, 15:13:09.122
74, 122.52, -6525.11, 4.00, 8.30, 0.000, 0.000, 0.000, 15:13:09.122
75, 0.83, -7427.87, 8.47, 6.91, 0.000, 0.000, 0.000, 15:13:09.142
76, 126.95, -7199.52, 16.22, 18.17, 0.000, 0.000, 0.000, 15:13:09.143
77, 165.98, -6399.63, 8.78, 12.83, 0.000, 0.000, 0.000, 15:13:09.143
78, 27.34, -7128.88, 5.78, 8.37, 0.000, 0.000, 0.000, 15:13:09.144
79, 58.12, -7505.81, 19.15, 15.31, 0.000, 0.000, 0.000, 15:13:09.144
80, 191.86, -7491.13, 13.37, 11.34, 0.000, 0.000, 0.000, 15:13:09.145
81, 71.16, -7769.87, 5.04, 5.38, 0.000, 0.000, 0.000, 15:13:09.165
82, 12.85, -8570.77, 12.78, 14.73, 0.000, 0.000, 0.000, 15:13:09.165
83, 179.20, -7803.44, 18.67, 19.15, 0.000, 0.000, 0.000, 15:13:09.166
84, 121.87, -7496.77, 4.39, 7.79, 0.000, 0.000, 0.000, 15:13:09.166
85, 1.04, -8407.70, 2.99, 9.97, 0.000, 0.000, 0.000, 15:13:09.188
86, 123.55, -8194.22, 27.39, 16.38, 0.000, 0.000, 0.000, 15:13:09.188
87, 167.44, -7384.32, 6.48, 7.49, 0.000, 0.000, 0.000, 15:13:09.188
88, 23.91, -8119.77, 4.59, 6.51, 0.000, 0.000, 0.000, 15:13:09.189
89, 58.95, -8481.69, 11.63, 18.40, 0.000, 0.000, 0.000, 15:13:09.210
90, 192.00, -8477.85, 12.78, 12.07, 0.000, 0.000, 0.000, 15:13:09.210
91, 74.52, -8749.65, 6.12, 6.29, 0.000, 0.000, 0.000, 15:13:09.211
92, 13.03, -9549.06, 11.70, 14.56, 0.000, 0.000, 0.000, 15:13:09.211
93, 176.64, -8779.25, 17.56, 16.84, 0.000, 0.000, 0.000, 15:13:09.232
94, 119.13, -8483.41, 7.91, 2.95, 0.000, 0.000, 0.000, 15:13:09.232
95, 0.97, -9395.55, 10.70, 4.64, 0.000, 0.000, 0.000, 15:13:09.233
96, 124.09, -9163.66, 16.00, 18.66, 0.000, 0.000, 0.000, 15:13:09.233
97, 169.63, -8361.43, 9.00, 14.44, 0.000, 0.000, 0.000, 15:13:09.234
98, 25.69, -9094.60, 4.57, 10.52, 0.000, 0.000, 0.000, 15:13:09.234
99, 63.09, -9472.96, 12.74, 18.83, 0.000, 0.000, 0.000, 15:13:09.255
100, 194.62, -9459.75, 13.51, 16.18, 0.000, 0.000, 0.000, 15:13:09.255
101, 69.26, -9738.32, 5.29, 7.41, 0.000, 0.000, 0.000, 15:13:09.256
102, 10.39, -10532.63, 12.77, 10.48, 0.000, 0.000, 0.000, 15:13:09.256
103, 176.31, -9766.90, 15.71, 15.80, 0.000, 0.000, 0.000, 15:13:09.277
104, 122.51, -9461.05, 5.94, 7.63, 0.000, 0.000, 0.000, 15:13:09.278
105, 3.55, -10376.16, 7.18, 12.14, 0.000, 0.000, 0.000, 15:13:09.278
106, 132.10, -10144.64, 18.35, 17.69, 0.000, 0.000, 0.000, 15:13:09.279
107, 168.93, -9350.48, 10.80, 9.91, 0.000, 0.000, 0.000, 15:13:09.300
108, 21.40, -10071.48, 7.40, 12.36, 0.000, 0.000, 0.000, 15:13:09.300
109, 64.11, -10450.54, 16.99, 17.16, 0.000, 0.000, 0.000, 15:13:09.301
110, 194.89, -10436.95, 13.32, 15.65, 0.000, 0.000, 0.000, 15:13:09.301
111, 67.71, -10714.87, 4.36, 7.22, 0.000, 0.000, 0.000, 15:13:09.322
112, 12.74, -11509.08, 10.16, 10.14, 0.000, 0.000, 0.000, 15:13:09.323
113, 183.44, -10722.43, 22.01, 15.01, 0.000, 0.000, 0.000, 15:13:09.324
114, 123.74, -10452.88, 7.85, 8.85, 0.000, 0.000, 0.000, 15:13:09.324
115, 1.90, -11346.81, 6.11, 8.87, 0.000, 0.000, 0.000, 15:13:09.325
116, 130.12, -11104.26, 14.71, 15.82, 0.000, 0.000, 0.000, 15:13:09.325
117, 168.58, -10316.89, 9.24, 11.83, 0.000, 0.000, 0.000, 15:13:09.345
118, 23.73, -11057.54, 7.30, 4.85, 0.000, 0.000, 0.000, 15:13:09.345
119, 60.07, -11419.86, 13.53, 16.06, 0.000, 0.000, 0.000, 15:13:09.367
120, 188.00, -11400.80, 11.38, 15.21, 0.000, 0.000, 0.000, 15:13:09.368
121, 65.25, -11711.26, 0.22, 6.58, 0.000, 0.000, 0.000, 15:13:09.368
122, 5.97, -12496.98, 13.83, 13.10, 0.000, 0.000, 0.000, 15:13:09.369
123, 177.25, -11712.86, 15.10, 17.84, 0.000, 0.000, 0.000, 15:13:09.369
124, 118.85, -11429.06, 6.17, 7.51, 0.000, 0.000, 0.000, 15:13:09.369
125, -0.51, -12350.01, 8.90, 5.65, 0.000, 0.000, 0.000, 15:13:09.390
126, 127.24, -12102.79, 19.01, 16.53, 0.000, 0.000, 0.000, 15:13:09.390
127, 164.17, -11297.45, 14.88, 10.17, 0.000, 0.000, 0.000, 15:13:09.391
128, 24.93, -12038.85, 4.97, 4.82, 0.000, 0.000, 0.000, 15:13:09.391
129, 58.12, -12397.16, 15.75, 15.49, 0.000, 0.000, 0.000, 15:13:09.412
130, 188.06, -12385.39, 14.89, 14.46, 0.000, 0.000, 0.000, 15:13:09.412
131, 68.87, -12684.79, 6.18, 7.34, 0.000, 0.000, 0.000, 15:13:09.413
132, 8.81, -13468.05, 9.87, 11.65, 0.000, 0.000, 0.000, 15:13:09.413
133, 172.57, -12692.87, 16.13, 17.47, 0.000, 0.000, 0.000, 15:13:09.413
134, 113.48, -12420.31, 6.42, 8.62, 0.000, 0.000, 0.000, 15:13:09.414
135, 0.45, -13339.40, 8.70, 9.99, 0.000, 0.000, 0.000, 15:13:09.435
136, 135.84, -13092.54, 18.30, 18.69, 0.000, 0.000, 0.000, 15:13:09.435
137, 170.28, -12307.87, 10.17, 9.82, 0.000, 0.000, 0.000, 15:13:09.436
138, 27.11, -13048.49, 4.44, 4.00, 0.000, 0.000, 0.000, 15:13:09.436
139, 68.39, -13392.62, 17.95, 19.93, 0.000, 0.000, 0.000, 15:13:09.457
140, 209.95, -13354.16, 15.37, 17.73, 0.000, 0.000, 0.000, 15:13:09.458
141, 87.95, -13646.33, 4.08, 5.17, 0.000, 0.000, 0.000, 15:13:09.458
142, 30.12, -14423.90, 13.56, 13.46, 0.000, 0.000, 0.000, 15:13:09.458
143, 185.59, -13645.50, 20.61, 16.81, 0.000, 0.000, 0.000, 15:13:09.480
144, 120.30, -13387.12, 6.74, 7.61, 0.000, 0.000, 0.000, 15:13:09.480
145, -3.34, -14296.26, 2.23, 8.30, 0.000, 0.000, 0.000, 15:13:09.481
146, 126.37, -14037.82, 18.84, 16.72, 0.000, 0.000, 0.000, 15:13:09.481
147, 161.24, -13269.42, 9.43, 11.79, 0.000, 0.000, 0.000, 15:13:09.502
148, 15.91, -14014.72, 6.40, 4.77, 0.000, 0.000, 0.000, 15:13:09.503
149, 59.37, -14367.39, 16.21, 19.19, 0.000, 0.000, 0.000, 15:13:09.503
150, 186.62, -14350.41, 16.82, 13.39, 0.000, 0.000, 0.000, 15:13:09.503
151, 64.76, -14661.59, 7.13, 7.36, 0.000, 0.000, 0.000, 15:13:09.504
152, 8.24, -15439.27, 11.42, 14.13, 0.000, 0.000, 0.000, 15:13:09.504
153, 172.71, -14634.69, 15.15, 16.69, 0.000, 0.000, 0.000, 15:13:09.526
154, 115.83, -14382.38, 4.93, 11.36, 0.000, 0.000, 0.000, 15:13:09.526
155, 0.53, -15300.28, 11.71, 7.70, 0.000, 0.000, 0.000, 15:13:09.526
156, 133.60, -15022.81, 17.34, 15.07, 0.000, 0.000, 0.000, 15:13:09.527
157, 156.66, -14238.34, 12.19, 10.65, 0.000, 0.000, 0.000, 15:13:09.547
158, 15.37, -14993.02, 4.65, 5.06, 0.000, 0.000, 0.000, 15:13:09.548
159, 62.81, -15332.43, 16.81, 15.02, 0.000, 0.000, 0.000, 15:13:09.548
160, 190.58, -15317.37, 16.15, 17.02, 0.000, 0.000, 0.000, 15:13:09.548
161, 65.57, -15631.92, 6.48, 6.87, 0.000, 0.000, 0.000, 15:13:09.570
162, 12.56, -16414.13, 9.42, 11.56, 0.000, 0.000, 0.000, 15:13:09.572
163, 182.60, -15608.59, 20.45, 15.45, 0.000, 0.000, 0.000, 15:13:09.573
164, 121.72, -15360.35, 3.99, 7.19, 0.000, 0.000, 0.000, 15:13:09.573
165, 0.47, -16265.18, 6.02, 11.03, 0.000, 0.000, 0.000, 15:13:09.592
166, 136.53, -16002.15, 19.59, 19.55, 0.000, 0.000, 0.000, 15:13:09.593
167, 165.88, -15234.80, 10.32, 11.59, 0.000, 0.000, 0.000, 15:13:09.593
168, 20.46, -15973.71, 1.47, 7.30, 0.000, 0.000, 0.000, 15:13:09.594
169, 66.24, -16312.43, 14.04, 15.12, 0.000, 0.000, 0.000, 15:13:09.594
170, 191.71, -16293.62, 11.34, 15.18, 0.000, 0.000, 0.000, 15:13:09.594
171, 65.65, -16624.53, 5.10, 9.88, 0.000, 0.000, 0.000, 15:13:09.615
172, 12.60, -17396.56, 9.00, 11.01, 0.000, 0.000, 0.000, 15:13:09.615
173, 179.25, -16596.06, 16.72, 13.14, 0.000, 0.000, 0.000, 15:13:09.615
174, 121.82, -16345.68, 6.16, 8.06, 0.000, 0.000, 0.000, 15:13:09.616
175, 1.33, -17252.97, 2.65, 8.17, 0.000, 0.000, 0.000, 15:13:09.638
176, 133.92, -16985.29, 19.84, 16.08, 0.000, 0.000, 0.000, 15:13:09.638
177, 166.10, -16208.97, 8.20, 11.65, 0.000, 0.000, 0.000, 15:13:09.639
178, 22.60, -16966.64, 7.20, 6.13, 0.000, 0.000, 0.000, 15:13:09.640
179, 66.76, -17295.96, 17.82, 17.07, 0.000, 0.000, 0.000, 15:13:09.661
180, 191.55, -17278.16, 13.09, 14.19, 0.000, 0.000, 0.000, 15:13:09.661
181, 70.11, -17616.86, 2.25, 8.20, 0.000, 0.000, 0.000, 15:13:09.662
182, 17.09, -18385.14, 10.36, 12.57, 0.000, 0.000, 0.000, 15:13:09.662
183, 178.21, -17570.83, 15.72, 17.68, 0.000, 0.000, 0.000, 15:13:09.682
184, 117.71, -17327.80, 10.81, 4.51, 0.000, 0.000, 0.000, 15:13:09.683
185, -4.08, -18245.35, 11.07, 8.48, 0.000, 0.000, 0.000, 15:13:09.685
186, 136.03, -17963.14, 15.54, 19.25, 0.000, 0.000, 0.000, 15:13:09.685
187, 166.40, -17186.64, 11.27, 13.25, 0.000, 0.000, 0.000, 15:13:09.685
188, 20.16, -17942.06, 5.60, 8.43, 0.000, 0.000, 0.000, 15:13:09.686
189, 66.26, -18272.18, 12.23, 15.10, 0.000, 0.000, 0.000, 15:13:09.705
190, 192.14, -18252.54, 14.03, 14.88, 0.000, 0.000, 0.000, 15:13:09.706
191, 69.35, -18588.04, 4.16, 8.03, 0.000, 0.000, 0.000, 15:13:09.706
192, 15.13, -19351.21, 9.44, 10.44, 0.000, 0.000, 0.000, 15:13:09.706
193, 184.59, -18550.51, 19.30, 15.99, 0.000, 0.000, 0.000, 15:13:09.727
194, 120.64, -18315.76, 5.47, 10.20, 0.000, 0.000, 0.000, 15:13:09.728
195, 1.52, -19220.88, 6.48, 9.70, 0.000, 0.000, 0.000, 15:13:09.729
196, 140.96, -18924.84, 17.93, 15.47, 0.000, 0.000, 0.000, 15:13:09.729
197, 165.50, -18157.47, 7.10, 13.43, 0.000, 0.000, 0.000, 15:13:09.751
198, 20.10, -18926.75, 6.00, 8.52, 0.000, 0.000, 0.000, 15:13:09.751
199, 68.29, -19230.53, 20.00, 14.24, 0.000, 0.000, 0.000, 15:13:09.752
200, 192.75, -19212.92, 15.35, 10.87, 0.000, 0.000, 0.000, 15:13:09.752
0, 62.29, 36.75, 6.68, 6.94, 0.000, 0.000, 0.000, 15:13:09.752
1, 13.48, -727.74, 8.82, 10.49, 0.000, 0.000, 0.000, 15:13:09.772
2, 177.92, 99.95, 19.96, 18.69, 0.000, 0.000, 0.000, 15:13:09.773
3, 115.40, 325.06, 4.21, 11.03, 0.000, 0.000, 0.000, 15:13:09.773
4, -4.58, -588.99, 6.46, 8.05, 0.000, 0.000, 0.000, 15:13:09.774
5, 132.14, -294.32, 15.89, 20.03, 0.000, 0.000, 0.000, 15:13:09.795
6, 160.04, 455.45, 9.29, 9.26, 0.000, 0.000, 0.000, 15:13:09.795
7, 18.13, -311.30, 5.45, 7.19, 0.000, 0.000, 0.000, 15:13:09.796
8, 65.86, -617.74, 16.29, 14.18, 0.000, 0.000, 0.000, 15:13:09.796
9, 187.54, -600.01, 19.68, 13.14, 0.000, 0.000, 0.000, 15:13:09.818
10, 61.99, -937.31, 4.29, 7.19, 0.000, 0.000, 0.000, 15:13:09.818
11, 14.12, -1706.41, 11.74, 9.11, 0.000, 0.000, 0.000, 15:13:09.819
12, 175.61, -905.86, 14.33, 16.72, 0.000, 0.000, 0.000, 15:13:09.819
13, 112.79, -676.63, 4.94, 10.51, 0.000, 0.000, 0.000, 15:13:09.819
14, -5.27, -1586.68, 9.23, 8.19, 0.000, 0.000, 0.000, 15:13:09.819
15, 134.60, -1271.50, 17.68, 14.57, 0.000, 0.000, 0.000, 15:13:09.840
16, 159.16, -517.07, 7.34, 10.84, 0.000, 0.000, 0.000, 15:13:09.840
17, 12.45, -1299.96, 4.41, 8.22, 0.000, 0.000, 0.000, 15:13:09.840
18, 70.04, -1599.23, 14.92, 18.17, 0.000, 0.000, 0.000, 15:13:09.840
19, 189.04, -1579.59, 12.98, 14.82, 0.000, 0.000, 0.000, 15:13:09.862
20, 63.16, -1931.11, 4.80, 6.24, 0.000, 0.000, 0.000, 15:13:09.863
21, 11.98, -2697.87, 18.32, 12.54, 0.000, 0.000, 0.000, 15:13:09.863
22, 178.32, -1870.63, 17.24, 14.50, 0.000, 0.000, 0.000, 15:13:09.863
23, 113.39, -1662.89, 6.54, 6.85, 0.000, 0.000, 0.000, 15:13:09.885
24, -2.63, -2563.17, 7.32, 8.54, 0.000, 0.000, 0.000, 15:13:09.886
25, 134.12, -2256.82, 18.50, 16.14, 0.000, 0.000, 0.000, 15:13:09.886
26, 165.43, -1500.64, 12.51, 12.65, 0.000, 0.000, 0.000, 15:13:09.886
27, 19.53, -2270.00, 3.65, 8.50, 0.000, 0.000, 0.000, 15:13:09.907
28, 62.37, -2580.20, 21.82, 15.74, 0.000, 0.000, 0.000, 15:13:09.908
29, 189.67, -2554.09, 13.62, 16.27, 0.000, 0.000, 0.000, 15:13:09.908
30, 64.95, -2910.34, 3.56, 6.95, 0.000, 0.000, 0.000, 15:13:09.908
31, 13.34, -3679.76, 8.47, 11.96, 0.000, 0.000, 0.000, 15:13:09.909
32, 187.47, -2834.31, 18.13, 17.46, 0.000, 0.000, 0.000, 15:13:09.909
33, 115.59, -2637.49, 7.44, 8.08, 0.000, 0.000, 0.000, 15:13:09.930
34, -0.23, -3541.71, 4.35, 9.97, 0.000, 0.000, 0.000, 15:13:09.930
35, 139.57, -3228.14, 18.01, 18.02, 0.000, 0.000, 0.000, 15:13:09.931
36, 159.99, -2481.21, 7.31, 6.51, 0.000, 0.000, 0.000, 15:13:09.931
37, 19.39, -3259.88, 9.61, 6.94, 0.000, 0.000, 0.000, 15:13:09.952
38, 71.53, -3553.80, 19.18, 18.52, 0.000, 0.000, 0.000, 15:13:09.953
39, 196.26, -3533.70, 14.99, 13.96, 0.000, 0.000, 0.000, 15:13:09.953
40, 64.13, -3895.71, 1.72, 8.24, 0.000, 0.000, 0.000, 15:13:09.953
41, 11.87, -4653.45, 8.74, 14.99, 0.000, 0.000, 0.000, 15:13:09.975
42, 187.92, -3824.75, 18.37, 17.20, 0.000, 0.000, 0.000, 15:13:09.975
43, 114.10, -3619.94, 5.51, 7.30, 0.000, 0.000, 0.000, 15:13:09.975
44, -6.15, -4538.72, 8.12, 8.48, 0.000, 0.000, 0.000, 15:13:09.976
45, 135.54, -4202.50, 16.68, 13.23, 0.000, 0.000, 0.000, 15:13:09.997
46, 164.55, -3449.69, 4.95, 9.82, 0.000, 0.000, 0.000, 15:13:09.998
47, 14.92, -4244.97, 2.54, 9.64, 0.000, 0.000, 0.000, 15:13:09.998
48, 65.44, -4526.82, 17.90, 15.98, 0.000, 0.000, 0.000, 15:13:09.998
49, 194.25, -4509.91, 13.02, 13.47, 0.000, 0.000, 0.000, 15:13:09.999
50, 63.69, -4887.21, 5.52, 6.41, 0.000, 0.000, 0.000, 15:13:09.999
51, 16.82, -5638.08, 11.23, 16.93, 0.000, 0.000, 0.000, 15:13:10.020
52, 184.02, -4790.92, 18.73, 20.51, 0.000, 0.000, 0.000, 15:13:10.020
53, 115.46, -4598.36, 6.83, 9.40, 0.000, 0.000, 0.000, 15:13:10.021
54, -2.73, -5518.41, 4.99, 9.00, 0.000, 0.000, 0.000, 15:13:10.021
55, 132.40, -5188.25, 19.43, 18.64, 0.000, 0.000, 0.000, 15:13:10.042
56, 162.18, -4445.33, 10.57, 9.71, 0.000, 0.000, 0.000, 15:13:10.043
57, 19.79, -5246.41, 7.86, 3.76, 0.000, 0.000, 0.000, 15:13:10.043
58, 69.03, -5505.09, 17.57, 12.92, 0.000, 0.000, 0.000, 15:13:10.043
59, 191.26, -5488.06, 14.04, 17.67, 0.000, 0.000, 0.000, 15:13:10.065
60, 59.80, -5888.27, 7.16, 6.62, 0.000, 0.000, 0.000, 15:13:10.065
61, 13.77, -6635.87, 12.54, 12.27, 0.000, 0.000, 0.000, 15:13:10.065
62, 182.12, -5752.51, 19.17, 17.61, 0.000, 0.000, 0.000, 15:13:10.066
63, 111.69, -5585.79, 4.86, 12.19, 0.000, 0.000, 0.000, 15:13:10.087
64, -2.55, -6508.71, 5.98, 11.69, 0.000, 0.000, 0.000, 15:13:10.087
65, 136.69, -6156.40, 20.23, 18.25, 0.000, 0.000, 0.000, 15:13:10.088
66, 163.74, -5415.85, 7.69, 7.14, 0.000, 0.000, 0.000, 15:13:10.088
67, 16.94, -6213.97, 1.84, 7.64, 0.000, 0.000, 0.000, 15:13:10.089
68, 70.26, -6498.32, 19.48, 13.25, 0.000, 0.000, 0.000, 15:13:10.089
69, 189.97, -6470.90, 16.61, 13.37, 0.000, 0.000, 0.000, 15:13:10.110
70, 61.84, -6857.08, 1.63, 7.19, 0.000, 0.000, 0.000, 15:13:10.111
71, 21.50, -7599.36, 13.41, 11.84, 0.000, 0.000, 0.000, 15:13:10.111
72, 189.78, -6745.73, 19.94, 14.45, 0.000, 0.000, 0.000, 15:13:10.112
73, 116.10, -6573.24, 5.07, 5.25, 0.000, 0.000, 0.000, 15:13:10.132
74, -4.84, -7497.47, 7.98, 5.74, 0.000, 0.000, 0.000, 15:13:10.133
75, 134.73, -7136.94, 19.76, 19.74, 0.000, 0.000, 0.000, 15:13:10.133
76, 159.20, -6405.50, 15.42, 12.98, 0.000, 0.000, 0.000, 15:13:10.134
77, 18.87, -7206.60, 3.53, 9.45, 0.000, 0.000, 0.000, 15:13:10.155
78, 67.80, -7477.50, 14.82, 18.28, 0.000, 0.000, 0.000, 15:13:10.156
79, 189.28, -7442.56, 14.19, 14.29, 0.000, 0.000, 0.000, 15:13:10.156
80, 59.75, -7852.41, 5.78, 5.05, 0.000, 0.000, 0.000, 15:13:10.156
81, 12.42, -8582.60, 13.69, 12.12, 0.000, 0.000, 0.000, 15:13:10.178
82, 179.41, -7723.58, 20.07, 13.96, 0.000, 0.000, 0.000, 15:13:10.178
83, 110.82, -7547.47, 5.02, 12.34, 0.000, 0.000, 0.000, 15:13:10.178
84, -5.25, -8473.19, 5.08, 10.67, 0.000, 0.000, 0.000, 15:13:10.179
85, 140.81, -8111.39, 19.32, 22.47, 0.000, 0.000, 0.000, 15:13:10.179
86, 166.43, -7371.50, 5.69, 9.13, 0.000, 0.000, 0.000, 15:13:10.179
87, 14.90, -8196.17, 5.40, 7.43, 0.000, 0.000, 0.000, 15:13:10.200
88, 70.12, -8450.79, 16.56, 17.16, 0.000, 0.000, 0.000, 15:13:10.200
89, 195.15, -8418.65, 11.05, 15.39, 0.000, 0.000, 0.000, 15:13:10.201
90, 58.63, -8809.57, 3.95, 5.02, 0.000, 0.000, 0.000, 15:13:10.201
91, 13.93, -9566.37, 10.44, 11.03, 0.000, 0.000, 0.000, 15:13:10.223
92, 190.76, -8685.97, 21.63, 14.50, 0.000, 0.000, 0.000, 15:13:10.223
93, 114.38, -8534.13, 3.15, 10.63, 0.000, 0.000, 0.000, 15:13:10.224
94, -7.44, -9437.12, 8.90, 8.05, 0.000, 0.000, 0.000, 15:13:10.224
95, 138.47, -9075.10, 20.12, 13.88, 0.000, 0.000, 0.000, 15:13:10.245
96, 164.01, -8369.01, 6.43, 9.76, 0.000, 0.000, 0.000, 15:13:10.245
97, 13.54, -9178.79, 2.06, 5.59, 0.000, 0.000, 0.000, 15:13:10.245
98, 69.35, -9415.63, 17.73, 16.92, 0.000, 0.000, 0.000, 15:13:10.246
99, 195.18, -9379.59, 14.90, 13.17, 0.000, 0.000, 0.000, 15:13:10.268
100, 56.72, -9807.79, 2.84, 7.29, 0.000, 0.000, 0.000, 15:13:10.268
101, 15.42, -10534.50, 12.49, 14.23, 0.000, 0.000, 0.000, 15:13:10.268
102, 188.76, -9664.40, 19.76, 17.17, 0.000, 0.000, 0.000, 15:13:10.269
103, 113.08, -9511.07, 3.42, 6.86, 0.000, 0.000, 0.000, 15:13:10.269
104, -3.17, -10414.54, 6.17, 10.29, 0.000, 0.000, 0.000, 15:13:10.269
105, 144.55, -10049.77, 18.78, 15.04, 0.000, 0.000, 0.000, 15:13:10.290
106, 163.62, -9352.88, 9.68, 11.31, 0.000, 0.000, 0.000, 15:13:10.290
107, 11.91, -10163.31, -1.48, 7.37, 0.000, 0.000, 0.000, 15:13:10.291
108, 71.94, -10394.42, 17.32, 14.82, 0.000, 0.000, 0.000, 15:13:10.291
109, 197.26, -10364.23, 11.13, 14.07, 0.000, 0.000, 0.000, 15:13:10.312
110, 57.68, -10789.81, 4.56, 6.63, 0.000, 0.000, 0.000, 15:13:10.313
111, 17.83, -11519.59, 13.07, 12.73, 0.000, 0.000, 0.000, 15:13:10.313
112, 193.07, -10641.57, 20.83, 15.78, 0.000, 0.000, 0.000, 15:13:10.313
113, 110.69, -10502.27, 4.20, 7.61, 0.000, 0.000, 0.000, 15:13:10.335
114, -11.57, -11417.12, 12.80, 12.36, 0.000, 0.000, 0.000, 15:13:10.335
115, 141.85, -11027.71, 17.94, 14.60, 0.000, 0.000, 0.000, 15:13:10.336
116, 165.96, -10333.17, 9.10, 6.99, 0.000, 0.000, 0.000, 15:13:10.336
117, 11.10, -11142.55, 5.74, 9.59, 0.000, 0.000, 0.000, 15:13:10.357
118, 76.42, -11363.36, 18.46, 20.35, 0.000, 0.000, 0.000, 15:13:10.357
119, 196.88, -11350.23, 13.84, 10.40, 0.000, 0.000, 0.000, 15:13:10.358
120, 54.74, -11787.32, 6.95, 4.21, 0.000, 0.000, 0.000, 15:13:10.358
121, 13.87, -12502.40, 8.34, 10.98, 0.000, 0.000, 0.000, 15:13:10.358
122, 192.31, -11616.10, 15.19, 19.31, 0.000, 0.000, 0.000, 15:13:10.359
123, 115.63, -11478.49, 9.02, 5.42, 0.000, 0.000, 0.000, 15:13:10.380
124, -5.95, -12397.51, 6.66, 6.50, 0.000, 0.000, 0.000, 15:13:10.380
125, 140.06, -12003.32, 19.41, 17.71, 0.000, 0.000, 0.000, 15:13:10.380
126, 160.54, -11313.87, 15.73, 10.09, 0.000, 0.000, 0.000, 15:13:10.380
127, 10.78, -12138.43, 0.22, 7.69, 0.000, 0.000, 0.000, 15:13:10.402
128, 76.28, -12350.25, 17.01, 16.21, 0.000, 0.000, 0.000, 15:13:10.403
129, 197.47, -12335.55, 9.39, 14.40, 0.000, 0.000, 0.000, 15:13:10.403
130, 61.11, -12772.57, 5.74, 7.19, 0.000, 0.000, 0.000, 15:13:10.403
131, 18.31, -13484.99, 11.22, 18.01, 0.000, 0.000, 0.000, 15:13:10.425
132, 190.46, -12600.93, 17.43, 15.78, 0.000, 0.000, 0.000, 15:13:10.425
133, 106.47, -12469.66, 10.26, 8.76, 0.000, 0.000, 0.000, 15:13:10.426
134, -6.02, -13391.74, 7.96, 6.99, 0.000, 0.000, 0.000, 15:13:10.426
135, 145.04, -12976.99, 21.55, 17.51, 0.000, 0.000, 0.000, 15:13:10.447
136, 163.25, -12289.41, 9.80, 12.51, 0.000, 0.000, 0.000, 15:13:10.448
137, 9.36, -13108.53, 7.38, 5.76, 0.000, 0.000, 0.000, 15:13:10.448
138, 74.08, -13328.21, 17.07, 17.38, 0.000, 0.000, 0.000, 15:13:10.448
139, 197.58, -13304.42, 16.31, 16.97, 0.000, 0.000, 0.000, 15:13:10.449
140, 54.78, -13725.92, 0.38, 6.74, 0.000, 0.000, 0.000, 15:13:10.449
141, 15.92, -14459.05, 16.77, 13.86, 0.000, 0.000, 0.000, 15:13:10.470
142, 189.03, -13583.02, 17.75, 17.66, 0.000, 0.000, 0.000, 15:13:10.470
143, 108.48, -13443.53, 5.86, 7.68, 0.000, 0.000, 0.000, 15:13:10.470
144, -6.71, -14356.54, 3.96, 10.01, 0.000, 0.000, 0.000, 15:13:10.471
145, 147.85, -13967.75, 17.28, 17.01, 0.000, 0.000, 0.000, 15:13:10.492
146, 160.53, -13277.81, 13.10, 11.03, 0.000, 0.000, 0.000, 15:13:10.493
147, 9.26, -14095.80, 1.98, 8.11, 0.000, 0.000, 0.000, 15:13:10.493
148, 74.99, -14315.15, 14.55, 18.53, 0.000, 0.000, 0.000, 15:13:10.494
149, 197.40, -14289.28, 13.45, 11.87, 0.000, 0.000, 0.000, 15:13:10.515
150, 51.20, -14723.21, 6.14, 7.54, 0.000, 0.000, 0.000, 15:13:10.515
151, 15.01, -15436.72, 12.55, 16.00, 0.000, 0.000, 0.000, 15:13:10.515
152, 184.07, -14551.21, 16.08, 13.67, 0.000, 0.000, 0.000, 15:13:10.516
153, 102.99, -14433.90, 8.26, 7.65, 0.000, 0.000, 0.000, 15:13:10.537
154, -12.29, -15356.11, 7.06, 4.31, 0.000, 0.000, 0.000, 15:13:10.538
155, 146.02, -14962.89, 18.09, 17.38, 0.000, 0.000, 0.000, 15:13:10.538
156, 164.25, -14272.37, 9.63, 12.68, 0.000, 0.000, 0.000, 15:13:10.538
157, 17.28, -15107.60, 4.34, 7.77, 0.000, 0.000, 0.000, 15:13:10.539
158, 84.07, -15319.17, 13.12, 16.98, 0.000, 0.000, 0.000, 15:13:10.539
159, 202.41, -15274.80, 8.83, 11.95, 0.000, 0.000, 0.000, 15:13:10.560
160, 72.42, -15684.38, 8.07, 6.34, 0.000, 0.000, 0.000, 15:13:10.560
161, 35.26, -16389.02, 13.37, 14.36, 0.000, 0.000, 0.000, 15:13:10.560
162, 206.71, -15497.16, 16.97, 15.20, 0.000, 0.000, 0.000, 15:13:10.561
163, 117.62, -15391.10, 4.90, 6.16, 0.000, 0.000, 0.000, 15:13:10.582
164, -5.42, -16320.95, 5.50, 7.91, 0.000, 0.000, 0.000, 15:13:10.583
165, 140.71, -15904.73, 21.72, 22.53, 0.000, 0.000, 0.000, 15:13:10.583
166, 157.47, -15228.03, 6.18, 11.83, 0.000, 0.000, 0.000, 15:13:10.583
167, 6.69, -16061.33, 7.78, 8.32, 0.000, 0.000, 0.000, 15:13:10.605
168, 74.56, -16263.74, 15.65, 17.62, 0.000, 0.000, 0.000, 15:13:10.605
169, 190.20, -16238.59, 10.86, 13.52, 0.000, 0.000, 0.000, 15:13:10.606
170, 51.11, -16705.14, 2.73, 4.07, 0.000, 0.000, 0.000, 15:13:10.606
171, 12.91, -17400.39, 17.20, 12.50, 0.000, 0.000, 0.000, 15:13:10.627
172, 186.10, -16504.53, 12.34, 13.23, 0.000, 0.000, 0.000, 15:13:10.627
173, 104.86, -16398.36, 5.21, 11.07, 0.000, 0.000, 0.000, 15:13:10.628
174, -11.67, -17313.17, 7.46, 10.99, 0.000, 0.000, 0.000, 15:13:10.628
175, 143.60, -16892.23, 20.56, 20.38, 0.000, 0.000, 0.000, 15:13:10.629
176, 158.54, -16217.07, 10.62, 12.46, 0.000, 0.000, 0.000, 15:13:10.629
177, 6.88, -17064.04, 5.86, 6.88, 0.000, 0.000, 0.000, 15:13:10.650
178, 74.63, -17248.84, 17.57, 12.14, 0.000, 0.000, 0.000, 15:13:10.650
179, 191.08, -17234.21, 10.13, 10.26, 0.000, 0.000, 0.000, 15:13:10.650
180, 53.75, -17676.41, 2.51, 4.96, 0.000, 0.000, 0.000, 15:13:10.651
181, 17.14, -18372.28, 12.70, 13.89, 0.000, 0.000, 0.000, 15:13:10.672
182, 191.61, -17475.04, 18.59, 16.87, 0.000, 0.000, 0.000, 15:13:10.673
183, 102.37, -17377.37, 4.64, 7.30, 0.000, 0.000, 0.000, 15:13:10.673
184, -7.03, -18301.09, 10.22, 11.56, 0.000, 0.000, 0.000, 15:13:10.673
185, 148.63, -17873.93, 18.68, 21.10, 0.000, 0.000, 0.000, 15:13:10.695
186, 158.51, -17187.79, 13.41, 7.34, 0.000, 0.000, 0.000, 15:13:10.695
187, 10.65, -18019.62, 3.90, 7.01, 0.000, 0.000, 0.000, 15:13:10.695
188, 79.55, -18213.72, 18.86, 18.92, 0.000, 0.000, 0.000, 15:13:10.695
189, 195.15, -18203.67, 12.48, 12.40, 0.000, 0.000, 0.000, 15:13:10.718
190, 55.65, -18661.16, 7.49, 6.97, 0.000, 0.000, 0.000, 15:13:10.718
191, 19.65, -19359.53, 15.72, 12.12, 0.000, 0.000, 0.000, 15:13:10.719
192, 193.41, -18463.50, 13.63, 13.26, 0.000, 0.000, 0.000, 15:13:10.719
193, 111.37, -18350.94, 6.34, 6.86, 0.000, 0.000, 0.000, 15:13:10.719
194, 0.01, -19270.95, 7.95, 12.95, 0.000, 0.000, 0.000, 15:13:10.719
195, 151.39, -18856.86, 17.21, 15.71, 0.000, 0.000, 0.000, 15:13:10.740
196, 163.08, -18179.18, 12.58, 12.43, 0.000, 0.000, 0.000, 15:13:10.740
197, 14.71, -19011.76, 2.43, 7.07, 0.000, 0.000, 0.000, 15:13:10.741
198, 82.33, -19190.07, 17.11, 14.44, 0.000, 0.000, 0.000, 15:13:10.741
199, 193.17, -19187.86, 12.30, 13.59, 0.000, 0.000, 0.000, 15:13:10.762
200, 52.36, -19651.84, 5.37, 5.59, 0.000, 0.000, 0.000, 15:13:10.763
0, 20.09, -738.88, 15.61, 14.56, 0.000, 0.000, 0.000, 15:13:10.763
1, 191.60, 168.42, 17.25, 18.49, 0.000, 0.000, 0.000, 15:13:10.764
2, 105.94, 267.23, 5.23, 10.03, 0.000, 0.000, 0.000, 15:13:10.764
3, -2.58, -647.77, 7.85, 10.80, 0.000, 0.000, 0.000, 15:13:10.785
4, 150.35, -224.49, 20.19, 20.49, 0.000, 0.000, 0.000, 15:13:10.785
5, 167.30, 448.93, 4.85, 12.88, 0.000, 0.000, 0.000, 15:13:10.785
6, 15.79, -386.51, 5.64, 6.08, 0.000, 0.000, 0.000, 15:13:10.785
7, 75.68, -573.49, 14.81, 12.89, 0.000, 0.000, 0.000, 15:13:10.807
8, 187.52, 406.05, 11.02, 17.13, 0.000, 0.000, 0.000, 15:13:10.807
9, 55.34, -39.20, 8.59, 7.54, 0.000, 0.000, 0.000, 15:13:10.808
10, 23.11, -723.91, 14.13, 11.44, 0.000, 0.000, 0.000, 15:13:10.808
11, 191.79, 172.19, 16.54, 13.15, 0.000, 0.000, 0.000, 15:13:10.830
12, 112.12, 268.24, 6.65, 7.13, 0.000, 0.000, 0.000, 15:13:10.830
13, -4.92, -639.56, 7.01, 10.28, 0.000, 0.000, 0.000, 15:13:10.831
14, 147.94, -220.02, 18.84, 14.83, 0.000, 0.000, 0.000, 15:13:10.831
15, 159.46, 450.05, 7.57, 10.27, 0.000, 0.000, 0.000, 15:13:10.853
16, 17.99, -373.08, 8.07, 10.09, 0.000, 0.000, 0.000, 15:13:10.853
17, 79.01, -560.36, 20.30, 19.18, 0.000, 0.000, 0.000, 15:13:10.853
18, 185.32, -556.40, 12.47, 12.51, 0.000, 0.000, 0.000, 15:13:10.853
19, 52.14, -1021.14, 1.59, 7.91, 0.000, 0.000, 0.000, 15:13:10.854
20, 21.25, -1704.30, 14.08, 16.78, 0.000, 0.000, 0.000, 15:13:10.854
21, 190.15, -800.51, 20.53, 16.73, 0.000, 0.000, 0.000, 15:13:10.875
22, 104.99, -715.14, 4.05, 8.20, 0.000, 0.000, 0.000, 15:13:10.875
23, -3.64, -1625.24, 2.72, 6.15, 0.000, 0.000, 0.000, 15:13:10.876
24, 143.12, -1182.79, 22.66, 15.14, 0.000, 0.000, 0.000, 15:13:10.876
25, 154.11, -528.50, 5.98, 6.46, 0.000, 0.000, 0.000, 15:13:10.897
26, 8.76, -1359.54, 6.82, 7.52, 0.000, 0.000, 0.000, 15:13:10.897
27, 78.14, -1534.07, 18.73, 16.99, 0.000, 0.000, 0.000, 15:13:10.898
28, 188.46, -557.67, 14.39, 10.81, 0.000, 0.000, 0.000, 15:13:10.898
29, 46.37, -1029.00, 4.39, 7.44, 0.000, 0.000, 0.000, 15:13:10.920
30, 17.66, -1711.86, 21.29, 14.40, 0.000, 0.000, 0.000, 15:13:10.920
31, 184.01, -800.42, 15.11, 18.86, 0.000, 0.000, 0.000, 15:13:10.920
32, 103.56, -716.55, 6.34, 8.49, 0.000, 0.000, 0.000, 15:13:10.920
33, 1.35, -1634.14, 5.64, 8.51, 0.000, 0.000, 0.000, 15:13:10.942
34, 144.37, -1187.72, 22.91, 16.24, 0.000, 0.000, 0.000, 15:13:10.943
35, 154.74, -531.92, 9.44, 7.78, 0.000, 0.000, 0.000, 15:13:10.943
36, 5.03, -1371.88, 4.20, 8.98, 0.000, 0.000, 0.000, 15:13:10.943
37, 79.79, -1539.25, 12.78, 15.26, 0.000, 0.000, 0.000, 15:13:10.943
38, 188.22, -560.42, 12.13, 14.95, 0.000, 0.000, 0.000, 15:13:10.944
39, 49.30, -1032.76, 5.85, 5.18, 0.000, 0.000, 0.000, 15:13:10.965
40, 19.78, -1712.32, 12.64, 13.88, 0.000, 0.000, 0.000, 15:13:10.965
41, 190.23, -812.35, 12.11, 12.88, 0.000, 0.000, 0.000, 15:13:10.965
42, 99.74, -733.14, 7.07, 11.40, 0.000, 0.000, 0.000, 15:13:10.965
43, -7.30, -1635.34, 12.19, 11.88, 0.000, 0.000, 0.000, 15:13:10.987
44, 151.82, -1187.52, 15.76, 17.57, 0.000, 0.000, 0.000, 15:13:10.988
45, 157.89, -536.57, 9.19, 10.20, 0.000, 0.000, 0.000, 15:13:10.988
46, 7.98, -1376.08, -0.53, 7.91, 0.000, 0.000, 0.000, 15:13:10.988
47, 82.59, -1540.89, 17.24, 16.36, 0.000, 0.000, 0.000, 15:13:11.010
48, 188.08, -560.73, 9.95, 12.89, 0.000, 0.000, 0.000, 15:13:11.010
49, 54.05, -1034.79, 2.54, 8.07, 0.000, 0.000, 0.000, 15:13:11.011
50, 24.22, -1699.48, 13.42, 13.02, 0.000, 0.000, 0.000, 15:13:11.011
51, 185.49, -807.29, 15.33, 15.20, 0.000, 0.000, 0.000, 15:13:11.032
52, 104.03, -727.14, 7.29, 6.06, 0.000, 0.000, 0.000, 15:13:11.032
53, -4.84, -1634.08, 10.89, 10.03, 0.000, 0.000, 0.000, 15:13:11.032
54, 147.42, -1192.80, 25.01, 17.42, 0.000, 0.000, 0.000, 15:13:11.033
55, 155.99, -547.03, 10.41, 11.51, 0.000, 0.000, 0.000, 15:13:11.033
56, 13.31, -1376.15, 5.30, 7.78, 0.000, 0.000, 0.000, 15:13:11.033
57, 82.82, -1538.41, 17.32, 16.93, 0.000, 0.000, 0.000, 15:13:11.055
58, 189.50, -1532.94, 12.34, 10.73, 0.000, 0.000, 0.000, 15:13:11.055
59, 45.54, -2018.01, 5.44, 6.69, 0.000, 0.000, 0.000, 15:13:11.056
60, 24.69, -2684.50, 13.13, 14.97, 0.000, 0.000, 0.000, 15:13:11.056
61, 186.39, -1787.00, 17.02, 19.53, 0.000, 0.000, 0.000, 15:13:11.077
62, 100.73, -1712.94, 5.86, 7.54, 0.000, 0.000, 0.000, 15:13:11.077
63, -2.11, -2625.88, 8.48, 8.02, 0.000, 0.000, 0.000, 15:13:11.078
64, 148.39, -2165.09, 20.47, 14.93, 0.000, 0.000, 0.000, 15:13:11.078
65, 153.04, -1520.27, 7.00, 12.28, 0.000, 0.000, 0.000, 15:13:11.100
66, 7.26, -2364.16, 2.84, 6.44, 0.000, 0.000, 0.000, 15:13:11.100
67, 89.12, -2520.30, 16.53, 16.25, 0.000, 0.000, 0.000, 15:13:11.100
68, 194.00, -1543.63, 16.27, 17.76, 0.000, 0.000, 0.000, 15:13:11.100
69, 51.09, -2004.78, 4.76, 6.62, 0.000, 0.000, 0.000, 15:13:11.122
70, 20.21, -2699.58, 12.93, 13.03, 0.000, 0.000, 0.000, 15:13:11.123
71, 186.08, -1785.81, 13.59, 16.13, 0.000, 0.000, 0.000, 15:13:11.123
72, 101.80, -1706.02, 2.60, 10.11, 0.000, 0.000, 0.000, 15:13:11.124
73, -5.72, -2606.77, 12.94, 11.77, 0.000, 0.000, 0.000, 15:13:11.127
74, 153.01, -2174.99, 20.21, 16.21, 0.000, 0.000, 0.000, 15:13:11.127
75, 151.63, -1537.09, 5.89, 7.31, 0.000, 0.000, 0.000, 15:13:11.146
76, 12.41, -2350.33, 6.08, 11.54, 0.000, 0.000, 0.000, 15:13:11.146
77, 85.17, -2507.84, 15.24, 17.87, 0.000, 0.000, 0.000, 15:13:11.147
78, 187.95, -1547.72, 13.41, 17.69, 0.000, 0.000, 0.000, 15:13:11.147
79, 52.12, -2016.09, 2.29, 6.17, 0.000, 0.000, 0.000, 15:13:11.167
80, 30.56, -2668.03, 15.72, 11.84, 0.000, 0.000, 0.000, 15:13:11.167
81, 189.15, -1780.10, 21.19, 14.90, 0.000, 0.000, 0.000, 15:13:11.168
82, 98.90, -1729.88, 4.19, 0.13, 0.000, 0.000, 0.000, 15:13:11.168
83, -3.30, -2602.58, 6.94, 8.35, 0.000, 0.000, 0.000, 15:13:11.190
84, 148.29, -2147.83, 17.44, 15.95, 0.000, 0.000, 0.000, 15:13:11.190
85, 158.05, -1523.75, 7.81, 12.00, 0.000, 0.000, 0.000, 15:13:11.190
86, 10.65, -2362.27, 5.41, 8.64, 0.000, 0.000, 0.000, 15:13:11.191
87, 87.72, -2504.02, 22.18, 19.74, 0.000, 0.000, 0.000, 15:13:11.212
88, 190.50, -1534.18, 14.40, 16.57, 0.000, 0.000, 0.000, 15:13:11.212
89, 46.50, -2023.89, 1.01, 4.45, 0.000, 0.000, 0.000, 15:13:11.213
90, 27.59, -2683.63, 10.41, 17.02, 0.000, 0.000, 0.000, 15:13:11.213
91, 191.47, -1770.26, 15.90, 16.24, 0.000, 0.000, 0.000, 15:13:11.214
92, 100.73, -1716.97, 3.13, 8.18, 0.000, 0.000, 0.000, 15:13:11.214
93, -2.48, -2613.86, 10.70, 10.73, 0.000, 0.000, 0.000, 15:13:11.235
94, 154.78, -2144.95, 18.56, 15.68, 0.000, 0.000, 0.000, 15:13:11.235
95, 151.20, -1525.34, 8.80, 13.15, 0.000, 0.000, 0.000, 15:13:11.236
96, 9.28, -2368.93, 2.68, 6.51, 0.000, 0.000, 0.000, 15:13:11.236
97, 84.96, -2501.92, 19.36, 19.49, 0.000, 0.000, 0.000, 15:13:11.258
98, 187.52, -1535.23, 12.59, 9.29, 0.000, 0.000, 0.000, 15:13:11.258
99, 46.68, -2030.10, -0.61, 3.66, 0.000, 0.000, 0.000, 15:13:11.259
100, 25.47, -2697.95, 14.71, 13.13, 0.000, 0.000, 0.000, 15:13:11.259
101, 192.01, -1771.59, 19.17, 15.00, 0.000, 0.000, 0.000, 15:13:11.280
102, 99.49, -1715.93, 3.69, 7.53, 0.000, 0.000, 0.000, 15:13:11.280
103, -5.50, -2623.79, 10.71, 9.86, 0.000, 0.000, 0.000, 15:13:11.280
104, 150.89, -2144.74, 15.65, 17.39, 0.000, 0.000, 0.000, 15:13:11.281
105, 149.06, -1526.05, 6.84, 7.90, 0.000, 0.000, 0.000, 15:13:11.302
106, 12.20, -2375.76, 5.37, 6.34, 0.000, 0.000, 0.000, 15:13:11.303
107, 87.99, -2511.31, 19.01, 16.28, 0.000, 0.000, 0.000, 15:13:11.303
108, 187.27, -1537.28, 11.60, 11.46, 0.000, 0.000, 0.000, 15:13:11.303
109, 48.97, -2029.35, 2.86, 4.98, 0.000, 0.000, 0.000, 15:13:11.304
110, 20.58, -2690.30, 13.49, 14.92, 0.000, 0.000, 0.000, 15:13:11.304
111, 187.83, -1771.49, 14.65, 13.89, 0.000, 0.000, 0.000, 15:13:11.325
112, 98.74, -1716.96, 10.05, 7.46, 0.000, 0.000, 0.000, 15:13:11.325
113, -0.08, -2613.82, 8.70, 11.23, 0.000, 0.000, 0.000, 15:13:11.325
114, 153.17, -2154.35, 21.17, 18.16, 0.000, 0.000, 0.000, 15:13:11.326
115, 152.95, -1530.67, 9.91, 9.82, 0.000, 0.000, 0.000, 15:13:11.347
116, 11.99, -2368.13, 3.91, 9.98, 0.000, 0.000, 0.000, 15:13:11.347
117, 84.51, -2508.88, 19.41, 15.63, 0.000, 0.000, 0.000, 15:13:11.348
118, 189.18, -1539.63, 14.20, 11.89, 0.000, 0.000, 0.000, 15:13:11.348
119, 52.46, -2020.70, -0.11, 6.77, 0.000, 0.000, 0.000, 15:13:11.370
120, 26.41, -2685.31, 9.88, 17.48, 0.000, 0.000, 0.000, 15:13:11.370
121, 185.05, -1774.51, 19.61, 17.14, 0.000, 0.000, 0.000, 15:13:11.371
122, 94.63, -1709.79, 1.81, 6.76, 0.000, 0.000, 0.000, 15:13:11.371
123, -7.84, -2624.70, 10.24, 10.55, 0.000, 0.000, 0.000, 15:13:11.392
124, 149.95, -2141.12, 18.14, 20.25, 0.000, 0.000, 0.000, 15:13:11.392
125, 154.26, -1515.88, 11.20, 10.45, 0.000, 0.000, 0.000, 15:13:11.393
126, 8.76, -2398.36, 3.69, 5.56, 0.000, 0.000, 0.000, 15:13:11.393
127, 90.50, -2501.86, 18.36, 19.88, 0.000, 0.000, 0.000, 15:13:11.394
128, 190.93, -2495.12, 7.77, 9.32, 0.000, 0.000, 0.000, 15:13:11.394
129, 48.01, -3008.90, 5.34, 5.44, 0.000, 0.000, 0.000, 15:13:11.415
130, 28.57, -3668.64, 16.16, 9.88, 0.000, 0.000, 0.000, 15:13:11.415
131, 193.90, -2749.85, 14.94, 14.47, 0.000, 0.000, 0.000, 15:13:11.416
132, 101.74, -2685.00, 3.70, 7.59, 0.000, 0.000, 0.000, 15:13:11.416
133, -11.32, -3601.01, 5.28, 13.81, 0.000, 0.000, 0.000, 15:13:11.437
134, 150.02, -3130.02, 18.53, 14.69, 0.000, 0.000, 0.000, 15:13:11.438
135, 151.76, -2513.73, 7.93, 10.05, 0.000, 0.000, 0.000, 15:13:11.438
136, 11.83, -3347.83, 3.86, 8.99, 0.000, 0.000, 0.000, 15:13:11.438
137, 88.72, -3469.58, 19.76, 17.04, 0.000, 0.000, 0.000, 15:13:11.460
138, 192.18, -2516.33, 15.20, 11.29, 0.000, 0.000, 0.000, 15:13:11.460
139, 53.76, -3014.59, 3.22, 4.58, 0.000, 0.000, 0.000, 15:13:11.461
140, 30.74, -3658.62, 12.67, 14.18, 0.000, 0.000, 0.000, 15:13:11.461
141, 191.83, -2744.71, 18.94, 17.21, 0.000, 0.000, 0.000, 15:13:11.482
142, 100.40, -2713.05, 8.10, 7.47, 0.000, 0.000, 0.000, 15:13:11.482
143, 3.72, -3606.85, 10.62, 9.11, 0.000, 0.000, 0.000, 15:13:11.483
144, 160.68, -3115.88, 17.55, 18.50, 0.000, 0.000, 0.000, 15:13:11.483
145, 140.88, -2513.50, 7.44, 11.10, 0.000, 0.000, 0.000, 15:13:11.483
146, 13.07, -3357.84, 6.40, 10.14, 0.000, 0.000, 0.000, 15:13:11.484
147, 92.06, -3466.94, 18.17, 19.55, 0.000, 0.000, 0.000, 15:13:11.505
148, 189.12, -2516.92, 16.35, 12.18, 0.000, 0.000, 0.000, 15:13:11.505
149, 44.69, -3012.60, 2.92, 7.55, 0.000, 0.000, 0.000, 15:13:11.506
150, 23.91, -3661.22, 15.46, 16.27, 0.000, 0.000, 0.000, 15:13:11.506
151, 191.05, -2740.18, 20.37, 16.25, 0.000, 0.000, 0.000, 15:13:11.527
152, 98.59, -2714.72, 5.73, 5.74, 0.000, 0.000, 0.000, 15:13:11.528
153, -0.41, -3607.65, 6.16, 9.32, 0.000, 0.000, 0.000, 15:13:11.528
154, 153.63, -3102.48, 18.42, 16.55, 0.000, 0.000, 0.000, 15:13:11.528
155, 142.28, -2508.74, 11.06, 8.73, 0.000, 0.000, 0.000, 15:13:11.550
156, 7.00, -3360.08, 3.74, 11.51, 0.000, 0.000, 0.000, 15:13:11.550
157, 87.35, -3465.20, 24.52, 19.53, 0.000, 0.000, 0.000, 15:13:11.550
158, 183.25, -2508.47, 16.58, 11.21, 0.000, 0.000, 0.000, 15:13:11.551
159, 45.73, -3030.96, 2.47, 4.68, 0.000, 0.000, 0.000, 15:13:11.573
160, 32.24, -3667.62, 12.75, 16.20, 0.000, 0.000, 0.000, 15:13:11.573
161, 189.84, -2740.38, 9.97, 15.70, 0.000, 0.000, 0.000, 15:13:11.574
162, 98.13, -2710.83, 7.89, 5.98, 0.000, 0.000, 0.000, 15:13:11.574
163, -3.47, -3619.73, 7.38, 9.51, 0.000, 0.000, 0.000, 15:13:11.575
164, 153.42, -3115.19, 18.23, 18.56, 0.000, 0.000, 0.000, 15:13:11.575
165, 145.73, -2511.96, 7.52, 7.82, 0.000, 0.000, 0.000, 15:13:11.595
166, 8.78, -3358.27, 9.34, 8.17, 0.000, 0.000, 0.000, 15:13:11.595
167, 90.21, -3472.61, 19.64, 19.24, 0.000, 0.000, 0.000, 15:13:11.596
168, 179.18, -2528.23, 14.40, 15.61, 0.000, 0.000, 0.000, 15:13:11.596
169, 44.18, -3026.89, 4.08, 6.34, 0.000, 0.000, 0.000, 15:13:11.617
170, 29.61, -3663.65, 14.65, 11.54, 0.000, 0.000, 0.000, 15:13:11.618
171, 193.33, -2743.53, 13.03, 15.20, 0.000, 0.000, 0.000, 15:13:11.618
172, 98.21, -2745.01, 3.92, 9.41, 0.000, 0.000, 0.000, 15:13:11.618
173, 1.97, -3644.57, 7.97, 11.69, 0.000, 0.000, 0.000, 15:13:11.640
174, 163.64, -3116.99, 18.15, 18.31, 0.000, 0.000, 0.000, 15:13:11.640
175, 162.47, -2504.65, 4.94, 7.31, 0.000, 0.000, 0.000, 15:13:11.641
176, 23.64, -3353.07, 2.05, 7.16, 0.000, 0.000, 0.000, 15:13:11.641
177, 105.34, -3441.36, 12.76, 14.41, 0.000, 0.000, 0.000, 15:13:11.662
178, 187.18, -2471.66, 13.60, 14.48, 0.000, 0.000, 0.000, 15:13:11.662
179, 44.54, -3007.71, 3.25, 9.36, 0.000, 0.000, 0.000, 15:13:11.664
180, 28.07, -3656.51, 10.78, 16.17, 0.000, 0.000, 0.000, 15:13:11.664
181, 183.90, -2726.65, 15.53, 13.50, 0.000, 0.000, 0.000, 15:13:11.664
182, 93.85, -2708.85, 8.67, 6.65, 0.000, 0.000, 0.000, 15:13:11.665
183, -5.05, -3608.19, 7.76, 11.36, 0.000, 0.000, 0.000, 15:13:11.685
184, 150.37, -3125.83, 18.37, 18.50, 0.000, 0.000, 0.000, 15:13:11.685
185, 142.85, -2530.81, 7.51, 9.63, 0.000, 0.000, 0.000, 15:13:11.685
186, 2.50, -3361.84, 4.22, 7.19, 0.000, 0.000, 0.000, 15:13:11.686
187, 92.47, -3453.98, 18.06, 16.93, 0.000, 0.000, 0.000, 15:13:11.707
188, 181.45, -2517.02, 14.59, 12.91, 0.000, 0.000, 0.000, 15:13:11.707
189, 41.86, -3036.11, 3.36, 7.44, 0.000, 0.000, 0.000, 15:13:11.708
190, 29.89, -3658.79, 17.06, 13.92, 0.000, 0.000, 0.000, 15:13:11.708
191, 188.70, -2719.93, 12.13, 11.77, 0.000, 0.000, 0.000, 15:13:11.730
192, 89.10, -2711.02, 2.64, 8.97, 0.000, 0.000, 0.000, 15:13:11.730
193, -5.27, -3611.40, 8.45, 13.61, 0.000, 0.000, 0.000, 15:13:11.730
194, 157.49, -3104.56, 13.60, 13.78, 0.000, 0.000, 0.000, 15:13:11.731
195, 148.29, -2524.77, 7.52, 8.66, 0.000, 0.000, 0.000, 15:13:11.753
196, 6.07, -3375.03, 9.23, 7.50, 0.000, 0.000, 0.000, 15:13:11.753
197, 89.59, -3452.14, 14.24, 14.54, 0.000, 0.000, 0.000, 15:13:11.753
198, 182.68, -2500.80, 13.53, 15.51, 0.000, 0.000, 0.000, 15:13:11.753
199, 44.06, -3040.16, 7.77, 6.79, 0.000, 0.000, 0.000, 15:13:11.754
200, 30.52, -3666.11, 13.07, 15.08, 0.000, 0.000, 0.000, 15:13:11.754
0, 188.31, 205.78, 10.90, 18.94, 0.000, 0.000, 0.000, 15:13:11.775
1, 94.81, 221.28, 6.72, 2.35, 0.000, 0.000, 0.000, 15:13:11.776
2, 0.21, -674.38, 15.52, 13.13, 0.000, 0.000, 0.000, 15:13:11.776
3, 157.41, -140.61, 19.50, 17.71, 0.000, 0.000, 0.000, 15:13:11.797
4, 145.05, 423.18, 10.51, 9.83, 0.000, 0.000, 0.000, 15:13:11.798
5, 2.40, -449.47, 6.00, 7.36, 0.000, 0.000, 0.000, 15:13:11.800
6, 94.87, -515.16, 22.05, 19.28, 0.000, 0.000, 0.000, 15:13:11.800
7, 184.61, 437.14, 16.11, 12.33, 0.000, 0.000, 0.000, 15:13:11.801
8, 48.78, -95.50, 0.42, 6.30, 0.000, 0.000, 0.000, 15:13:11.801
9, 35.71, -706.13, 14.88, 13.71, 0.000, 0.000, 0.000, 15:13:11.820
10, 193.73, 225.56, 14.91, 16.59, 0.000, 0.000, 0.000, 15:13:11.820
11, 97.38, 217.96, 3.72, 9.85, 0.000, 0.000, 0.000, 15:13:11.821
12, 2.84, -670.99, 8.58, 12.26, 0.000, 0.000, 0.000, 15:13:11.821
13, 161.07, -144.86, 25.00, 18.69, 0.000, 0.000, 0.000, 15:13:11.843
14, 147.48, 416.93, 11.79, 8.57, 0.000, 0.000, 0.000, 15:13:11.843
15, 7.55, -440.26, 8.08, 7.78, 0.000, 0.000, 0.000, 15:13:11.843
16, 95.68, -514.12, 17.04, 15.50, 0.000, 0.000, 0.000, 15:13:11.843
17, 183.27, 437.83, 10.64, 13.90, 0.000, 0.000, 0.000, 15:13:11.865
18, 44.04, -104.92, 3.01, 5.54, 0.000, 0.000, 0.000, 15:13:11.865
19, 34.60, -710.35, 14.70, 16.60, 0.000, 0.000, 0.000, 15:13:11.865
20, 193.18, 218.04, 17.39, 13.42, 0.000, 0.000, 0.000, 15:13:11.865
21, 93.82, 195.45, 6.13, 5.48, 0.000, 0.000, 0.000, 15:13:11.888
22, -1.49, -690.27, 5.43, 7.00, 0.000, 0.000, 0.000, 15:13:11.888
23, 159.72, -136.56, 19.42, 15.72, 0.000, 0.000, 0.000, 15:13:11.888
24, 150.83, 419.89, 3.86, 10.06, 0.000, 0.000, 0.000, 15:13:11.889
25, 12.42, -434.69, 7.37, 7.74, 0.000, 0.000, 0.000, 15:13:11.889
26, 94.90, -509.38, 17.93, 15.79, 0.000, 0.000, 0.000, 15:13:11.889
27, 185.15, 432.99, 10.73, 12.18, 0.000, 0.000, 0.000, 15:13:11.910
28, 48.48, -100.29, -1.65, 8.61, 0.000, 0.000, 0.000, 15:13:11.910
29, 41.10, -695.12, 15.17, 14.89, 0.000, 0.000, 0.000, 15:13:11.911
30, 200.22, 241.35, 16.12, 18.69, 0.000, 0.000, 0.000, 15:13:11.911
31, 90.39, 194.33, 7.52, 10.93, 0.000, 0.000, 0.000, 15:13:11.932
32, -6.67, -677.53, 13.73, 7.53, 0.000, 0.000, 0.000, 15:13:11.932
33, 158.06, -112.44, 18.25, 20.08, 0.000, 0.000, 0.000, 15:13:11.955
34, 143.74, 440.69, 10.25, 9.16, 0.000, 0.000, 0.000, 15:13:11.955
35, 1.06, -446.06, 2.62, 7.56, 0.000, 0.000, 0.000, 15:13:11.955
36, 91.60, -516.12, 19.43, 14.68, 0.000, 0.000, 0.000, 15:13:11.956
37, 181.28, 444.45, 13.47, 12.57, 0.000, 0.000, 0.000, 15:13:11.956
38, 40.35, -87.75, 7.71, 5.92, 0.000, 0.000, 0.000, 15:13:11.956
39, 33.51, -705.55, 12.83, 15.34, 0.000, 0.000, 0.000, 15:13:11.977
40, 188.49, 235.32, 12.72, 14.88, 0.000, 0.000, 0.000, 15:13:11.978
41, 87.79, 197.02, 0.60, 5.17, 0.000, 0.000, 0.000, 15:13:11.979
42, -3.97, -695.63, 6.84, 12.44, 0.000, 0.000, 0.000, 15:13:11.979
43, 156.10, -138.36, 20.74, 14.31, 0.000, 0.000, 0.000, 15:13:11.979
44, 141.43, 420.46, 8.53, 7.20, 0.000, 0.000, 0.000, 15:13:11.979
45, 3.34, -450.12, 3.74, 5.97, 0.000, 0.000, 0.000, 15:13:12.000
46, 92.37, -501.11, 19.59, 19.96, 0.000, 0.000, 0.000, 15:13:12.000
47, 179.49, 438.50, 11.39, 14.64, 0.000, 0.000, 0.000, 15:13:12.000
48, 39.78, -100.78, 6.31, 7.42, 0.000, 0.000, 0.000, 15:13:12.000
49, 30.69, -714.00, 22.13, 12.46, 0.000, 0.000, 0.000, 15:13:12.022
50, 187.94, 240.00, 15.33, 13.71, 0.000, 0.000, 0.000, 15:13:12.023
51, 88.15, 202.65, 3.38, 10.36, 0.000, 0.000, 0.000, 15:13:12.023
52, -1.03, -683.79, 8.04, 12.75, 0.000, 0.000, 0.000, 15:13:12.023
53, 157.33, -133.65, 21.72, 15.57, 0.000, 0.000, 0.000, 15:13:12.045
54, 144.00, 420.17, 7.75, 8.64, 0.000, 0.000, 0.000, 15:13:12.045
55, 2.71, -458.33, 1.77, 5.83, 0.000, 0.000, 0.000, 15:13:12.046
56, 95.04, -515.47, 18.15, 16.78, 0.000, 0.000, 0.000, 15:13:12.046
57, 183.05, 445.11, 15.21, 13.86, 0.000, 0.000, 0.000, 15:13:12.067
58, 42.80, -111.73, 4.19, 7.61, 0.000, 0.000, 0.000, 15:13:12.068
59, 27.82, -711.92, 13.99, 14.21, 0.000, 0.000, 0.000, 15:13:12.068
60, 184.71, 231.24, 16.84, 16.68, 0.000, 0.000, 0.000, 15:13:12.068
61, 92.04, 193.62, 2.61, 7.47, 0.000, 0.000, 0.000, 15:13:12.069
62, 1.21, -685.45, 6.37, 12.12, 0.000, 0.000, 0.000, 15:13:12.069
63, 160.68, -122.52, 17.32, 18.51, 0.000, 0.000, 0.000, 15:13:12.090
64, 141.66, 410.13, 6.52, 11.51, 0.000, 0.000, 0.000, 15:13:12.090
65, 3.89, -467.51, 5.55, 9.73, 0.000, 0.000, 0.000, 15:13:12.090
66, 97.38, -499.49, 17.32, 13.46, 0.000, 0.000, 0.000, 15:13:12.090
67, 182.88, 451.14, 14.92, 11.31, 0.000, 0.000, 0.000, 15:13:12.112
68, 44.10, -122.30, 7.35, 7.03, 0.000, 0.000, 0.000, 15:13:12.113
69, 34.73, -712.61, 15.57, 13.75, 0.000, 0.000, 0.000, 15:13:12.113
70, 189.69, 225.79, 12.17, 15.88, 0.000, 0.000, 0.000, 15:13:12.113
71, 93.16, 204.95, 2.61, 9.22, 0.000, 0.000, 0.000, 15:13:12.135
72, 3.12, -676.96, 9.64, 12.65, 0.000, 0.000, 0.000, 15:13:12.135
73, 160.97, -127.08, 18.22, 17.09, 0.000, 0.000, 0.000, 15:13:12.135
74, 143.84, 403.21, 7.01, 8.15, 0.000, 0.000, 0.000, 15:13:12.136
75, 12.91, -459.82, 3.97, 5.28, 0.000, 0.000, 0.000, 15:13:12.157
76, 102.51, -488.50, 18.62, 14.98, 0.000, 0.000, 0.000, 15:13:12.157
77, 181.43, 444.12, 12.41, 12.73, 0.000, 0.000, 0.000, 15:13:12.158
78, 37.50, -129.23, 3.22, 5.44, 0.000, 0.000, 0.000, 15:13:12.158
79, 34.34, -707.07, 15.03, 16.51, 0.000, 0.000, 0.000, 15:13:12.158
80, 186.20, 246.74, 15.54, 15.30, 0.000, 0.000, 0.000, 15:13:12.159
81, 88.11, 202.79, 4.87, 11.53, 0.000, 0.000, 0.000, 15:13:12.180
82, 1.12, -679.77, 12.67, 8.01, 0.000, 0.000, 0.000, 15:13:12.180
83, 165.01, -111.99, 18.45, 19.70, 0.000, 0.000, 0.000, 15:13:12.181
84, 142.67, 418.12, 8.10, 8.01, 0.000, 0.000, 0.000, 15:13:12.181
85, 4.73, -448.42, 10.39, 8.14, 0.000, 0.000, 0.000, 15:13:12.202
86, 97.82, -483.94, 17.56, 22.97, 0.000, 0.000, 0.000, 15:13:12.203
87, 182.32, 452.89, 10.80, 11.76, 0.000, 0.000, 0.000, 15:13:12.203
88, 43.33, -125.54, 4.95, 6.86, 0.000, 0.000, 0.000, 15:13:12.203
89, 36.48, -707.69, 14.25, 11.93, 0.000, 0.000, 0.000, 15:13:12.225
90, 190.66, 248.38, 13.66, 14.88, 0.000, 0.000, 0.000, 15:13:12.225
91, 90.62, 192.30, 2.79, 7.06, 0.000, 0.000, 0.000, 15:13:12.226
92, 1.26, -693.80, 12.06, 6.67, 0.000, 0.000, 0.000, 15:13:12.226
93, 161.08, -112.31, 17.49, 18.48, 0.000, 0.000, 0.000, 15:13:12.247
94, 140.81, 410.81, 6.56, 10.42, 0.000, 0.000, 0.000, 15:13:12.247
95, 3.84, -473.90, 1.95, 5.83, 0.000, 0.000, 0.000, 15:13:12.247
96, 100.93, -468.35, 17.50, 17.07, 0.000, 0.000, 0.000, 15:13:12.247
97, 182.08, 465.93, 10.80, 11.97, 0.000, 0.000, 0.000, 15:13:12.248
98, 36.94, -159.74, 3.27, 8.11, 0.000, 0.000, 0.000, 15:13:12.248
99, 35.77, -732.27, 18.15, 16.62, 0.000, 0.000, 0.000, 15:13:12.270
100, 187.34, 235.87, 15.88, 15.14, 0.000, 0.000, 0.000, 15:13:12.270
101, 88.53, 190.77, 3.36, 10.06, 0.000, 0.000, 0.000, 15:13:12.270
102, 2.26, -710.71, 10.12, 11.32, 0.000, 0.000, 0.000, 15:13:12.271
103, 163.70, -104.04, 18.46, 17.31, 0.000, 0.000, 0.000, 15:13:12.292
104, 138.78, 409.92, 2.13, 11.48, 0.000, 0.000, 0.000, 15:13:12.292
105, -4.88, -494.16, 5.98, 10.31, 0.000, 0.000, 0.000, 15:13:12.293
106, 95.66, -459.87, 18.08, 18.69, 0.000, 0.000, 0.000, 15:13:12.293
107, 177.05, 438.02, 14.12, 12.10, 0.000, 0.000, 0.000, 15:13:12.315
108, 40.97, -112.57, 4.87, 9.07, 0.000, 0.000, 0.000, 15:13:12.315
109, 40.91, -708.89, 17.01, 12.95, 0.000, 0.000, 0.000, 15:13:12.315
110, 191.32, 239.39, 14.15, 17.13, 0.000, 0.000, 0.000, 15:13:12.315
111, 93.26, 196.27, 4.40, 3.08, 0.000, 0.000, 0.000, 15:13:12.338
112, -0.64, -712.74, 14.71, 7.12, 0.000, 0.000, 0.000, 15:13:12.338
113, 163.75, -85.51, 17.93, 16.06, 0.000, 0.000, 0.000, 15:13:12.338
114, 145.38, 406.70, 6.81, 9.58, 0.000, 0.000, 0.000, 15:13:12.338
115, 3.62, -466.02, 5.13, 7.51, 0.000, 0.000, 0.000, 15:13:12.339
116, 103.00, -467.65, 16.84, 18.39, 0.000, 0.000, 0.000, 15:13:12.339
117, 182.01, 432.58, 8.30, 13.60, 0.000, 0.000, 0.000, 15:13:12.360
118, 39.76, -142.99, 4.94, 10.00, 0.000, 0.000, 0.000, 15:13:12.360
119, 37.82, -717.60, 15.51, 15.94, 0.000, 0.000, 0.000, 15:13:12.360
120, 192.11, 248.95, 17.91, 13.13, 0.000, 0.000, 0.000, 15:13:12.360
121, 87.82, 177.50, 6.62, 4.31, 0.000, 0.000, 0.000, 15:13:12.382
122, -0.03, -689.53, 7.69, 15.67, 0.000, 0.000, 0.000, 15:13:12.382
123, 164.26, -98.42, 23.26, 17.28, 0.000, 0.000, 0.000, 15:13:12.383
124, 141.88, 408.56, 5.63, 11.35, 0.000, 0.000, 0.000, 15:13:12.383
125, -0.37, -478.48, 5.53, 9.40, 0.000, 0.000, 0.000, 15:13:12.405
126, 101.30, -483.41, 15.93, 15.95, 0.000, 0.000, 0.000, 15:13:12.405
127, 179.09, 446.61, 15.03, 11.14, 0.000, 0.000, 0.000, 15:13:12.405
128, 34.26, -121.52, 5.13, 5.18, 0.000, 0.000, 0.000, 15:13:12.405
129, 36.32, -697.18, 12.16, 13.76, 0.000, 0.000, 0.000, 15:13:12.427
130, 192.01, 262.06, 12.14, 16.32, 0.000, 0.000, 0.000, 15:13:12.427
131, 89.57, 187.28, 3.59, 6.78, 0.000, 0.000, 0.000, 15:13:12.427
132, 8.33, -697.44, 11.02, 10.83, 0.000, 0.000, 0.000, 15:13:12.428
133, 164.59, -110.42, 16.70, 19.26, 0.000, 0.000, 0.000, 15:13:12.428
134, 136.62, 399.35, 8.24, 11.65, 0.000, 0.000, 0.000, 15:13:12.429
135, 1.92, -485.93, 5.82, 11.01, 0.000, 0.000, 0.000, 15:13:12.450
136, 106.56, -458.30, 19.03, 16.50, 0.000, 0.000, 0.000, 15:13:12.450
137, 178.59, 462.64, 11.94, 9.71, 0.000, 0.000, 0.000, 15:13:12.451
138, 33.73, -152.87, 2.03, 7.79, 0.000, 0.000, 0.000, 15:13:12.451
139, 37.72, -709.66, 18.65, 14.41, 0.000, 0.000, 0.000, 15:13:12.472
140, 190.78, 255.73, 16.55, 17.32, 0.000, 0.000, 0.000, 15:13:12.472
141, 89.00, 163.52, 1.43, 8.20, 0.000, 0.000, 0.000, 15:13:12.473
142, 2.42, -705.82, 11.65, 12.18, 0.000, 0.000, 0.000, 15:13:12.473
143, 163.70, -93.16, 21.70, 15.12, 0.000, 0.000, 0.000, 15:13:12.495
144, 136.93, 403.68, 9.03, 9.93, 0.000, 0.000, 0.000, 15:13:12.495
145, 5.06, -486.81, 7.42, 7.08, 0.000, 0.000, 0.000, 15:13:12.495
146, 106.85, -460.40, 17.06, 19.10, 0.000, 0.000, 0.000, 15:13:12.495
147, 181.03, 458.53, 11.00, 10.11, 0.000, 0.000, 0.000, 15:13:12.518
148, 37.54, -167.75, 6.54, 6.08, 0.000, 0.000, 0.000, 15:13:12.518
149, 43.27, -698.77, 11.64, 13.63, 0.000, 0.000, 0.000, 15:13:12.518
150, 192.14, 272.29, 15.44, 15.92, 0.000, 0.000, 0.000, 15:13:12.518
151, 90.51, 179.64, 4.50, 5.58, 0.000, 0.000, 0.000, 15:13:12.519
152, 2.13, -679.67, 12.12, 8.87, 0.000, 0.000, 0.000, 15:13:12.519
153, 156.79, -95.09, 19.16, 19.05, 0.000, 0.000, 0.000, 15:13:12.540
154, 136.36, 418.07, 7.54, 8.47, 0.000, 0.000, 0.000, 15:13:12.540
155, 1.63, -485.80, 4.05, 6.34, 0.000, 0.000, 0.000, 15:13:12.540
156, 101.65, -458.73, 16.55, 15.59, 0.000, 0.000, 0.000, 15:13:12.540
157, 184.22, 464.63, 8.66, 12.82, 0.000, 0.000, 0.000, 15:13:12.562
158, 36.53, -176.29, 4.10, 7.07, 0.000, 0.000, 0.000, 15:13:12.563
159, 39.67, -696.70, 16.22, 12.59, 0.000, 0.000, 0.000, 15:13:12.563
160, 179.08, 248.59, 22.37, 17.44, 0.000, 0.000, 0.000, 15:13:12.563
161, 81.70, 179.63, 2.35, 11.15, 0.000, 0.000, 0.000, 15:13:12.585
162, -0.58, -703.11, 13.26, 10.18, 0.000, 0.000, 0.000, 15:13:12.585
163, 163.61, -95.58, 20.29, 14.62, 0.000, 0.000, 0.000, 15:13:12.585
164, 139.98, 400.07, 7.24, 8.04, 0.000, 0.000, 0.000, 15:13:12.585
165, 1.62, -499.99, 4.13, 10.45, 0.000, 0.000, 0.000, 15:13:12.607
166, 103.24, -444.61, 17.97, 16.64, 0.000, 0.000, 0.000, 15:13:12.608
167, 175.43, 474.23, 10.27, 9.73, 0.000, 0.000, 0.000, 15:13:12.608
168, 32.84, -184.33, 5.79, 10.65, 0.000, 0.000, 0.000, 15:13:12.609
169, 37.72, -710.56, 14.08, 15.48, 0.000, 0.000, 0.000, 15:13:12.609
170, 195.61, -699.49, 12.43, 11.84, 0.000, 0.000, 0.000, 15:13:12.609
171, 93.21, -837.21, 8.77, 6.26, 0.000, 0.000, 0.000, 15:13:12.630
172, 9.65, -1696.80, 14.57, 7.85, 0.000, 0.000, 0.000, 15:13:12.630
173, 168.88, -1079.91, 16.43, 17.67, 0.000, 0.000, 0.000, 15:13:12.630
174, 145.39, -575.55, 10.18, 10.80, 0.000, 0.000, 0.000, 15:13:12.630
175, 21.96, -1447.95, 7.42, 8.83, 0.000, 0.000, 0.000, 15:13:12.652
176, 130.13, -1409.48, 21.32, 18.66, 0.000, 0.000, 0.000, 15:13:12.653
177, 191.17, -492.34, 7.94, 12.73, 0.000, 0.000, 0.000, 15:13:12.653
178, 38.30, -1112.32, 2.37, 7.49, 0.000, 0.000, 0.000, 15:13:12.653
179, 43.08, -1662.44, 15.35, 9.35, 0.000, 0.000, 0.000, 15:13:12.675
180, 192.23, -693.70, 11.98, 17.39, 0.000, 0.000, 0.000, 15:13:12.675
181, 77.95, -812.95, 6.99, 8.68, 0.000, 0.000, 0.000, 15:13:12.675
182, -11.16, -1688.52, 8.16, 14.76, 0.000, 0.000, 0.000, 15:13:12.676
183, 164.57, -1061.28, 17.84, 15.42, 0.000, 0.000, 0.000, 15:13:12.697
184, 145.81, -590.57, 10.73, 14.36, 0.000, 0.000, 0.000, 15:13:12.697
185, -14.80, -1482.52, 9.11, 10.42, 0.000, 0.000, 0.000, 15:13:12.697
186, 104.92, -1435.35, 19.66, 17.49, 0.000, 0.000, 0.000, 15:13:12.698
187, 182.23, -524.75, 11.70, 10.85, 0.000, 0.000, 0.000, 15:13:12.698
188, 39.83, -1145.90, 0.29, 7.41, 0.000, 0.000, 0.000, 15:13:12.698
189, 35.24, -1669.23, 12.97, 14.97, 0.000, 0.000, 0.000, 15:13:12.720
190, 158.21, -699.07, 15.14, 17.20, 0.000, 0.000, 0.000, 15:13:12.720
191, 69.77, -829.15, 6.64, 5.88, 0.000, 0.000, 0.000, 15:13:12.721
192, 34.41, -1691.81, 10.32, 9.06, 0.000, 0.000, 0.000, 15:13:12.721
193, 175.56, -1049.08, 18.70, 16.56, 0.000, 0.000, 0.000, 15:13:12.742
194, 128.21, -583.71, 8.46, 9.95, 0.000, 0.000, 0.000, 15:13:12.743
195, 62.67, -1480.76, 4.66, 8.95, 0.000, 0.000, 0.000, 15:13:12.743
196, 136.75, -1434.14, 14.60, 18.24, 0.000, 0.000, 0.000, 15:13:12.743
197, 141.26, -525.52, 6.18, 9.11, 0.000, 0.000, 0.000, 15:13:12.764
198, 17.81, -1177.92, 2.60, 9.86, 0.000, 0.000, 0.000, 15:13:12.765
199, 26.53, -1694.19, 16.26, 15.10, 0.000, 0.000, 0.000, 15:13:12.765
200, 174.81, -1688.81, 10.40, 13.36, 0.000, 0.000, 0.000, 15:13:12.765
0, 24.07, 148.25, 1.05, 6.40, 0.000, 0.000, 0.000, 15:13:12.766
1, -2.65, -706.85, 11.79, 10.78, 0.000, 0.000, 0.000, 15:13:12.787
2, 238.18, -63.08, 20.67, 18.10, 0.000, 0.000, 0.000, 15:13:12.787
3, 167.68, 401.13, 10.17, 10.07, 0.000, 0.000, 0.000, 15:13:12.788
4, -20.54, -514.10, 5.99, 8.51, 0.000, 0.000, 0.000, 15:13:12.788
5, 107.36, -436.18, 21.05, 18.19, 0.000, 0.000, 0.000, 15:13:12.810
6, 261.85, 446.32, 12.23, 8.75, 0.000, 0.000, 0.000, 15:13:12.810
7, 122.64, -177.92, 3.59, 6.45, 0.000, 0.000, 0.000, 15:13:12.810
8, -57.38, -685.77, 15.39, 13.92, 0.000, 0.000, 0.000, 15:13:12.810
9, 133.15, 263.39, 14.37, 18.06, 0.000, 0.000, 0.000, 15:13:12.832
10, 113.44, 167.89, 0.33, 6.15, 0.000, 0.000, 0.000, 15:13:12.833
11, 59.21, -713.56, 7.19, 8.82, 0.000, 0.000, 0.000, 15:13:12.833
12, 168.69, -68.20, 18.98, 15.53, 0.000, 0.000, 0.000, 15:13:12.833
13, 50.25, 401.30, 6.03, 10.98, 0.000, 0.000, 0.000, 15:13:12.834
14, -35.09, -517.13, 3.16, 7.49, 0.000, 0.000, 0.000, 15:13:12.834
15, 171.76, -428.80, 17.52, 18.06, 0.000, 0.000, 0.000, 15:13:12.855
16, 221.29, 454.76, 12.36, 14.00, 0.000, 0.000, 0.000, 15:13:12.856
17, 45.35, -200.48, 5.20, 8.76, 0.000, 0.000, 0.000, 15:13:12.856
18, -31.06, -690.02, 13.18, 13.27, 0.000, 0.000, 0.000, 15:13:12.856
19, 108.23, -678.60, 17.64, 16.76, 0.000, 0.000, 0.000, 15:13:12.878
20, 225.64, -839.47, 1.89, 10.54, 0.000, 0.000, 0.000, 15:13:12.879
21, 172.78, -1711.83, 10.31, 9.72, 0.000, 0.000, 0.000, 15:13:12.879
22, 150.42, -1020.85, 18.44, 15.62, 0.000, 0.000, 0.000, 15:13:12.879
23, 23.98, -580.24, 9.12, 11.20, 0.000, 0.000, 0.000, 15:13:12.900
24, -30.87, -1481.85, 3.39, 6.36, 0.000, 0.000, 0.000, 15:13:12.900
25, 123.77, -1413.53, 20.24, 19.13, 0.000, 0.000, 0.000, 15:13:12.901
26, 218.32, -521.28, 17.33, 10.53, 0.000, 0.000, 0.000, 15:13:12.901
27, -38.59, -1153.99, 6.30, 7.81, 0.000, 0.000, 0.000, 15:13:12.922
28, -100.22, -1659.63, 13.51, 13.55, 0.000, 0.000, 0.000, 15:13:12.923
29, 184.17, -680.17, 12.15, 12.71, 0.000, 0.000, 0.000, 15:13:12.923
30, 194.00, -821.31, 8.64, 11.20, 0.000, 0.000, 0.000, 15:13:12.923
31, 101.64, -1683.14, 6.30, 11.64, 0.000, 0.000, 0.000, 15:13:12.924
32, 219.33, -1022.54, 19.75, 18.03, 0.000, 0.000, 0.000, 15:13:12.924
33, 73.06, -579.37, 7.84, 8.33, 0.000, 0.000, 0.000, 15:13:12.945
34, -21.34, -1479.44, 6.61, 9.09, 0.000, 0.000, 0.000, 15:13:12.945
35, 226.90, -1407.63, 14.70, 16.27, 0.000, 0.000, 0.000, 15:13:12.945
36, 254.58, -517.65, 11.67, 10.23, 0.000, 0.000, 0.000, 15:13:12.945
37, -84.79, -1152.13, 2.57, 6.86, 0.000, 0.000, 0.000, 15:13:12.967
38, -111.76, -1667.37, 17.40, 14.26, 0.000, 0.000, 0.000, 15:13:12.967
39, 178.60, -692.60, 19.52, 14.93, 0.000, 0.000, 0.000, 15:13:12.968
40, 100.32, -833.83, 5.71, 9.00, 0.000, 0.000, 0.000, 15:13:12.968
41, -23.83, -1687.67, 3.81, 13.79, 0.000, 0.000, 0.000, 15:13:12.990
42, 161.15, -1018.89, 19.38, 16.05, 0.000, 0.000, 0.000, 15:13:12.990
43, 193.27, -592.57, 5.94, 9.87, 0.000, 0.000, 0.000, 15:13:12.990
44, 51.30, -1488.96, 5.50, 4.76, 0.000, 0.000, 0.000, 15:13:12.990
45, 33.60, -1402.41, 19.06, 19.08, 0.000, 0.000, 0.000, 15:13:13.013
46, 153.52, -520.41, 15.41, 11.47, 0.000, 0.000, 0.000, 15:13:13.013
47, 101.79, -1170.44, 4.27, 6.30, 0.000, 0.000, 0.000, 15:13:13.013
48, 104.37, -1673.67, 13.71, 16.40, 0.000, 0.000, 0.000, 15:13:13.014
49, 172.36, -1662.68, 14.08, 12.49, 0.000, 0.000, 0.000, 15:13:13.015
50, -11.39, -1821.79, 8.99, 5.82, 0.000, 0.000, 0.000, 15:13:13.015
51, -54.38, -2679.18, 6.06, 11.22, 0.000, 0.000, 0.000, 15:13:13.035
52, 247.69, -2013.21, 14.18, 15.22, 0.000, 0.000, 0.000, 15:13:13.035
53, 222.89, -1583.24, 6.79, 7.79, 0.000, 0.000, 0.000, 15:13:13.035
54, -57.20, -2478.77, 7.50, 6.39, 0.000, 0.000, 0.000, 15:13:13.035
55, 19.98, -2395.13, 17.57, 17.45, 0.000, 0.000, 0.000, 15:13:13.057
56, 141.20, -1509.82, 13.67, 10.33, 0.000, 0.000, 0.000, 15:13:13.057
57, 94.17, -2158.27, 4.74, 5.73, 0.000, 0.000, 0.000, 15:13:13.058
58, 119.48, -2646.94, 19.56, 15.76, 0.000, 0.000, 0.000, 15:13:13.058
59, 117.30, -2637.89, 18.04, 15.03, 0.000, 0.000, 0.000, 15:13:13.080
60, -31.06, -2810.20, 3.81, 8.67, 0.000, 0.000, 0.000, 15:13:13.080
61, 10.03, -3655.44, 12.85, 11.06, 0.000, 0.000, 0.000, 15:13:13.081
62, 248.06, -2978.22, 19.23, 17.44, 0.000, 0.000, 0.000, 15:13:13.082
63, 216.13, -2566.52, 8.21, 8.82, 0.000, 0.000, 0.000, 15:13:13.102
64, 7.57, -3471.03, 3.36, 10.67, 0.000, 0.000, 0.000, 15:13:13.102
65, 8.53, -3353.92, 15.36, 17.25, 0.000, 0.000, 0.000, 15:13:13.103
66, 129.83, -2470.69, 5.66, 11.71, 0.000, 0.000, 0.000, 15:13:13.103
67, 83.30, -3137.62, 6.95, 6.42, 0.000, 0.000, 0.000, 15:13:13.103
68, 101.00, -3635.03, 14.01, 13.25, 0.000, 0.000, 0.000, 15:13:13.103
69, 247.58, -3614.33, 13.83, 15.75, 0.000, 0.000, 0.000, 15:13:13.125
70, 96.04, -3785.57, 1.92, 9.37, 0.000, 0.000, 0.000, 15:13:13.125
71, -60.85, -4631.32, 10.75, 9.86, 0.000, 0.000, 0.000, 15:13:13.126
72, 80.22, -3959.14, 21.92, 17.43, 0.000, 0.000, 0.000, 15:13:13.126
73, 53.24, -3541.91, 8.92, 10.40, 0.000, 0.000, 0.000, 15:13:13.147
74, -6.34, -4441.66, 6.28, 15.09, 0.000, 0.000, 0.000, 15:13:13.147
75, 214.55, -4345.31, 22.06, 18.25, 0.000, 0.000, 0.000, 15:13:13.148
76, 240.68, -3470.79, 9.82, 12.04, 0.000, 0.000, 0.000, 15:13:13.148
77, 30.00, -4122.85, -0.10, 7.24, 0.000, 0.000, 0.000, 15:13:13.170
78, -36.19, -4602.24, 15.25, 14.79, 0.000, 0.000, 0.000, 15:13:13.170
79, 99.51, -4593.45, 13.77, 15.69, 0.000, 0.000, 0.000, 15:13:13.170
80, 72.22, -4774.87, 5.21, 5.25, 0.000, 0.000, 0.000, 15:13:13.170
81, 145.81, -5623.60, 12.53, 10.71, 0.000, 0.000, 0.000, 15:13:13.192
82, 240.20, -4933.31, 20.22, 16.40, 0.000, 0.000, 0.000, 15:13:13.192
83, 145.82, -4528.72, 9.61, 6.58, 0.000, 0.000, 0.000, 15:13:13.193
84, -75.77, -5424.84, 3.91, 8.11, 0.000, 0.000, 0.000, 15:13:13.193
85, 126.60, -5309.81, 17.36, 13.23, 0.000, 0.000, 0.000, 15:13:13.194
86, 234.74, -4439.53, 6.68, 11.42, 0.000, 0.000, 0.000, 15:13:13.194
87, 12.62, -5114.46, 5.78, 6.60, 0.000, 0.000, 0.000, 15:13:13.216
88, -44.11, -5581.77, 18.01, 15.61, 0.000, 0.000, 0.000, 15:13:13.217
89, 125.27, -5575.39, 15.68, 14.77, 0.000, 0.000, 0.000, 15:13:13.217
90, 90.48, -5759.34, 2.92, 7.36, 0.000, 0.000, 0.000, 15:13:13.217
91, 86.04, -6609.11, 14.83, 14.96, 0.000, 0.000, 0.000, 15:13:13.237
92, 161.53, -5927.35, 18.40, 12.81, 0.000, 0.000, 0.000, 15:13:13.237
93, 88.02, -5503.98, 5.68, 10.02, 0.000, 0.000, 0.000, 15:13:13.238
94, -4.55, -6402.29, 9.70, 9.99, 0.000, 0.000, 0.000, 15:13:13.238
95, 115.32, -6306.69, 18.97, 18.49, 0.000, 0.000, 0.000, 15:13:13.260
96, 185.09, -5431.31, 10.94, 12.20, 0.000, 0.000, 0.000, 15:13:13.260
97, 60.92, -6087.09, 4.33, 9.13, 0.000, 0.000, 0.000, 15:13:13.260
98, 69.28, -6570.37, 13.84, 17.62, 0.000, 0.000, 0.000, 15:13:13.261
99, 178.56, -6544.88, 17.50, 12.94, 0.000, 0.000, 0.000, 15:13:13.282
100, 45.97, -6728.86, 5.58, 5.39, 0.000, 0.000, 0.000, 15:13:13.283
101, 12.66, -7591.77, 8.91, 11.68, 0.000, 0.000, 0.000, 15:13:13.283
102, 184.79, -6885.89, 17.82, 18.08, 0.000, 0.000, 0.000, 15:13:13.283
103, 77.69, -6486.15, 5.21, 11.61, 0.000, 0.000, 0.000, 15:13:13.284
104, -15.94, -7380.04, 7.37, 6.37, 0.000, 0.000, 0.000, 15:13:13.284
105, 193.21, -7280.42, 21.08, 17.61, 0.000, 0.000, 0.000, 15:13:13.305
106, 203.01, -6426.27, 10.15, 13.53, 0.000, 0.000, 0.000, 15:13:13.305
107, -11.23, -7067.18, 2.64, 6.92, 0.000, 0.000, 0.000, 15:13:13.306
108, -64.06, -7528.77, 16.09, 13.37, 0.000, 0.000, 0.000, 15:13:13.306
109, 160.83, -6550.27, 14.25, 16.86, 0.000, 0.000, 0.000, 15:13:13.328
110, 166.96, -6748.53, 3.75, 10.30, 0.000, 0.000, 0.000, 15:13:13.328
111, 50.37, -7584.10, 12.20, 11.64, 0.000, 0.000, 0.000, 15:13:13.328
112, 192.46, -6879.61, 22.60, 18.01, 0.000, 0.000, 0.000, 15:13:13.329
113, 142.11, -6485.38, 9.68, 10.45, 0.000, 0.000, 0.000, 15:13:13.350
114, 11.93, -7392.00, 4.63, 7.75, 0.000, 0.000, 0.000, 15:13:13.350
115, 104.06, -7282.51, 16.77, 13.97, 0.000, 0.000, 0.000, 15:13:13.351
116, 168.76, -6406.95, 13.15, 13.17, 0.000, 0.000, 0.000, 15:13:13.351
117, 7.59, -7076.05, 3.49, 9.51, 0.000, 0.000, 0.000, 15:13:13.373
118, 38.96, -7533.83, 13.86, 16.04, 0.000, 0.000, 0.000, 15:13:13.373
119, 184.52, -7518.91, 13.42, 14.07, 0.000, 0.000, 0.000, 15:13:13.373
120, 74.03, -7715.65, 5.56, 3.74, 0.000, 0.000, 0.000, 15:13:13.373
121, 2.84, -8571.54, 10.99, 12.21, 0.000, 0.000, 0.000, 15:13:13.374
122, 168.74, -7861.69, 17.56, 18.39, 0.000, 0.000, 0.000, 15:13:13.374
123, 126.76, -7461.10, 4.13, 9.89, 0.000, 0.000, 0.000, 15:13:13.396
124, 10.87, -8378.40, 4.56, 8.27, 0.000, 0.000, 0.000, 15:13:13.396
125, 113.81, -8249.85, 21.47, 18.26, 0.000, 0.000, 0.000, 15:13:13.396
126, 147.54, -7389.26, 10.68, 10.88, 0.000, 0.000, 0.000, 15:13:13.397
127, 31.46, -8062.08, 3.81, 7.77, 0.000, 0.000, 0.000, 15:13:13.420
128, 36.98, -8523.45, 18.97, 13.53, 0.000, 0.000, 0.000, 15:13:13.421
129, 181.82, -8508.89, 20.59, 16.76, 0.000, 0.000, 0.000, 15:13:13.421
130, 80.47, -8703.22, 7.52, 4.27, 0.000, 0.000, 0.000, 15:13:13.421
131, 5.06, -9554.69, 7.75, 13.27, 0.000, 0.000, 0.000, 15:13:13.440
132, 172.12, -8816.69, 15.50, 15.71, 0.000, 0.000, 0.000, 15:13:13.440
133, 131.26, -8459.55, 3.93, 7.49, 0.000, 0.000, 0.000, 15:13:13.440
134, 3.80, -9369.57, 11.80, 7.01, 0.000, 0.000, 0.000, 15:13:13.440
135, 117.09, -9214.51, 16.25, 17.70, 0.000, 0.000, 0.000, 15:13:13.463
136, 173.18, -8370.82, 13.90, 11.98, 0.000, 0.000, 0.000, 15:13:13.463
137, 30.05, -9035.44, 2.03, 4.69, 0.000, 0.000, 0.000, 15:13:13.465
138, 52.62, -9493.60, 16.71, 14.70, 0.000, 0.000, 0.000, 15:13:13.465
139, 188.71, -8514.59, 13.98, 14.18, 0.000, 0.000, 0.000, 15:13:13.465
140, 73.70, -8724.38, 4.93, 6.96, 0.000, 0.000, 0.000, 15:13:13.465
141, 3.71, -9543.78, 10.13, 11.12, 0.000, 0.000, 0.000, 15:13:13.486
142, 172.39, -8841.75, 15.06, 20.05, 0.000, 0.000, 0.000, 15:13:13.486
143, 127.79, -8465.76, 3.70, 9.35, 0.000, 0.000, 0.000, 15:13:13.486
144, 1.71, -9366.12, 4.69, 8.57, 0.000, 0.000, 0.000, 15:13:13.486
145, 118.51, -9211.42, 24.06, 16.83, 0.000, 0.000, 0.000, 15:13:13.507
146, 171.18, -8354.71, 13.89, 11.82, 0.000, 0.000, 0.000, 15:13:13.508
147, 27.56, -9058.67, 4.55, 6.08, 0.000, 0.000, 0.000, 15:13:13.508
148, 51.85, -9494.93, 18.38, 14.82, 0.000, 0.000, 0.000, 15:13:13.508
149, 192.47, -9486.08, 13.48, 12.67, 0.000, 0.000, 0.000, 15:13:13.530
150, 72.24, -9695.61, 3.36, 0.95, 0.000, 0.000, 0.000, 15:13:13.531
151, 4.67, -10526.60, 13.45, 12.30, 0.000, 0.000, 0.000, 15:13:13.531
152, 171.47, -9800.14, 20.72, 21.35, 0.000, 0.000, 0.000, 15:13:13.531
153, 124.84, -9440.43, 6.29, 12.27, 0.000, 0.000, 0.000, 15:13:13.552
154, -4.90, -10353.92, 6.63, 9.86, 0.000, 0.000, 0.000, 15:13:13.552
155, 116.82, -10196.25, 20.98, 19.18, 0.000, 0.000, 0.000, 15:13:13.553
156, 168.60, -9339.32, 9.18, 12.56, 0.000, 0.000, 0.000, 15:13:13.553
157, 25.01, -10025.90, 4.24, 7.56, 0.000, 0.000, 0.000, 15:13:13.553
158, 52.50, -10471.00, 14.23, 17.58, 0.000, 0.000, 0.000, 15:13:13.554
159, 194.53, -10458.70, 14.24, 10.08, 0.000, 0.000, 0.000, 15:13:13.575
160, 76.14, -10680.11, 3.88, 7.87, 0.000, 0.000, 0.000, 15:13:13.575
161, 4.54, -11515.50, 12.09, 11.00, 0.000, 0.000, 0.000, 15:13:13.575
162, 174.45, -10776.97, 15.09, 17.99, 0.000, 0.000, 0.000, 15:13:13.576
163, 126.38, -10412.02, 2.25, 11.49, 0.000, 0.000, 0.000, 15:13:13.597
164, -1.52, -11326.36, 9.51, 10.07, 0.000, 0.000, 0.000, 15:13:13.598
165, 121.72, -11167.74, 17.44, 17.15, 0.000, 0.000, 0.000, 15:13:13.598
166, 168.49, -10321.86, 11.88, 13.60, 0.000, 0.000, 0.000, 15:13:13.598
167, 27.96, -10996.36, 0.69, 5.00, 0.000, 0.000, 0.000, 15:13:13.620
168, 59.31, -11436.04, 13.69, 11.80, 0.000, 0.000, 0.000, 15:13:13.620
169, 195.80, -11422.73, 21.89, 12.99, 0.000, 0.000, 0.000, 15:13:13.620
170, 67.32, -11661.23, 3.66, 8.29, 0.000, 0.000, 0.000, 15:13:13.620
171, 4.53, -12481.86, 8.75, 11.09, 0.000, 0.000, 0.000, 15:13:13.642
172, 178.38, -11746.03, 18.07, 17.28, 0.000, 0.000, 0.000, 15:13:13.642
173, 122.27, -11400.98, 6.38, 8.74, 0.000, 0.000, 0.000, 15:13:13.643
174, -9.06, -12314.33, 4.02, 10.47, 0.000, 0.000, 0.000, 15:13:13.643
175, 120.14, -12140.16, 20.00, 14.55, 0.000, 0.000, 0.000, 15:13:13.644
176, 165.56, -11309.19, 9.90, 7.84, 0.000, 0.000, 0.000, 15:13:13.644
177, 23.07, -12014.86, 3.24, 8.51, 0.000, 0.000, 0.000, 15:13:13.665
178, 51.69, -12434.18, 17.39, 15.71, 0.000, 0.000, 0.000, 15:13:13.665
179, 197.10, -12407.33, 11.93, 11.91, 0.000, 0.000, 0.000, 15:13:13.666
180, 69.44, -12644.11, 2.19, 9.42, 0.000, 0.000, 0.000, 15:13:13.666
181, 4.18, -13475.17, 12.26, 9.35, 0.000, 0.000, 0.000, 15:13:13.687
182, 171.50, -12746.48, 15.78, 15.65, 0.000, 0.000, 0.000, 15:13:13.687
183, 116.29, -12391.24, 10.66, 8.97, 0.000, 0.000, 0.000, 15:13:13.688
184, -10.16, -13289.30, 0.78, 3.73, 0.000, 0.000, 0.000, 15:13:13.688
185, 116.66, -13125.66, 17.17, 17.41, 0.000, 0.000, 0.000, 15:13:13.710
186, 164.65, -12289.07, 12.06, 14.11, 0.000, 0.000, 0.000, 15:13:13.710
187, 20.89, -13005.21, 5.61, 8.46, 0.000, 0.000, 0.000, 15:13:13.710
188, 57.88, -13419.53, 12.97, 15.88, 0.000, 0.000, 0.000, 15:13:13.711
189, 191.42, -13418.71, 12.80, 17.47, 0.000, 0.000, 0.000, 15:13:13.733
190, 75.93, -13663.20, 4.61, 6.89, 0.000, 0.000, 0.000, 15:13:13.733
191, 14.92, -14476.57, 14.56, 10.57, 0.000, 0.000, 0.000, 15:13:13.734
192, 188.29, -13703.30, 18.61, 16.95, 0.000, 0.000, 0.000, 15:13:13.734
193, 143.72, -13348.28, 5.79, 8.92, 0.000, 0.000, 0.000, 15:13:13.734
194, 12.88, -14247.14, 2.93, 6.79, 0.000, 0.000, 0.000, 15:13:13.734
195, 130.54, -14079.00, 23.91, 16.57, 0.000, 0.000, 0.000, 15:13:13.756
196, 168.67, -13242.29, 7.02, 10.45, 0.000, 0.000, 0.000, 15:13:13.756
197, 21.17, -13954.14, 2.34, 7.04, 0.000, 0.000, 0.000, 15:13:13.756
198, 54.34, -14389.12, 17.70, 14.02, 0.000, 0.000, 0.000, 15:13:13.757
199, 187.06, -14365.39, 15.96, 12.08, 0.000, 0.000, 0.000, 15:13:13.782
200, 64.35, -14615.44, 4.65, 8.21, 0.000, 0.000, 0.000, 15:13:13.782
0, -0.38, -728.81, 11.06, 13.28, 0.000, 0.000, 0.000, 15:13:13.782
1, 169.61, 5.58, 20.44, 19.13, 0.000, 0.000, 0.000, 15:13:13.782
2, 121.99, 344.64, 6.60, 8.67, 0.000, 0.000, 0.000, 15:13:13.783
3, -9.11, -560.99, 8.56, 9.05, 0.000, 0.000, 0.000, 15:13:13.800
4, 118.41, -357.21, 22.36, 15.66, 0.000, 0.000, 0.000, 15:13:13.801
5, 164.65, 470.17, 13.86, 11.79, 0.000, 0.000, 0.000, 15:13:13.801
6, 21.91, -265.25, 3.24, 8.31, 0.000, 0.000, 0.000, 15:13:13.801
7, 56.50, -647.84, 19.52, 14.91, 0.000, 0.000, 0.000, 15:13:13.822
8, 188.48, -641.34, 13.80, 12.10, 0.000, 0.000, 0.000, 15:13:13.822
9, 64.80, -893.14, 6.45, 7.45, 0.000, 0.000, 0.000, 15:13:13.823
10, 3.35, -1715.00, 9.11, 13.58, 0.000, 0.000, 0.000, 15:13:13.823
11, 176.70, -968.14, 18.87, 20.15, 0.000, 0.000, 0.000, 15:13:13.845
12, 124.09, -627.61, 2.23, 8.62, 0.000, 0.000, 0.000, 15:13:13.845
13, 0.71, -1546.72, 3.81, 6.65, 0.000, 0.000, 0.000, 15:13:13.845
14, 121.73, -1342.75, 20.90, 20.42, 0.000, 0.000, 0.000, 15:13:13.846
15, 172.45, -521.48, 11.67, 12.72, 0.000, 0.000, 0.000, 15:13:13.867
16, 19.27, -1241.89, 8.13, 4.79, 0.000, 0.000, 0.000, 15:13:13.867
17, 54.50, -1641.44, 14.17, 16.97, 0.000, 0.000, 0.000, 15:13:13.868
18, 191.00, -1612.45, 12.50, 14.56, 0.000, 0.000, 0.000, 15:13:13.868
19, 69.77, -1875.00, 3.35, 6.51, 0.000, 0.000, 0.000, 15:13:13.869
20, 9.79, -2679.47, 10.99, 11.29, 0.000, 0.000, 0.000, 15:13:13.869
21, 179.97, -1934.44, 19.78, 16.42, 0.000, 0.000, 0.000, 15:13:13.890
22, 121.31, -1616.36, 8.24, 7.29, 0.000, 0.000, 0.000, 15:13:13.890
23, -1.49, -2515.53, 2.82, 11.50, 0.000, 0.000, 0.000, 15:13:13.890
24, 129.39, -2312.87, 18.91, 16.78, 0.000, 0.000, 0.000, 15:13:13.890
25, 168.38, -1485.84, 11.11, 13.10, 0.000, 0.000, 0.000, 15:13:13.913
26, 26.13, -2219.83, 4.95, 4.23, 0.000, 0.000, 0.000, 15:13:13.913
27, 58.10, -2614.11, 18.84, 15.59, 0.000, 0.000, 0.000, 15:13:13.913
28, 193.98, -2588.62, 11.40, 15.23, 0.000, 0.000, 0.000, 15:13:13.913
29, 71.93, -2863.82, 3.42, 5.67, 0.000, 0.000, 0.000, 15:13:13.935
30, 9.87, -3671.41, 13.40, 11.89, 0.000, 0.000, 0.000, 15:13:13.935
31, 175.82, -2908.78, 19.97, 21.37, 0.000, 0.000, 0.000, 15:13:13.935
32, 124.62, -2591.88, 9.73, 8.11, 0.000, 0.000, 0.000, 15:13:13.935
33, 1.17, -3507.24, 5.97, 9.49, 0.000, 0.000, 0.000, 15:13:13.957
34, 126.23, -3305.85, 16.88, 18.20, 0.000, 0.000, 0.000, 15:13:13.957
35, 169.70, -2488.91, 13.68, 11.07, 0.000, 0.000, 0.000, 15:13:13.980
36, 25.60, -3223.02, 3.50, 3.50, 0.000, 0.000, 0.000, 15:13:13.981
37, 61.33, -3609.40, 15.41, 16.49, 0.000, 0.000, 0.000, 15:13:13.981
38, 189.37, -3574.11, 10.94, 15.35, 0.000, 0.000, 0.000, 15:13:13.982
39, 73.04, -3842.20, 7.20, 11.47, 0.000, 0.000, 0.000, 15:13:13.983
40, 9.95, -4638.96, 10.44, 14.09, 0.000, 0.000, 0.000, 15:13:13.983
41, 178.31, -3891.69, 18.96, 14.60, 0.000, 0.000, 0.000, 15:13:14.002
42, 125.36, -3573.76, 7.13, 8.33, 0.000, 0.000, 0.000, 15:13:14.002
43, -0.28, -4495.06, 4.02, 5.10, 0.000, 0.000, 0.000, 15:13:14.003
44, 130.01, -4253.92, 19.09, 18.12, 0.000, 0.000, 0.000, 15:13:14.003
45, 182.47, -3436.92, 9.82, 14.17, 0.000, 0.000, 0.000, 15:13:14.004
46, 28.06, -4194.60, 5.84, 8.22, 0.000, 0.000, 0.000, 15:13:14.004
47, 52.65, -4573.82, 17.01, 14.35, 0.000, 0.000, 0.000, 15:13:14.025
48, 190.46, -4547.69, 16.13, 14.01, 0.000, 0.000, 0.000, 15:13:14.025
49, 73.08, -4805.81, 0.96, 10.41, 0.000, 0.000, 0.000, 15:13:14.025
50, 6.31, -5614.08, 13.13, 9.13, 0.000, 0.000, 0.000, 15:13:14.025
51, 177.61, -4864.29, 17.87, 16.83, 0.000, 0.000, 0.000, 15:13:14.048
52, 119.96, -4560.96, 7.69, 8.93, 0.000, 0.000, 0.000, 15:13:14.048
53, 1.07, -5472.05, 3.38, 6.71, 0.000, 0.000, 0.000, 15:13:14.049
54, 128.17, -5245.12, 18.01, 16.38, 0.000, 0.000, 0.000, 15:13:14.049
55, 163.73, -4443.59, 9.59, 12.97, 0.000, 0.000, 0.000, 15:13:14.050
56, 21.60, -5175.95, 3.13, 6.30, 0.000, 0.000, 0.000, 15:13:14.050
57, 56.29, -5555.41, 16.62, 19.37, 0.000, 0.000, 0.000, 15:13:14.070
58, 190.86, -5507.30, 14.96, 15.40, 0.000, 0.000, 0.000, 15:13:14.070
59, 72.25, -5801.06, 3.20, 6.65, 0.000, 0.000, 0.000, 15:13:14.070
60, 7.16, -6619.28, 12.30, 14.44, 0.000, 0.000, 0.000, 15:13:14.071
61, 175.72, -5817.29, 19.60, 16.38, 0.000, 0.000, 0.000, 15:13:14.092
62, 120.29, -5535.93, 7.29, 8.40, 0.000, 0.000, 0.000, 15:13:14.092
63, -3.47, -6457.29, 5.44, 8.22, 0.000, 0.000, 0.000, 15:13:14.093
64, 125.15, -6221.09, 18.39, 15.96, 0.000, 0.000, 0.000, 15:13:14.093
65, 167.98, -5417.49, 9.10, 10.62, 0.000, 0.000, 0.000, 15:13:14.115
66, 26.23, -6156.90, 2.65, 6.22, 0.000, 0.000, 0.000, 15:13:14.115
67, 58.83, -6524.21, 18.95, 13.57, 0.000, 0.000, 0.000, 15:13:14.117
68, 190.51, -6505.60, 16.01, 12.23, 0.000, 0.000, 0.000, 15:13:14.117
69, 70.49, -6800.51, 4.11, 7.27, 0.000, 0.000, 0.000, 15:13:14.137
70, 2.43, -7598.18, 11.63, 15.37, 0.000, 0.000, 0.000, 15:13:14.138
71, 165.83, -6815.90, 17.99, 16.40, 0.000, 0.000, 0.000, 15:13:14.138
72, 114.55, -6545.46, 6.40, 7.97, 0.000, 0.000, 0.000, 15:13:14.138
73, -5.69, -7447.59, 7.11, 8.29, 0.000, 0.000, 0.000, 15:13:14.141
74, 122.20, -7216.08, 18.98, 21.36, 0.000, 0.000, 0.000, 15:13:14.141
75, 166.40, -6399.70, 9.75, 10.71, 0.000, 0.000, 0.000, 15:13:14.160
76, 24.05, -7141.80, 1.88, 6.08, 0.000, 0.000, 0.000, 15:13:14.160
77, 60.23, -7531.15, 14.47, 15.86, 0.000, 0.000, 0.000, 15:13:14.160
78, 190.25, -7502.08, 15.41, 16.56, 0.000, 0.000, 0.000, 15:13:14.161
79, 70.24, -7773.40, 6.03, 5.69, 0.000, 0.000, 0.000, 15:13:14.183
80, 10.39, -8581.01, 9.58, 11.67, 0.000, 0.000, 0.000, 15:13:14.183
81, 175.49, -7803.97, 17.89, 19.43, 0.000, 0.000, 0.000, 15:13:14.183
82, 119.85, -7517.88, 10.46, 9.74, 0.000, 0.000, 0.000, 15:13:14.184
83, 1.87, -8421.57, 6.86, 7.98, 0.000, 0.000, 0.000, 15:13:14.205
84, 126.20, -8190.42, 20.73, 15.51, 0.000, 0.000, 0.000, 15:13:14.205
85, 158.19, -7396.61, 11.08, 15.41, 0.000, 0.000, 0.000, 15:13:14.205
86, 20.66, -8110.96, 1.77, 3.54, 0.000, 0.000, 0.000, 15:13:14.206
87, 60.76, -8483.97, 15.82, 15.14, 0.000, 0.000, 0.000, 15:13:14.227
88, 190.23, -8483.11, 17.05, 16.10, 0.000, 0.000, 0.000, 15:13:14.229
89, 71.79, -8752.83, 2.44, 1.05, 0.000, 0.000, 0.000, 15:13:14.230
90, 12.88, -9550.10, 10.74, 17.33, 0.000, 0.000, 0.000, 15:13:14.230
91, 173.16, -8785.28, 21.38, 16.36, 0.000, 0.000, 0.000, 15:13:14.230
92, 121.86, -8493.22, 5.65, 8.97, 0.000, 0.000, 0.000, 15:13:14.230
93, 2.84, -9387.71, 5.00, 12.72, 0.000, 0.000, 0.000, 15:13:14.250
94, 122.74, -9180.53, 21.65, 20.12, 0.000, 0.000, 0.000, 15:13:14.250
95, 162.99, -8373.07, 6.70, 13.66, 0.000, 0.000, 0.000, 15:13:14.250
96, 21.17, -9074.68, 2.06, 3.26, 0.000, 0.000, 0.000, 15:13:14.250
97, 61.10, -9467.70, 20.44, 16.88, 0.000, 0.000, 0.000, 15:13:14.272
98, 186.56, -9466.04, 11.98, 17.34, 0.000, 0.000, 0.000, 15:13:14.273
99, 70.76, -9721.54, 2.35, 9.71, 0.000, 0.000, 0.000, 15:13:14.273
100, 13.69, -10527.15, 8.25, 13.16, 0.000, 0.000, 0.000, 15:13:14.273
101, 178.66, -9751.57, 13.53, 10.23, 0.000, 0.000, 0.000, 15:13:14.294
102, 119.45, -9478.32, 5.91, 6.64, 0.000, 0.000, 0.000, 15:13:14.295
103, -1.13, -10370.15, 3.28, 4.88, 0.000, 0.000, 0.000, 15:13:14.295
104, 130.70, -10130.81, 15.74, 11.84, 0.000, 0.000, 0.000, 15:13:14.295
105, 167.30, -9338.33, 9.41, 11.56, 0.000, 0.000, 0.000, 15:13:14.318
106, 21.08, -10078.79, 6.78, 7.06, 0.000, 0.000, 0.000, 15:13:14.318
107, 65.97, -10429.53, 19.16, 14.30, 0.000, 0.000, 0.000, 15:13:14.318
108, 194.02, -10407.31, 16.61, 17.07, 0.000, 0.000, 0.000, 15:13:14.318
109, 70.13, -10729.73, 5.10, 8.85, 0.000, 0.000, 0.000, 15:13:14.319
110, 12.73, -11519.32, 8.42, 12.09, 0.000, 0.000, 0.000, 15:13:14.319
111, 182.77, -10721.32, 21.61, 16.37, 0.000, 0.000, 0.000, 15:13:14.340
112, 118.87, -10463.06, 7.86, 9.59, 0.000, 0.000, 0.000, 15:13:14.340
113, -1.27, -11361.42, 6.84, 6.66, 0.000, 0.000, 0.000, 15:13:14.341
114, 134.61, -11097.37, 21.18, 17.43, 0.000, 0.000, 0.000, 15:13:14.341
115, 166.15, -10327.22, 12.81, 15.25, 0.000, 0.000, 0.000, 15:13:14.362
116, 11.70, -11085.31, 5.33, 5.54, 0.000, 0.000, 0.000, 15:13:14.363
117, 66.97, -11424.22, 14.49, 14.76, 0.000, 0.000, 0.000, 15:13:14.363
118, 188.38, -11400.53, 15.36, 11.49, 0.000, 0.000, 0.000, 15:13:14.364
119, 62.29, -11717.96, 2.41, 7.51, 0.000, 0.000, 0.000, 15:13:14.384
120, 6.25, -12500.27, 14.28, 14.80, 0.000, 0.000, 0.000, 15:13:14.385
121, 180.83, -11699.19, 19.50, 17.83, 0.000, 0.000, 0.000, 15:13:14.385
122, 116.71, -11442.01, 7.51, 11.89, 0.000, 0.000, 0.000, 15:13:14.385
123, -3.05, -12358.70, 10.16, 10.20, 0.000, 0.000, 0.000, 15:13:14.407
124, 131.38, -12086.75, 18.11, 15.26, 0.000, 0.000, 0.000, 15:13:14.407
125, 162.45, -11309.87, 5.74, 9.34, 0.000, 0.000, 0.000, 15:13:14.407
126, 21.46, -12068.59, 4.31, 5.72, 0.000, 0.000, 0.000, 15:13:14.408
127, 62.80, -12392.26, 18.22, 14.05, 0.000, 0.000, 0.000, 15:13:14.408
128, 188.76, -12378.91, 17.04, 14.49, 0.000, 0.000, 0.000, 15:13:14.408
129, 63.44, -12704.44, 4.64, 4.95, 0.000, 0.000, 0.000, 15:13:14.430
130, 14.60, -13470.92, 12.99, 13.33, 0.000, 0.000, 0.000, 15:13:14.430
131, 183.44, -12676.29, 15.51, 15.93, 0.000, 0.000, 0.000, 15:13:14.430
132, 114.10, -12430.65, 7.22, 8.67, 0.000, 0.000, 0.000, 15:13:14.431
133, -4.35, -13340.86, 8.60, 5.63, 0.000, 0.000, 0.000, 15:13:14.452
134, 130.51, -13078.21, 21.51, 17.53, 0.000, 0.000, 0.000, 15:13:14.452
135, 167.32, -12282.48, 7.17, 13.39, 0.000, 0.000, 0.000, 15:13:14.453
136, 24.79, -13058.60, 2.62, 4.97, 0.000, 0.000, 0.000, 15:13:14.453
137, 67.61, -13407.03, 16.90, 14.15, 0.000, 0.000, 0.000, 15:13:14.474
138, 185.30, -13335.83, 9.35, 16.23, 0.000, 0.000, 0.000, 15:13:14.475
139, 62.43, -13694.96, 1.05, 7.78, 0.000, 0.000, 0.000, 15:13:14.475
140, 9.84, -14484.14, 14.98, 11.21, 0.000, 0.000, 0.000, 15:13:14.476
141, 184.45, -13629.84, 16.24, 16.15, 0.000, 0.000, 0.000, 15:13:14.499
142, 121.18, -13402.28, 7.41, 9.22, 0.000, 0.000, 0.000, 15:13:14.499
143, -0.13, -14333.72, 8.85, 8.91, 0.000, 0.000, 0.000, 15:13:14.499
144, 131.74, -14036.01, 20.97, 18.13, 0.000, 0.000, 0.000, 15:13:14.499
145, 156.63, -13247.83, 10.73, 16.10, 0.000, 0.000, 0.000, 15:13:14.500
146, 20.34, -14028.87, 4.87, 5.90, 0.000, 0.000, 0.000, 15:13:14.500
147, 63.08, -14350.31, 14.73, 13.96, 0.000, 0.000, 0.000, 15:13:14.520
148, 189.75, -14325.41, 17.42, 11.14, 0.000, 0.000, 0.000, 15:13:14.520
149, 63.30, -14672.86, 5.70, 9.48, 0.000, 0.000, 0.000, 15:13:14.520
150, 12.42, -15443.48, 12.92, 13.38, 0.000, 0.000, 0.000, 15:13:14.520
151, 185.47, -14629.27, 15.48, 16.19, 0.000, 0.000, 0.000, 15:13:14.542
152, 114.87, -14389.09, 4.70, 9.50, 0.000, 0.000, 0.000, 15:13:14.542
153, -7.40, -15295.69, 6.65, 10.53, 0.000, 0.000, 0.000, 15:13:14.543
154, 131.39, -15005.44, 19.02, 22.94, 0.000, 0.000, 0.000, 15:13:14.543
155, 160.88, -14253.98, 7.76, 15.27, 0.000, 0.000, 0.000, 15:13:14.565
156, 22.61, -15007.26, 3.18, 9.81, 0.000, 0.000, 0.000, 15:13:14.565
157, 66.59, -15326.65, 20.64, 17.21, 0.000, 0.000, 0.000, 15:13:14.565
158, 191.98, -15306.99, 15.54, 17.93, 0.000, 0.000, 0.000, 15:13:14.566
159, 65.94, -15640.30, 5.06, 7.84, 0.000, 0.000, 0.000, 15:13:14.587
160, 8.67, -16421.37, 9.25, 12.03, 0.000, 0.000, 0.000, 15:13:14.587
161, 177.61, -15592.44, 16.69, 16.51, 0.000, 0.000, 0.000, 15:13:14.588
162, 114.70, -15377.84, 7.32, 7.30, 0.000, 0.000, 0.000, 15:13:14.588
163, -2.26, -16289.51, 7.23, 7.52, 0.000, 0.000, 0.000, 15:13:14.588
164, 132.94, -15991.15, 19.91, 15.91, 0.000, 0.000, 0.000, 15:13:14.588
165, 161.93, -15224.42, 5.83, 11.48, 0.000, 0.000, 0.000, 15:13:14.610
166, 15.19, -15992.02, 5.19, 6.63, 0.000, 0.000, 0.000, 15:13:14.610
167, 70.11, -16314.11, 18.53, 16.02, 0.000, 0.000, 0.000, 15:13:14.610
168, 195.60, -16296.06, 13.67, 10.21, 0.000, 0.000, 0.000, 15:13:14.610
169, 64.09, -16626.34, 3.03, 8.42, 0.000, 0.000, 0.000, 15:13:14.633
170, 15.12, -17399.76, 10.01, 14.65, 0.000, 0.000, 0.000, 15:13:14.633
171, 183.67, -16580.85, 19.66, 17.38, 0.000, 0.000, 0.000, 15:13:14.634
172, 118.68, -16341.61, 5.29, 7.46, 0.000, 0.000, 0.000, 15:13:14.634
173, -1.59, -17272.50, 7.26, 7.84, 0.000, 0.000, 0.000, 15:13:14.655
174, 131.26, -16979.41, 17.95, 13.90, 0.000, 0.000, 0.000, 15:13:14.655
175, 167.73, -16204.72, 15.05, 13.32, 0.000, 0.000, 0.000, 15:13:14.655
176, 19.66, -16975.15, 4.62, 6.12, 0.000, 0.000, 0.000, 15:13:14.655
177, 65.13, -17312.95, 14.72, 20.06, 0.000, 0.000, 0.000, 15:13:14.677
178, 189.82, -17261.07, 15.53, 12.51, 0.000, 0.000, 0.000, 15:13:14.677
179, 61.74, -17629.60, 6.84, 5.36, 0.000, 0.000, 0.000, 15:13:14.678
180, 14.86, -18383.72, 12.41, 12.04, 0.000, 0.000, 0.000, 15:13:14.678
181, 185.30, -17538.77, 15.17, 17.18, 0.000, 0.000, 0.000, 15:13:14.679
182, 113.23, -17347.15, 7.09, 7.31, 0.000, 0.000, 0.000, 15:13:14.679
183, 3.76, -18228.60, 7.30, 11.75, 0.000, 0.000, 0.000, 15:13:14.700
184, 133.10, -17963.18, 18.45, 16.70, 0.000, 0.000, 0.000, 15:13:14.700
185, 162.92, -17179.10, 13.64, 8.51, 0.000, 0.000, 0.000, 15:13:14.722
186, 18.08, -17973.08, 2.55, 7.15, 0.000, 0.000, 0.000, 15:13:14.722
187, 73.36, -18260.23, 14.81, 19.34, 0.000, 0.000, 0.000, 15:13:14.723
188, 193.67, -18241.55, 14.76, 13.52, 0.000, 0.000, 0.000, 15:13:14.723
189, 58.42, -18610.08, 5.04, 5.80, 0.000, 0.000, 0.000, 15:13:14.723
190, 11.69, -19346.93, 11.40, 10.94, 0.000, 0.000, 0.000, 15:13:14.724
191, 179.71, -18559.18, 14.10, 17.06, 0.000, 0.000, 0.000, 15:13:14.745
192, 114.06, -18308.29, 3.90, 5.59, 0.000, 0.000, 0.000, 15:13:14.745
193, -5.00, -19240.84, 8.57, 11.73, 0.000, 0.000, 0.000, 15:13:14.746
194, 136.82, -18912.22, 17.24, 17.73, 0.000, 0.000, 0.000, 15:13:14.746
195, 164.00, -18155.77, 6.18, 10.61, 0.000, 0.000, 0.000, 15:13:14.768
196, 14.73, -18977.12, 8.39, 10.50, 0.000, 0.000, 0.000, 15:13:14.768
197, 65.96, -19226.96, 16.29, 19.26, 0.000, 0.000, 0.000, 15:13:14.769
198, 189.01, -19224.55, 14.17, 14.27, 0.000, 0.000, 0.000, 15:13:14.769
199, 55.66, -19601.01, 3.91, 6.32, 0.000, 0.000, 0.000, 15:13:14.769
200, 15.56, -20327.12, 13.50, 11.45, 0.000, 0.000, 0.000, 15:13:14.770
0, 181.43, 88.77, 20.92, 19.66, 0.000, 0.000, 0.000, 15:13:14.790
1, 118.29, 293.25, 6.99, 9.33, 0.000, 0.000, 0.000, 15:13:14.790
2, -4.96, -586.20, 10.59, 8.15, 0.000, 0.000, 0.000, 15:13:14.790
3, 133.68, -298.00, 16.84, 18.15, 0.000, 0.000, 0.000, 15:13:14.813
4, 156.34, 453.50, 7.86, 9.63, 0.000, 0.000, 0.000, 15:13:14.813
5, 12.76, -331.08, 3.54, 6.00, 0.000, 0.000, 0.000, 15:13:14.814
6, 65.09, -622.44, 16.25, 15.42, 0.000, 0.000, 0.000, 15:13:14.814
7, 186.36, -605.71, 11.40, 12.31, 0.000, 0.000, 0.000, 15:13:14.814
8, 58.48, -978.39, 4.64, 3.73, 0.000, 0.000, 0.000, 15:13:14.814
9, 17.86, -1711.18, 11.80, 10.17, 0.000, 0.000, 0.000, 15:13:14.835
10, 189.12, -892.59, 20.18, 17.16, 0.000, 0.000, 0.000, 15:13:14.835
11, 121.43, -691.22, 9.02, 10.11, 0.000, 0.000, 0.000, 15:13:14.835
12, 2.05, -1613.05, 5.22, 6.32, 0.000, 0.000, 0.000, 15:13:14.836
13, 146.96, -1269.84, 19.20, 16.38, 0.000, 0.000, 0.000, 15:13:14.857
14, 180.97, -512.06, 12.22, 10.90, 0.000, 0.000, 0.000, 15:13:14.857
15, 36.70, -1273.88, 2.06, 7.01, 0.000, 0.000, 0.000, 15:13:14.858
16, 78.13, -1564.04, 15.06, 17.64, 0.000, 0.000, 0.000, 15:13:14.858
17, 194.07, -1552.19, 11.58, 15.70, 0.000, 0.000, 0.000, 15:13:14.881
18, 58.33, -1928.78, 4.88, 7.73, 0.000, 0.000, 0.000, 15:13:14.881
19, 11.80, -2690.05, 9.30, 14.90, 0.000, 0.000, 0.000, 15:13:14.882
20, 179.13, -1856.40, 16.98, 19.89, 0.000, 0.000, 0.000, 15:13:14.882
21, 106.16, -1666.76, 4.50, 6.76, 0.000, 0.000, 0.000, 15:13:14.903
22, -8.44, -2573.79, 5.54, 9.99, 0.000, 0.000, 0.000, 15:13:14.903
23, 133.75, -2228.95, 22.87, 13.95, 0.000, 0.000, 0.000, 15:13:14.903
24, 155.42, -1505.90, 16.62, 7.69, 0.000, 0.000, 0.000, 15:13:14.904
25, 11.50, -2302.31, 5.49, 10.11, 0.000, 0.000, 0.000, 15:13:14.904
26, 69.37, -2568.58, 16.54, 15.12, 0.000, 0.000, 0.000, 15:13:14.904
27, 188.98, -2542.31, 12.28, 14.86, 0.000, 0.000, 0.000, 15:13:14.925
28, 59.17, -2931.08, 5.96, 8.94, 0.000, 0.000, 0.000, 15:13:14.925
29, 13.03, -3672.57, 12.26, 13.17, 0.000, 0.000, 0.000, 15:13:14.925
30, 181.39, -2831.72, 13.83, 15.43, 0.000, 0.000, 0.000, 15:13:14.925
31, 107.56, -2640.81, 1.81, 10.91, 0.000, 0.000, 0.000, 15:13:14.947
32, -0.69, -3553.60, 9.70, 7.85, 0.000, 0.000, 0.000, 15:13:14.948
33, 139.25, -3215.93, 20.99, 21.00, 0.000, 0.000, 0.000, 15:13:14.948
34, 163.01, -2482.22, 9.77, 13.18, 0.000, 0.000, 0.000, 15:13:14.948
35, 14.46, -3273.40, 3.08, 3.49, 0.000, 0.000, 0.000, 15:13:14.970
36, 72.44, -3545.07, 17.93, 12.07, 0.000, 0.000, 0.000, 15:13:14.970
37, 190.72, -3527.14, 14.25, 13.59, 0.000, 0.000, 0.000, 15:13:14.970
38, 55.39, -3911.75, 4.50, 6.04, 0.000, 0.000, 0.000, 15:13:14.971
39, 14.88, -4652.96, 14.44, 12.22, 0.000, 0.000, 0.000, 15:13:14.992
40, 185.43, -3805.05, 22.79, 17.32, 0.000, 0.000, 0.000, 15:13:14.993
41, 110.06, -3622.42, 9.48, 12.47, 0.000, 0.000, 0.000, 15:13:14.993
42, -1.37, -4537.48, 7.21, 9.95, 0.000, 0.000, 0.000, 15:13:14.993
43, 142.99, -4191.48, 16.47, 19.79, 0.000, 0.000, 0.000, 15:13:14.994
44, 164.43, -3466.53, 9.12, 11.31, 0.000, 0.000, 0.000, 15:13:14.994
45, 12.17, -4259.88, 2.64, 2.31, 0.000, 0.000, 0.000, 15:13:15.015
46, 74.49, -4522.61, 15.49, 16.07, 0.000, 0.000, 0.000, 15:13:15.015
47, 188.02, -4504.93, 12.26, 11.74, 0.000, 0.000, 0.000, 15:13:15.016
48, 58.42, -4902.23, 5.29, 5.53, 0.000, 0.000, 0.000, 15:13:15.016
49, 16.83, -5638.33, 11.86, 11.62, 0.000, 0.000, 0.000, 15:13:15.037
50, 186.82, -4791.33, 9.77, 18.32, 0.000, 0.000, 0.000, 15:13:15.037
51, 111.15, -4609.32, 5.72, 6.23, 0.000, 0.000, 0.000, 15:13:15.038
52, 3.13, -5515.22, 7.40, 11.84, 0.000, 0.000, 0.000, 15:13:15.038
53, 139.74, -5162.20, 21.69, 17.68, 0.000, 0.000, 0.000, 15:13:15.060
54, 158.64, -4447.95, 10.74, 11.05, 0.000, 0.000, 0.000, 15:13:15.060
55, 16.41, -5245.17, 5.44, 8.20, 0.000, 0.000, 0.000, 15:13:15.061
56, 77.66, -5497.74, 15.59, 16.69, 0.000, 0.000, 0.000, 15:13:15.061
57, 190.10, -5486.62, 15.68, 15.46, 0.000, 0.000, 0.000, 15:13:15.083
58, 54.30, -5886.31, 0.42, 4.73, 0.000, 0.000, 0.000, 15:13:15.084
59, 17.53, -6617.81, 11.90, 13.32, 0.000, 0.000, 0.000, 15:13:15.084
60, 185.03, -5758.30, 20.57, 16.93, 0.000, 0.000, 0.000, 15:13:15.084
61, 115.12, -5592.55, 3.34, 7.29, 0.000, 0.000, 0.000, 15:13:15.084
62, 1.33, -6503.38, 9.22, 6.79, 0.000, 0.000, 0.000, 15:13:15.084
63, 144.99, -6143.93, 21.81, 17.65, 0.000, 0.000, 0.000, 15:13:15.105
64, 163.50, -5428.71, 7.65, 14.10, 0.000, 0.000, 0.000, 15:13:15.106
65, 16.49, -6225.20, 5.51, 8.53, 0.000, 0.000, 0.000, 15:13:15.106
66, 76.21, -6477.98, 18.40, 14.62, 0.000, 0.000, 0.000, 15:13:15.106
67, 194.13, -6458.18, 15.30, 14.10, 0.000, 0.000, 0.000, 15:13:15.133
68, 54.88, -6863.93, 4.75, 7.18, 0.000, 0.000, 0.000, 15:13:15.133
69, 19.01, -7597.73, 11.80, 14.33, 0.000, 0.000, 0.000, 15:13:15.133
70, 185.89, -6733.00, 18.94, 17.40, 0.000, 0.000, 0.000, 15:13:15.133
71, 114.88, -6575.47, 8.60, 6.75, 0.000, 0.000, 0.000, 15:13:15.153
72, 2.51, -7481.56, 6.32, 7.30, 0.000, 0.000, 0.000, 15:13:15.153
73, 137.21, -7120.61, 19.50, 19.16, 0.000, 0.000, 0.000, 15:13:15.153
74, 156.40, -6400.91, 6.70, 10.42, 0.000, 0.000, 0.000, 15:13:15.153
75, 16.49, -7207.97, 4.71, 7.59, 0.000, 0.000, 0.000, 15:13:15.174
76, 73.76, -7456.89, 15.65, 14.97, 0.000, 0.000, 0.000, 15:13:15.174
77, 187.83, -7436.14, 14.53, 14.99, 0.000, 0.000, 0.000, 15:13:15.175
78, 53.84, -7844.91, 4.00, 4.92, 0.000, 0.000, 0.000, 15:13:15.175
79, 13.29, -8576.43, 9.15, 14.09, 0.000, 0.000, 0.000, 15:13:15.175
80, 182.78, -7710.54, 19.72, 14.97, 0.000, 0.000, 0.000, 15:13:15.175
81, 106.46, -7554.98, 3.06, 7.15, 0.000, 0.000, 0.000, 15:13:15.195
82, -7.10, -8471.36, 10.32, 8.71, 0.000, 0.000, 0.000, 15:13:15.195
83, 131.77, -8100.08, 16.94, 15.69, 0.000, 0.000, 0.000, 15:13:15.196
84, 154.64, -7389.51, 9.75, 10.26, 0.000, 0.000, 0.000, 15:13:15.196
85, 12.21, -8194.12, 10.14, 9.05, 0.000, 0.000, 0.000, 15:13:15.218
86, 73.74, -8438.05, 22.87, 19.58, 0.000, 0.000, 0.000, 15:13:15.218
87, 183.36, -8426.31, 15.79, 13.82, 0.000, 0.000, 0.000, 15:13:15.218
88, 56.48, -8839.31, 1.91, 10.68, 0.000, 0.000, 0.000, 15:13:15.218
89, 18.89, -9560.38, 13.94, 14.29, 0.000, 0.000, 0.000, 15:13:15.240
90, 184.30, -8695.38, 14.96, 15.37, 0.000, 0.000, 0.000, 15:13:15.240
91, 107.94, -8541.41, 2.64, 10.62, 0.000, 0.000, 0.000, 15:13:15.241
92, -6.38, -9452.74, 5.20, 9.03, 0.000, 0.000, 0.000, 15:13:15.241
93, 142.41, -9076.82, 21.98, 13.89, 0.000, 0.000, 0.000, 15:13:15.262
94, 156.52, -8373.01, 8.21, 10.84, 0.000, 0.000, 0.000, 15:13:15.263
95, 15.29, -9181.30, 2.23, 4.97, 0.000, 0.000, 0.000, 15:13:15.263
96, 75.36, -9414.39, 13.44, 12.39, 0.000, 0.000, 0.000, 15:13:15.263
97, 185.56, -9408.76, 13.02, 10.90, 0.000, 0.000, 0.000, 15:13:15.264
98, 55.09, -9826.01, 1.46, 5.94, 0.000, 0.000, 0.000, 15:13:15.264
99, 18.74, -10544.08, 13.65, 12.94, 0.000, 0.000, 0.000, 15:13:15.285
100, 182.12, -9670.85, 23.13, 17.21, 0.000, 0.000, 0.000, 15:13:15.285
101, 103.82, -9520.35, 2.31, 8.70, 0.000, 0.000, 0.000, 15:13:15.285
102, -5.91, -10435.13, 8.80, 8.29, 0.000, 0.000, 0.000, 15:13:15.285
103, 136.89, -10064.03, 15.88, 17.70, 0.000, 0.000, 0.000, 15:13:15.307
104, 153.12, -9361.29, 7.62, 12.93, 0.000, 0.000, 0.000, 15:13:15.307
105, 17.67, -10173.27, 5.91, 8.19, 0.000, 0.000, 0.000, 15:13:15.308
106, 79.30, -10396.70, 18.16, 16.51, 0.000, 0.000, 0.000, 15:13:15.308
107, 186.14, -10375.98, 12.98, 13.82, 0.000, 0.000, 0.000, 15:13:15.330
108, 45.56, -10807.60, 5.21, 11.39, 0.000, 0.000, 0.000, 15:13:15.330
109, 16.83, -11535.40, 12.14, 14.35, 0.000, 0.000, 0.000, 15:13:15.330
110, 184.48, -10646.15, 13.96, 17.19, 0.000, 0.000, 0.000, 15:13:15.331
111, 105.08, -10517.13, 7.76, 7.13, 0.000, 0.000, 0.000, 15:13:15.352
112, -2.84, -11426.90, 8.72, 11.21, 0.000, 0.000, 0.000, 15:13:15.352
113, 140.70, -11029.31, 18.48, 19.96, 0.000, 0.000, 0.000, 15:13:15.353
114, 157.72, -10339.04, 7.29, 9.69, 0.000, 0.000, 0.000, 15:13:15.353
115, 17.52, -11157.88, 4.00, 5.78, 0.000, 0.000, 0.000, 15:13:15.354
116, 80.46, -11375.98, 17.36, 12.03, 0.000, 0.000, 0.000, 15:13:15.354
117, 188.18, -11359.82, 13.56, 11.18, 0.000, 0.000, 0.000, 15:13:15.375
118, 55.42, -11783.36, 5.57, 9.69, 0.000, 0.000, 0.000, 15:13:15.375
119, 21.81, -12503.47, 10.80, 12.29, 0.000, 0.000, 0.000, 15:13:15.375
120, 179.07, -11637.85, 17.68, 14.12, 0.000, 0.000, 0.000, 15:13:15.375
121, 106.22, -11492.82, 2.49, 4.23, 0.000, 0.000, 0.000, 15:13:15.398
122, -3.82, -12407.40, 8.95, 8.46, 0.000, 0.000, 0.000, 15:13:15.398
123, 144.63, -12002.29, 19.45, 17.47, 0.000, 0.000, 0.000, 15:13:15.398
124, 157.33, -11307.23, 11.63, 9.85, 0.000, 0.000, 0.000, 15:13:15.399
125, 15.58, -12113.47, 8.06, 4.70, 0.000, 0.000, 0.000, 15:13:15.420
126, 77.77, -12342.79, 11.62, 14.40, 0.000, 0.000, 0.000, 15:13:15.420
127, 186.97, -12333.02, 10.91, 12.67, 0.000, 0.000, 0.000, 15:13:15.420
128, 49.24, -12773.14, 5.42, 7.43, 0.000, 0.000, 0.000, 15:13:15.420
129, 19.91, -13494.14, 13.47, 13.37, 0.000, 0.000, 0.000, 15:13:15.442
130, 185.58, -12614.05, 18.91, 15.87, 0.000, 0.000, 0.000, 15:13:15.443
131, 105.03, -12463.54, 3.79, 9.99, 0.000, 0.000, 0.000, 15:13:15.443
132, -2.23, -13383.15, 5.26, 12.10, 0.000, 0.000, 0.000, 15:13:15.444
133, 142.42, -12983.60, 17.05, 14.13, 0.000, 0.000, 0.000, 15:13:15.444
134, 157.16, -12297.80, 10.34, 13.66, 0.000, 0.000, 0.000, 15:13:15.444
135, 16.37, -13115.31, 6.46, 12.63, 0.000, 0.000, 0.000, 15:13:15.465
136, 78.83, -13320.85, 18.08, 18.84, 0.000, 0.000, 0.000, 15:13:15.466
137, 186.38, -13318.08, 13.68, 10.47, 0.000, 0.000, 0.000, 15:13:15.466
138, 50.94, -13745.96, 6.36, 4.24, 0.000, 0.000, 0.000, 15:13:15.466
139, 21.87, -14453.95, 13.69, 8.00, 0.000, 0.000, 0.000, 15:13:15.487
140, 188.31, -13574.99, 16.64, 19.26, 0.000, 0.000, 0.000, 15:13:15.488
141, 103.47, -13445.65, 1.34, 4.46, 0.000, 0.000, 0.000, 15:13:15.488
142, -4.25, -14361.60, 13.48, 13.02, 0.000, 0.000, 0.000, 15:13:15.488
143, 143.81, -13959.12, 16.64, 18.70, 0.000, 0.000, 0.000, 15:13:15.510
144, 155.55, -13276.99, 8.65, 9.44, 0.000, 0.000, 0.000, 15:13:15.510
145, 15.98, -14097.02, 6.75, 9.36, 0.000, 0.000, 0.000, 15:13:15.510
146, 80.44, -14303.75, 12.53, 13.15, 0.000, 0.000, 0.000, 15:13:15.511
147, 191.68, -14292.73, 15.57, 12.87, 0.000, 0.000, 0.000, 15:13:15.532
148, 51.11, -14733.26, 8.33, 7.38, 0.000, 0.000, 0.000, 15:13:15.533
149, 20.43, -15441.59, 18.71, 12.92, 0.000, 0.000, 0.000, 15:13:15.533
150, 186.31, -14556.12, 13.93, 17.09, 0.000, 0.000, 0.000, 15:13:15.534
151, 106.07, -14436.89, 2.52, 11.30, 0.000, 0.000, 0.000, 15:13:15.535
152, -1.74, -15346.51, 10.17, 14.20, 0.000, 0.000, 0.000, 15:13:15.535
153, 143.70, -14941.97, 19.52, 21.11, 0.000, 0.000, 0.000, 15:13:15.555
154, 153.13, -14258.31, 11.17, 9.68, 0.000, 0.000, 0.000, 15:13:15.555
155, 9.79, -15080.36, 2.59, 4.22, 0.000, 0.000, 0.000, 15:13:15.555
156, 77.59, -15285.72, 19.48, 14.23, 0.000, 0.000, 0.000, 15:13:15.556
157, 183.16, -15277.55, 9.63, 13.29, 0.000, 0.000, 0.000, 15:13:15.577
158, 54.06, -15719.43, 4.37, 8.32, 0.000, 0.000, 0.000, 15:13:15.578
159, 19.36, -16425.70, 15.98, 13.47, 0.000, 0.000, 0.000, 15:13:15.578
160, 187.43, -15534.36, 15.39, 16.19, 0.000, 0.000, 0.000, 15:13:15.578
161, 103.03, -15411.65, 2.69, 6.10, 0.000, 0.000, 0.000, 15:13:15.600
162, -6.56, -16335.07, 7.16, 12.09, 0.000, 0.000, 0.000, 15:13:15.601
163, 142.99, -15918.54, 23.66, 17.69, 0.000, 0.000, 0.000, 15:13:15.601
164, 155.16, -15247.17, 6.32, 11.55, 0.000, 0.000, 0.000, 15:13:15.601
165, 12.86, -16067.99, 9.65, 8.97, 0.000, 0.000, 0.000, 15:13:15.622
166, 81.20, -16257.36, 15.85, 19.88, 0.000, 0.000, 0.000, 15:13:15.623
167, 192.11, -16249.44, 12.78, 10.21, 0.000, 0.000, 0.000, 15:13:15.623
168, 54.09, -16701.79, 0.65, 5.83, 0.000, 0.000, 0.000, 15:13:15.623
169, 19.42, -17396.64, 12.81, 12.94, 0.000, 0.000, 0.000, 15:13:15.624
170, 185.36, -16510.61, 13.37, 14.16, 0.000, 0.000, 0.000, 15:13:15.624
171, 106.79, -16398.60, 5.38, 9.13, 0.000, 0.000, 0.000, 15:13:15.645
172, -5.58, -17314.83, 6.55, 11.32, 0.000, 0.000, 0.000, 15:13:15.645
173, 142.00, -16880.42, 21.29, 18.74, 0.000, 0.000, 0.000, 15:13:15.646
174, 155.19, -16213.96, 9.76, 9.28, 0.000, 0.000, 0.000, 15:13:15.646
175, 16.70, -17033.73, 8.74, 10.33, 0.000, 0.000, 0.000, 15:13:15.668
176, 78.22, -17231.28, 19.14, 17.95, 0.000, 0.000, 0.000, 15:13:15.668
177, 183.91, -17227.96, 12.70, 16.69, 0.000, 0.000, 0.000, 15:13:15.668
178, 53.07, -17688.65, 3.48, 7.92, 0.000, 0.000, 0.000, 15:13:15.668
179, 20.26, -18389.80, 12.45, 10.59, 0.000, 0.000, 0.000, 15:13:15.690
180, 182.38, -17504.79, 17.07, 12.24, 0.000, 0.000, 0.000, 15:13:15.690
181, 103.49, -17386.60, 5.23, 13.22, 0.000, 0.000, 0.000, 15:13:15.690
182, 2.36, -18298.04, 6.44, 10.84, 0.000, 0.000, 0.000, 15:13:15.690
183, 149.78, -17856.65, 16.73, 18.98, 0.000, 0.000, 0.000, 15:13:15.712
184, 153.26, -17196.03, 5.73, 9.31, 0.000, 0.000, 0.000, 15:13:15.713
185, 13.77, -18030.21, 8.04, 7.24, 0.000, 0.000, 0.000, 15:13:15.713
186, 79.56, -18215.01, 15.09, 14.35, 0.000, 0.000, 0.000, 15:13:15.714
187, 185.00, -18202.85, 9.89, 11.10, 0.000, 0.000, 0.000, 15:13:15.714
188, 57.53, -18671.94, 5.46, 6.62, 0.000, 0.000, 0.000, 15:13:15.714
189, 28.20, -19367.21, 11.44, 8.07, 0.000, 0.000, 0.000, 15:13:15.735
190, 189.37, -18470.25, 13.18, 16.46, 0.000, 0.000, 0.000, 15:13:15.735
191, 102.74, -18358.21, 3.67, 7.99, 0.000, 0.000, 0.000, 15:13:15.735
192, -0.39, -19266.36, 5.46, 10.51, 0.000, 0.000, 0.000, 15:13:15.735
193, 151.90, -18834.73, 22.00, 16.57, 0.000, 0.000, 0.000, 15:13:15.757
194, 156.15, -18171.20, 11.02, 12.88, 0.000, 0.000, 0.000, 15:13:15.757
195, 11.77, -19026.37, 4.85, 7.69, 0.000, 0.000, 0.000, 15:13:15.758
196, 79.10, -19192.77, 16.99, 17.80, 0.000, 0.000, 0.000, 15:13:15.758
197, 189.25, -19180.51, 12.13, 16.58, 0.000, 0.000, 0.000, 15:13:15.780
198, 51.51, -19648.93, 5.80, 10.37, 0.000, 0.000, 0.000, 15:13:15.780
199, 21.81, -20345.09, 10.12, 11.84, 0.000, 0.000, 0.000, 15:13:15.781
200, 183.10, -19440.37, 22.11, 16.58, 0.000, 0.000, 0.000, 15:13:15.781
0, 102.52, 271.38, 4.41, 6.26, 0.000, 0.000, 0.000, 15:13:15.781
1, -3.14, -648.01, 8.88, 9.72, 0.000, 0.000, 0.000, 15:13:15.802
2, 150.33, -208.90, 20.85, 18.07, 0.000, 0.000, 0.000, 15:13:15.802
3, 152.95, 452.82, 13.96, 5.48, 0.000, 0.000, 0.000, 15:13:15.803
4, 8.22, -386.77, 4.32, 4.57, 0.000, 0.000, 0.000, 15:13:15.803
5, 82.42, -559.08, 16.69, 14.88, 0.000, 0.000, 0.000, 15:13:15.825
6, 183.74, 411.80, 7.07, 12.72, 0.000, 0.000, 0.000, 15:13:15.825
7, 45.71, -55.79, 3.05, 10.74, 0.000, 0.000, 0.000, 15:13:15.826
8, 20.48, -712.97, 17.60, 15.14, 0.000, 0.000, 0.000, 15:13:15.826
9, 193.19, 190.35, 15.03, 17.28, 0.000, 0.000, 0.000, 15:13:15.856
10, 88.39, 210.67, 4.84, 9.12, 0.000, 0.000, 0.000, 15:13:15.856
11, -11.51, -661.62, 8.04, 10.04, 0.000, 0.000, 0.000, 15:13:15.857
12, 160.35, -171.63, 21.02, 16.78, 0.000, 0.000, 0.000, 15:13:15.857
13, 142.07, 416.61, 6.77, 8.51, 0.000, 0.000, 0.000, 15:13:15.857
14, -2.73, -422.75, 6.09, 5.32, 0.000, 0.000, 0.000, 15:13:15.857
15, 89.43, -530.89, 20.24, 16.69, 0.000, 0.000, 0.000, 15:13:15.870
16, 182.51, 413.89, 11.56, 15.37, 0.000, 0.000, 0.000, 15:13:15.871
17, 35.43, -84.58, 0.88, 6.60, 0.000, 0.000, 0.000, 15:13:15.871
18, 20.80, -727.20, 15.27, 17.80, 0.000, 0.000, 0.000, 15:13:15.871
19, 197.49, 172.78, 17.59, 14.52, 0.000, 0.000, 0.000, 15:13:15.895
20, 103.47, 193.36, 3.63, 5.56, 0.000, 0.000, 0.000, 15:13:15.895
21, -3.64, -687.44, 7.87, 9.96, 0.000, 0.000, 0.000, 15:13:15.895
22, 170.29, -174.20, 20.78, 19.90, 0.000, 0.000, 0.000, 15:13:15.896
23, 171.90, 435.46, 8.65, 11.32, 0.000, 0.000, 0.000, 15:13:15.915
24, 18.56, -405.28, 7.20, 7.15, 0.000, 0.000, 0.000, 15:13:15.916
25, 106.72, -487.74, 21.94, 13.23, 0.000, 0.000, 0.000, 15:13:15.916
26, 199.30, 452.66, 8.79, 10.63, 0.000, 0.000, 0.000, 15:13:15.916
27, 29.07, -79.07, 3.25, 5.50, 0.000, 0.000, 0.000, 15:13:15.937
28, 16.23, -707.73, 13.44, 18.22, 0.000, 0.000, 0.000, 15:13:15.937
29, 212.96, 221.64, 21.95, 14.21, 0.000, 0.000, 0.000, 15:13:15.938
30, 92.96, 215.92, 5.62, 5.38, 0.000, 0.000, 0.000, 15:13:15.938
31, -10.39, -675.93, 6.91, 10.27, 0.000, 0.000, 0.000, 15:13:15.938
32, 168.52, -143.66, 24.39, 19.70, 0.000, 0.000, 0.000, 15:13:15.939
33, 142.94, 412.40, 7.02, 9.48, 0.000, 0.000, 0.000, 15:13:15.960
34, -15.13, -445.64, 6.69, 9.71, 0.000, 0.000, 0.000, 15:13:15.960
35, 95.55, -496.52, 17.08, 16.53, 0.000, 0.000, 0.000, 15:13:15.961
36, 193.81, 447.77, 11.56, 12.40, 0.000, 0.000, 0.000, 15:13:15.961
37, 24.87, -117.50, 1.36, 5.14, 0.000, 0.000, 0.000, 15:13:15.984
38, 21.15, -723.13, 15.77, 12.13, 0.000, 0.000, 0.000, 15:13:15.984
39, 215.87, 236.95, 18.03, 11.87, 0.000, 0.000, 0.000, 15:13:15.984
40, 82.58, 194.30, 6.13, 8.24, 0.000, 0.000, 0.000, 15:13:15.984
41, -23.85, -688.05, 10.46, 8.27, 0.000, 0.000, 0.000, 15:13:16.005
42, 174.50, -136.87, 20.07, 20.57, 0.000, 0.000, 0.000, 15:13:16.005
43, 154.67, 414.39, 8.75, 11.33, 0.000, 0.000, 0.000, 15:13:16.005
44, -11.03, -456.37, 1.85, 5.51, 0.000, 0.000, 0.000, 15:13:16.005
45, 90.50, -487.66, 16.29, 19.75, 0.000, 0.000, 0.000, 15:13:16.027
46, 183.18, 433.18, 9.31, 14.90, 0.000, 0.000, 0.000, 15:13:16.027
47, 29.89, -110.35, 4.23, 5.38, 0.000, 0.000, 0.000, 15:13:16.028
48, 32.61, -704.77, 12.52, 14.15, 0.000, 0.000, 0.000, 15:13:16.028
49, 231.65, 243.68, 19.70, 17.72, 0.000, 0.000, 0.000, 15:13:16.029
50, 95.86, 186.96, 5.55, 3.99, 0.000, 0.000, 0.000, 15:13:16.029
51, -23.96, -680.33, 7.71, 12.78, 0.000, 0.000, 0.000, 15:13:16.050
52, 173.79, -120.05, 21.74, 19.28, 0.000, 0.000, 0.000, 15:13:16.051
53, 145.56, 423.47, 4.58, 9.38, 0.000, 0.000, 0.000, 15:13:16.051
54, -9.50, -477.70, 1.64, 7.52, 0.000, 0.000, 0.000, 15:13:16.051
55, 111.66, -487.79, 20.02, 18.06, 0.000, 0.000, 0.000, 15:13:16.072
56, 213.99, 460.73, 7.34, 7.87, 0.000, 0.000, 0.000, 15:13:16.072
57, 23.84, -165.95, 0.68, 5.38, 0.000, 0.000, 0.000, 15:13:16.073
58, 14.95, -730.24, 15.74, 15.41, 0.000, 0.000, 0.000, 15:13:16.073
59, 212.33, -692.89, 12.84, 17.63, 0.000, 0.000, 0.000, 15:13:16.095
60, 89.83, -795.22, 5.20, 7.42, 0.000, 0.000, 0.000, 15:13:16.095
61, -30.47, -1693.52, 8.84, 12.32, 0.000, 0.000, 0.000, 15:13:16.097
62, 179.26, -1074.48, 23.13, 16.11, 0.000, 0.000, 0.000, 15:13:16.097
63, 167.97, -562.43, 6.32, 5.07, 0.000, 0.000, 0.000, 15:13:16.119
64, -11.18, -1469.00, 1.07, 5.69, 0.000, 0.000, 0.000, 15:13:16.119
65, 97.97, -1471.95, 22.06, 18.27, 0.000, 0.000, 0.000, 15:13:16.119
66, 169.20, -496.90, 8.31, 14.84, 0.000, 0.000, 0.000, 15:13:16.119
67, 14.97, -1144.59, 5.05, 6.72, 0.000, 0.000, 0.000, 15:13:16.120
68, 61.10, -1704.62, 16.23, 13.68, 0.000, 0.000, 0.000, 15:13:16.120
69, 242.62, -1664.15, 19.37, 17.41, 0.000, 0.000, 0.000, 15:13:16.140
70, 89.06, -1784.49, 1.87, 9.91, 0.000, 0.000, 0.000, 15:13:16.140
71, -32.65, -2682.12, 9.36, 10.47, 0.000, 0.000, 0.000, 15:13:16.140
72, 202.19, -2028.59, 19.42, 18.61, 0.000, 0.000, 0.000, 15:13:16.140
73, 153.83, -1542.06, 3.85, 8.41, 0.000, 0.000, 0.000, 15:13:16.162
74, -24.95, -2456.61, 3.78, 7.58, 0.000, 0.000, 0.000, 15:13:16.163
75, 118.38, -2414.30, 19.23, 16.80, 0.000, 0.000, 0.000, 15:13:16.163
76, 207.42, -1472.00, 11.16, 14.27, 0.000, 0.000, 0.000, 15:13:16.163
77, -9.92, -2128.39, -0.43, 9.89, 0.000, 0.000, 0.000, 15:13:16.185
78, 13.01, -2677.17, 17.71, 15.28, 0.000, 0.000, 0.000, 15:13:16.185
79, 261.99, -2639.83, 15.44, 13.50, 0.000, 0.000, 0.000, 15:13:16.185
80, 97.60, -2786.27, 5.82, 6.47, 0.000, 0.000, 0.000, 15:13:16.185
81, -44.25, -3651.89, 10.15, 10.12, 0.000, 0.000, 0.000, 15:13:16.208
82, 213.14, -2985.34, 18.28, 22.61, 0.000, 0.000, 0.000, 15:13:16.208
83, 166.78, -2522.22, 3.12, 6.28, 0.000, 0.000, 0.000, 15:13:16.209
84, -36.03, -3438.15, 3.06, 2.09, 0.000, 0.000, 0.000, 15:13:16.209
85, 118.99, -3383.06, 22.88, 17.16, 0.000, 0.000, 0.000, 15:13:16.209
86, 197.12, -2456.72, 11.28, 14.48, 0.000, 0.000, 0.000, 15:13:16.209
87, -11.05, -3130.03, 4.29, 7.13, 0.000, 0.000, 0.000, 15:13:16.231
88, 42.13, -3650.52, 18.08, 16.79, 0.000, 0.000, 0.000, 15:13:16.231
89, 239.00, -3616.30, 17.06, 16.68, 0.000, 0.000, 0.000, 15:13:16.231
90, 67.26, -3766.56, 1.42, 6.71, 0.000, 0.000, 0.000, 15:13:16.231
91, -29.95, -4644.12, 10.63, 10.79, 0.000, 0.000, 0.000, 15:13:16.252
92, 188.72, -3958.47, 20.22, 19.91, 0.000, 0.000, 0.000, 15:13:16.252
93, 126.58, -3521.31, 6.66, 5.49, 0.000, 0.000, 0.000, 15:13:16.253
94, -50.04, -4430.56, 5.36, 11.78, 0.000, 0.000, 0.000, 15:13:16.253
95, 121.12, -4372.27, 21.52, 19.68, 0.000, 0.000, 0.000, 15:13:16.275
96, 204.83, -3454.24, 9.88, 7.06, 0.000, 0.000, 0.000, 15:13:16.275
97, -11.43, -4108.05, 2.80, 5.13, 0.000, 0.000, 0.000, 15:13:16.276
98, 28.25, -4618.80, 15.47, 16.17, 0.000, 0.000, 0.000, 15:13:16.276
99, 211.18, -4603.63, 18.65, 16.47, 0.000, 0.000, 0.000, 15:13:16.297
100, 68.06, -4756.48, -0.40, 3.25, 0.000, 0.000, 0.000, 15:13:16.298
101, 3.34, -5624.41, 11.28, 12.93, 0.000, 0.000, 0.000, 15:13:16.300
102, 211.40, -4937.81, 20.36, 18.95, 0.000, 0.000, 0.000, 15:13:16.300
103, 147.74, -4503.82, 4.23, 6.37, 0.000, 0.000, 0.000, 15:13:16.300
104, -21.09, -5421.92, 3.31, 8.77, 0.000, 0.000, 0.000, 15:13:16.301
105, 130.70, -5330.70, 18.57, 17.37, 0.000, 0.000, 0.000, 15:13:16.319
106, 206.85, -4438.99, 14.57, 13.97, 0.000, 0.000, 0.000, 15:13:16.320
107, -15.03, -5093.26, 4.93, 4.71, 0.000, 0.000, 0.000, 15:13:16.320
108, 15.11, -5599.62, 14.87, 16.91, 0.000, 0.000, 0.000, 15:13:16.320
109, 256.89, -5582.38, 15.70, 15.35, 0.000, 0.000, 0.000, 15:13:16.342
110, 73.71, -5747.67, 0.56, 5.05, 0.000, 0.000, 0.000, 15:13:16.342
111, -27.04, -6606.42, 10.81, 14.45, 0.000, 0.000, 0.000, 15:13:16.343
112, 196.36, -5940.71, 20.30, 18.14, 0.000, 0.000, 0.000, 15:13:16.343
113, 120.22, -5490.65, 10.22, 4.16, 0.000, 0.000, 0.000, 15:13:16.365
114, -51.29, -6399.67, 5.58, 8.00, 0.000, 0.000, 0.000, 15:13:16.365
115, 140.62, -6309.61, 22.65, 21.65, 0.000, 0.000, 0.000, 15:13:16.366
116, 226.79, -5419.17, 12.10, 12.58, 0.000, 0.000, 0.000, 15:13:16.366
117, 3.55, -6095.55, 3.41, 3.84, 0.000, 0.000, 0.000, 15:13:16.387
118, 33.47, -6577.45, 16.92, 13.37, 0.000, 0.000, 0.000, 15:13:16.387
119, 235.36, -6571.19, 16.58, 17.64, 0.000, 0.000, 0.000, 15:13:16.387
120, 67.30, -6723.76, 2.55, 7.25, 0.000, 0.000, 0.000, 15:13:16.387
121, -32.23, -7571.66, 10.51, 10.62, 0.000, 0.000, 0.000, 15:13:16.388
122, 200.50, -6879.94, 22.79, 16.98, 0.000, 0.000, 0.000, 15:13:16.388
123, 138.63, -6479.03, 4.04, 10.76, 0.000, 0.000, 0.000, 15:13:16.410
124, -32.46, -7381.68, 0.99, 3.05, 0.000, 0.000, 0.000, 15:13:16.410
125, 124.65, -7291.75, 22.52, 16.65, 0.000, 0.000, 0.000, 15:13:16.410
126, 206.49, -6416.28, 13.32, 12.36, 0.000, 0.000, 0.000, 15:13:16.410
