%OpenBCI Raw EEG Data
%
%Sample Rate = 200.0 Hz
%First Column = SampleIndex
%Last Column = Timestamp 
%Other Columns = EEG data in microvolts followed by Accel Data (in G) interleaved with Aux Data
0, 10.55, 10.70, 6.58, 4.65, 0.000, 0.000, 0.000, 16:19:06.486
1, 3.38, 4.72, 10.93, 15.98, 0.000, 0.000, 0.000, 16:19:06.489
2, 3.19, 6.96, 13.60, 8.56, 0.000, 0.000, 0.000, 16:19:06.490
3, 15.25, 13.25, 8.86, 12.74, 0.000, 0.000, 0.000, 16:19:06.506
4, 3.79, 3.60, 11.09, 15.12, 0.000, 0.000, 0.000, 16:19:06.507
5, 0.31, 5.36, 15.97, 14.93, 0.000, 0.000, 0.000, 16:19:06.507
6, 8.40, 12.17, 14.64, 10.57, 0.000, 0.000, 0.000, 16:19:06.508
7, 7.75, 16.36, 10.57, 11.89, 0.000, 0.000, 0.000, 16:19:06.528
8, 1.51, 4.14, 16.29, 15.06, 0.000, 0.000, 0.000, 16:19:06.529
9, 9.98, 9.01, 8.35, 7.88, 0.000, 0.000, 0.000, 16:19:06.529
10, 16.66, 9.36, 9.78, 12.75, 0.000, 0.000, 0.000, 16:19:06.530
11, 5.28, 7.76, 10.46, 16.11, 0.000, 0.000, 0.000, 16:19:06.551
12, 5.19, 9.89, 5.24, 12.44, 0.000, 0.000, 0.000, 16:19:06.551
13, 4.38, 8.09, 8.27, 9.50, 0.000, 0.000, 0.000, 16:19:06.552
14, 7.87, 11.29, 10.96, 12.32, 0.000, 0.000, 0.000, 16:19:06.552
15, 1.92, 1.88, 17.88, 17.95, 0.000, 0.000, 0.000, 16:19:06.577
16, 8.89, 9.52, 6.71, 10.22, 0.000, 0.000, 0.000, 16:19:06.578
17, 8.45, 14.01, 10.69, 9.54, 0.000, 0.000, 0.000, 16:19:06.579
18, 2.88, 7.27, 12.89, 11.16, 0.000, 0.000, 0.000, 16:19:06.579
19, 1.62, 5.23, 11.50, 10.76, 0.000, 0.000, 0.000, 16:19:06.580
20, 5.34, 9.09, 6.03, 8.30, 0.000, 0.000, 0.000, 16:19:06.580
21, 8.37, 9.61, 14.38, 12.75, 0.000, 0.000, 0.000, 16:19:06.596
22, -1.29, 2.60, 10.86, 16.20, 0.000, 0.000, 0.000, 16:19:06.596
23, 11.63, 16.99, 7.47, 12.83, 0.000, 0.000, 0.000, 16:19:06.597
24, 6.35, 9.59, 8.61, 9.31, 0.000, 0.000, 0.000, 16:19:06.597
25, 4.43, -0.18, 10.58, 11.58, 0.000, 0.000, 0.000, 16:19:06.619
26, 3.57, 9.64, 12.88, 16.08, 0.000, 0.000, 0.000, 16:19:06.619
27, 14.48, 14.52, 3.06, 10.02, 0.000, 0.000, 0.000, 16:19:06.619
28, 5.10, 7.84, 16.38, 13.97, 0.000, 0.000, 0.000, 16:19:06.620
29, 6.37, 7.37, 11.06, 10.39, 0.000, 0.000, 0.000, 16:19:06.641
30, 16.47, 15.49, 12.00, 6.32, 0.000, 0.000, 0.000, 16:19:06.641
31, 3.78, 3.26, 14.07, 9.73, 0.000, 0.000, 0.000, 16:19:06.642
32, 3.27, 3.98, 12.97, 11.60, 0.000, 0.000, 0.000, 16:19:06.642
33, 9.20, 12.52, 8.96, 9.76, 0.000, 0.000, 0.000, 16:19:06.664
34, 7.76, 3.72, 12.54, 12.75, 0.000, 0.000, 0.000, 16:19:06.664
35, 2.11, 0.34, 13.39, 14.54, 0.000, 0.000, 0.000, 16:19:06.665
36, 7.19, 12.33, 11.72, 10.67, 0.000, 0.000, 0.000, 16:19:06.665
37, 9.13, 15.75, 11.85, 12.73, 0.000, 0.000, 0.000, 16:19:06.667
38, 1.63, 0.54, 10.92, 13.47, 0.000, 0.000, 0.000, 16:19:06.667
39, 8.30, 10.91, 9.95, 7.63, 0.000, 0.000, 0.000, 16:19:06.687
40, 8.70, 9.79, 10.87, 11.25, 0.000, 0.000, 0.000, 16:19:06.687
41, 6.29, 4.00, 13.06, 13.99, 0.000, 0.000, 0.000, 16:19:06.688
42, 0.91, 4.92, 9.38, 12.50, 0.000, 0.000, 0.000, 16:19:06.688
43, 9.99, 12.14, 4.73, 7.87, 0.000, 0.000, 0.000, 16:19:06.708
44, 6.60, 9.61, 12.50, 12.02, 0.000, 0.000, 0.000, 16:19:06.709
45, 1.73, 1.60, 11.24, 9.68, 0.000, 0.000, 0.000, 16:19:06.709
46, 3.36, 10.65, 9.52, 8.20, 0.000, 0.000, 0.000, 16:19:06.710
47, 10.37, 12.59, 10.94, 10.30, 0.000, 0.000, 0.000, 16:19:06.731
48, 6.69, 7.22, 12.92, 16.45, 0.000, 0.000, 0.000, 16:19:06.731
49, 1.72, 3.95, 8.81, 12.24, 0.000, 0.000, 0.000, 16:19:06.732
50, 15.13, 11.35, 11.21, 8.93, 0.000, 0.000, 0.000, 16:19:06.732
51, 2.83, 7.49, 13.49, 12.20, 0.000, 0.000, 0.000, 16:19:06.753
52, 0.66, 7.64, 8.56, 10.57, 0.000, 0.000, 0.000, 16:19:06.754
53, 7.79, 11.70, 9.53, 15.75, 0.000, 0.000, 0.000, 16:19:06.754
54, 8.64, 9.37, 11.68, 13.97, 0.000, 0.000, 0.000, 16:19:06.755
55, 4.52, 1.63, 15.61, 13.94, 0.000, 0.000, 0.000, 16:19:06.755
56, 8.73, 9.47, 11.73, 9.54, 0.000, 0.000, 0.000, 16:19:06.756
57, 12.62, 15.22, 4.27, 11.07, 0.000, 0.000, 0.000, 16:19:06.776
58, -5.31, -0.45, 14.94, 16.03, 0.000, 0.000, 0.000, 16:19:06.776
59, 3.68, 7.39, 9.16, 11.15, 0.000, 0.000, 0.000, 16:19:06.777
60, 8.83, 13.99, 11.87, 10.23, 0.000, 0.000, 0.000, 16:19:06.777
61, 9.36, 8.18, 15.21, 15.74, 0.000, 0.000, 0.000, 16:19:06.798
62, 3.58, 5.65, 7.67, 14.72, 0.000, 0.000, 0.000, 16:19:06.799
63, 11.92, 14.23, 7.85, 13.71, 0.000, 0.000, 0.000, 16:19:06.799
64, 7.59, 11.40, 11.37, 11.30, 0.000, 0.000, 0.000, 16:19:06.800
65, 0.83, 4.77, 12.78, 14.05, 0.000, 0.000, 0.000, 16:19:06.821
66, 11.34, 13.27, 5.88, 8.35, 0.000, 0.000, 0.000, 16:19:06.821
67, 6.95, 7.49, 9.26, 9.29, 0.000, 0.000, 0.000, 16:19:06.822
68, 4.36, 3.93, 16.63, 13.66, 0.000, 0.000, 0.000, 16:19:06.822
69, 5.95, 6.84, 10.96, 11.26, 0.000, 0.000, 0.000, 16:19:06.843
70, 16.92, 13.37, 8.24, 12.35, 0.000, 0.000, 0.000, 16:19:06.843
71, 2.83, 6.72, 15.69, 17.46, 0.000, 0.000, 0.000, 16:19:06.866
72, 4.40, 2.27, 12.48, 13.29, 0.000, 0.000, 0.000, 16:19:06.866
73, 7.98, 11.45, 9.35, 11.32, 0.000, 0.000, 0.000, 16:19:06.867
74, 6.24, 12.36, 11.28, 13.94, 0.000, 0.000, 0.000, 16:19:06.867
75, -2.83, 4.66, 16.25, 11.34, 0.000, 0.000, 0.000, 16:19:06.867
76, 10.50, 12.80, 10.47, 12.39, 0.000, 0.000, 0.000, 16:19:06.868
77, 8.52, 14.72, 11.22, 10.49, 0.000, 0.000, 0.000, 16:19:06.868
78, 4.16, 5.95, 17.51, 15.38, 0.000, 0.000, 0.000, 16:19:06.868
79, 5.77, 7.33, 10.71, 13.55, 0.000, 0.000, 0.000, 16:19:06.888
80, 8.78, 14.17, 11.89, 15.01, 0.000, 0.000, 0.000, 16:19:06.888
81, 5.22, 0.93, 13.88, 17.26, 0.000, 0.000, 0.000, 16:19:06.889
82, 3.55, 5.45, 12.58, 13.26, 0.000, 0.000, 0.000, 16:19:06.889
83, 9.20, 12.34, 7.38, 8.79, 0.000, 0.000, 0.000, 16:19:06.910
84, 12.13, 17.18, 9.90, 8.66, 0.000, 0.000, 0.000, 16:19:06.911
85, -4.53, -0.95, 8.79, 13.14, 0.000, 0.000, 0.000, 16:19:06.911
86, 5.76, 7.42, 8.61, 11.14, 0.000, 0.000, 0.000, 16:19:06.912
87, 10.44, 13.31, 10.60, 13.24, 0.000, 0.000, 0.000, 16:19:06.933
88, 1.14, 2.54, 12.26, 14.11, 0.000, 0.000, 0.000, 16:19:06.933
89, 3.19, 5.75, 5.67, 8.10, 0.000, 0.000, 0.000, 16:19:06.934
90, 14.65, 13.77, 9.48, 12.18, 0.000, 0.000, 0.000, 16:19:06.934
91, 2.88, 8.55, 10.56, 11.23, 0.000, 0.000, 0.000, 16:19:06.934
92, 5.87, 5.80, 13.35, 12.02, 0.000, 0.000, 0.000, 16:19:06.935
93, 14.80, 12.31, 10.82, 6.80, 0.000, 0.000, 0.000, 16:19:06.956
94, 5.65, 3.69, 14.70, 11.73, 0.000, 0.000, 0.000, 16:19:06.956
95, 0.03, 3.11, 13.88, 13.20, 0.000, 0.000, 0.000, 16:19:06.956
96, 5.37, 5.18, 10.49, 11.25, 0.000, 0.000, 0.000, 16:19:06.957
97, 11.51, 14.00, 7.35, 14.12, 0.000, 0.000, 0.000, 16:19:06.978
98, -0.45, 7.40, 14.42, 14.21, 0.000, 0.000, 0.000, 16:19:06.979
99, 8.73, 6.87, 11.64, 10.34, 0.000, 0.000, 0.000, 16:19:06.979
100, 13.29, 10.35, 9.74, 10.42, 0.000, 0.000, 0.000, 16:19:06.979
101, 6.67, 5.20, 14.18, 11.44, 0.000, 0.000, 0.000, 16:19:07.001
102, 9.52, 6.74, 8.20, 8.05, 0.000, 0.000, 0.000, 16:19:07.001
103, 3.52, 9.23, 8.99, 13.40, 0.000, 0.000, 0.000, 16:19:07.002
104, 8.71, 10.37, 10.93, 12.35, 0.000, 0.000, 0.000, 16:19:07.002
105, 2.46, 4.98, 15.02, 17.01, 0.000, 0.000, 0.000, 16:19:07.023
106, 6.37, 12.88, 11.26, 12.07, 0.000, 0.000, 0.000, 16:19:07.024
107, 8.55, 9.74, 10.42, 11.80, 0.000, 0.000, 0.000, 16:19:07.024
108, 7.65, 4.03, 12.18, 14.89, 0.000, 0.000, 0.000, 16:19:07.024
109, 6.40, 7.16, 9.68, 9.26, 0.000, 0.000, 0.000, 16:19:07.025
110, 13.38, 12.78, 8.23, 12.92, 0.000, 0.000, 0.000, 16:19:07.025
111, 5.81, 7.87, 12.79, 16.00, 0.000, 0.000, 0.000, 16:19:07.045
112, -3.31, -0.84, 13.07, 12.24, 0.000, 0.000, 0.000, 16:19:07.046
113, 8.61, 11.45, 9.15, 11.08, 0.000, 0.000, 0.000, 16:19:07.046
114, 6.75, 11.83, 10.21, 13.25, 0.000, 0.000, 0.000, 16:19:07.046
115, 5.16, 5.43, 10.51, 12.19, 0.000, 0.000, 0.000, 16:19:07.068
116, 10.53, 8.27, 6.12, 11.26, 0.000, 0.000, 0.000, 16:19:07.068
117, 12.59, 16.91, 11.29, 10.68, 0.000, 0.000, 0.000, 16:19:07.069
118, -0.53, 2.98, 11.09, 13.99, 0.000, 0.000, 0.000, 16:19:07.069
119, 6.56, 6.29, 8.55, 11.91, 0.000, 0.000, 0.000, 16:19:07.091
120, 14.68, 15.17, 10.62, 6.33, 0.000, 0.000, 0.000, 16:19:07.091
121, -1.35, 1.92, 10.80, 13.57, 0.000, 0.000, 0.000, 16:19:07.091
122, 5.02, 7.53, 12.65, 12.64, 0.000, 0.000, 0.000, 16:19:07.092
123, 5.97, 14.20, 8.58, 10.27, 0.000, 0.000, 0.000, 16:19:07.118
124, 6.17, 12.77, 13.10, 11.87, 0.000, 0.000, 0.000, 16:19:07.119
125, 0.51, 4.67, 13.11, 15.37, 0.000, 0.000, 0.000, 16:19:07.119
126, 5.79, 12.35, 7.92, 11.50, 0.000, 0.000, 0.000, 16:19:07.120
127, 9.53, 16.42, 11.14, 9.94, 0.000, 0.000, 0.000, 16:19:07.121
128, 3.71, 3.60, 16.00, 15.02, 0.000, 0.000, 0.000, 16:19:07.123
129, 8.49, 12.42, 8.69, 11.93, 0.000, 0.000, 0.000, 16:19:07.138
130, 12.24, 8.02, 10.03, 9.14, 0.000, 0.000, 0.000, 16:19:07.138
131, 4.96, 5.17, 12.54, 12.62, 0.000, 0.000, 0.000, 16:19:07.139
132, 4.18, 4.75, 12.69, 11.21, 0.000, 0.000, 0.000, 16:19:07.139
133, 8.72, 9.83, 7.38, 7.51, 0.000, 0.000, 0.000, 16:19:07.159
134, 7.15, 9.42, 10.85, 9.63, 0.000, 0.000, 0.000, 16:19:07.159
135, 2.45, 4.89, 14.48, 16.17, 0.000, 0.000, 0.000, 16:19:07.164
136, 6.81, 8.81, 6.10, 8.97, 0.000, 0.000, 0.000, 16:19:07.164
137, 12.80, 12.74, 7.33, 10.46, 0.000, 0.000, 0.000, 16:19:07.182
138, 6.24, 9.67, 14.26, 12.52, 0.000, 0.000, 0.000, 16:19:07.182
139, 2.28, 2.67, 14.11, 12.87, 0.000, 0.000, 0.000, 16:19:07.183
140, 12.67, 12.99, 12.23, 11.84, 0.000, 0.000, 0.000, 16:19:07.183
141, 4.57, 6.15, 15.20, 13.14, 0.000, 0.000, 0.000, 16:19:07.203
142, -2.02, 3.09, 11.12, 9.06, 0.000, 0.000, 0.000, 16:19:07.204
143, 6.98, 8.43, 7.69, 12.01, 0.000, 0.000, 0.000, 16:19:07.204
144, 7.80, 11.16, 8.90, 12.83, 0.000, 0.000, 0.000, 16:19:07.204
145, 1.89, 2.97, 12.52, 13.07, 0.000, 0.000, 0.000, 16:19:07.205
146, 11.93, 4.98, 8.40, 11.50, 0.000, 0.000, 0.000, 16:19:07.205
147, 16.29, 16.70, 8.14, 9.93, 0.000, 0.000, 0.000, 16:19:07.236
148, -4.76, 2.57, 13.40, 13.58, 0.000, 0.000, 0.000, 16:19:07.237
149, 9.45, 7.47, 9.69, 9.41, 0.000, 0.000, 0.000, 16:19:07.248
150, 13.10, 11.74, 10.63, 7.74, 0.000, 0.000, 0.000, 16:19:07.249
151, 3.29, 8.08, 12.62, 16.16, 0.000, 0.000, 0.000, 16:19:07.249
152, 3.66, 5.08, 10.84, 9.96, 0.000, 0.000, 0.000, 16:19:07.249
153, 8.04, 10.12, 10.11, 11.90, 0.000, 0.000, 0.000, 16:19:07.250
154, 6.06, 6.98, 10.74, 13.31, 0.000, 0.000, 0.000, 16:19:07.250
155, 2.80, 0.61, 13.87, 15.49, 0.000, 0.000, 0.000, 16:19:07.271
156, 13.51, 12.99, 9.45, 8.24, 0.000, 0.000, 0.000, 16:19:07.271
157, 3.35, 13.57, 7.44, 11.68, 0.000, 0.000, 0.000, 16:19:07.271
158, 5.10, 4.93, 13.38, 16.99, 0.000, 0.000, 0.000, 16:19:07.272
159, 8.93, 4.53, 12.10, 10.34, 0.000, 0.000, 0.000, 16:19:07.293
160, 7.32, 16.33, 13.25, 9.74, 0.000, 0.000, 0.000, 16:19:07.294
161, 6.16, 8.65, 15.21, 12.06, 0.000, 0.000, 0.000, 16:19:07.294
162, -0.27, 7.54, 12.23, 14.13, 0.000, 0.000, 0.000, 16:19:07.295
163, 8.18, 11.94, 8.25, 5.55, 0.000, 0.000, 0.000, 16:19:07.295
164, 9.55, 10.31, 9.32, 13.60, 0.000, 0.000, 0.000, 16:19:07.295
165, 3.53, 6.88, 13.26, 12.04, 0.000, 0.000, 0.000, 16:19:07.315
166, 3.87, 9.98, 8.15, 8.92, 0.000, 0.000, 0.000, 16:19:07.316
167, 9.56, 13.03, 12.90, 15.07, 0.000, 0.000, 0.000, 16:19:07.316
168, -1.07, 8.25, 14.76, 17.09, 0.000, 0.000, 0.000, 16:19:07.317
169, 5.21, 9.00, 7.78, 15.29, 0.000, 0.000, 0.000, 16:19:07.338
170, 12.91, 9.37, 8.80, 11.14, 0.000, 0.000, 0.000, 16:19:07.338
171, 3.82, 4.61, 14.09, 14.76, 0.000, 0.000, 0.000, 16:19:07.339
172, 4.46, 6.16, 10.34, 11.11, 0.000, 0.000, 0.000, 16:19:07.339
173, 5.19, 7.62, 9.82, 5.62, 0.000, 0.000, 0.000, 16:19:07.361
174, 9.66, 14.97, 11.03, 10.92, 0.000, 0.000, 0.000, 16:19:07.361
175, -1.87, 1.54, 14.15, 11.92, 0.000, 0.000, 0.000, 16:19:07.361
176, 9.98, 8.42, 11.26, 8.60, 0.000, 0.000, 0.000, 16:19:07.362
177, 8.99, 10.45, 7.06, 12.32, 0.000, 0.000, 0.000, 16:19:07.383
178, 0.68, 4.99, 11.56, 17.32, 0.000, 0.000, 0.000, 16:19:07.384
179, 4.85, 1.25, 8.89, 9.58, 0.000, 0.000, 0.000, 16:19:07.384
180, 12.36, 14.18, 12.56, 9.16, 0.000, 0.000, 0.000, 16:19:07.384
181, 3.17, 6.65, 12.00, 13.22, 0.000, 0.000, 0.000, 16:19:07.385
182, 2.93, 5.14, 11.70, 12.90, 0.000, 0.000, 0.000, 16:19:07.385
183, 14.99, 14.81, 6.92, 8.24, 0.000, 0.000, 0.000, 16:19:07.406
184, 6.63, 3.35, 16.05, 13.95, 0.000, 0.000, 0.000, 16:19:07.406
185, 4.22, 3.06, 13.85, 12.04, 0.000, 0.000, 0.000, 16:19:07.428
186, 10.76, 9.43, 11.09, 11.29, 0.000, 0.000, 0.000, 16:19:07.429
187, 10.95, 10.46, 6.35, 6.62, 0.000, 0.000, 0.000, 16:19:07.429
188, 3.50, 2.97, 13.74, 16.55, 0.000, 0.000, 0.000, 16:19:07.430
189, 5.24, 5.88, 10.69, 13.18, 0.000, 0.000, 0.000, 16:19:07.430
190, 15.76, 13.73, 9.94, 10.00, 0.000, 0.000, 0.000, 16:19:07.430
191, 3.67, 5.57, 13.52, 16.74, 0.000, 0.000, 0.000, 16:19:07.451
192, 8.67, 9.13, 8.53, 11.05, 0.000, 0.000, 0.000, 16:19:07.451
193, 4.13, 8.16, 10.57, 11.91, 0.000, 0.000, 0.000, 16:19:07.452
194, 9.24, 12.59, 13.86, 14.07, 0.000, 0.000, 0.000, 16:19:07.452
195, 4.78, 3.94, 11.68, 11.76, 0.000, 0.000, 0.000, 16:19:07.473
196, 4.83, 11.02, 10.98, 11.69, 0.000, 0.000, 0.000, 16:19:07.474
197, 10.57, 15.50, 8.25, 9.62, 0.000, 0.000, 0.000, 16:19:07.474
198, 3.70, 6.62, 13.99, 14.06, 0.000, 0.000, 0.000, 16:19:07.474
199, 3.77, 7.53, 6.70, 7.98, 0.000, 0.000, 0.000, 16:19:07.475
200, 10.91, 15.46, 8.56, 11.86, 0.000, 0.000, 0.000, 16:19:07.475
0, 9.57, 13.07, 12.51, 17.00, 0.000, 0.000, 0.000, 16:19:07.496
1, 0.65, 1.93, 11.64, 12.81, 0.000, 0.000, 0.000, 16:19:07.496
2, 10.62, 10.01, 11.49, 11.66, 0.000, 0.000, 0.000, 16:19:07.497
3, 8.00, 8.76, 14.98, 9.52, 0.000, 0.000, 0.000, 16:19:07.519
4, 0.92, 4.97, 13.09, 15.38, 0.000, 0.000, 0.000, 16:19:07.519
5, 2.52, 7.54, 12.76, 11.67, 0.000, 0.000, 0.000, 16:19:07.520
6, 12.24, 12.61, 12.33, 8.01, 0.000, 0.000, 0.000, 16:19:07.520
7, 1.09, 4.81, 12.22, 14.06, 0.000, 0.000, 0.000, 16:19:07.521
8, 5.53, 7.95, 9.83, 11.81, 0.000, 0.000, 0.000, 16:19:07.521
9, 12.66, 17.39, 8.82, 8.33, 0.000, 0.000, 0.000, 16:19:07.542
10, 1.77, 2.21, 11.81, 13.75, 0.000, 0.000, 0.000, 16:19:07.542
11, 4.82, 3.81, 10.35, 12.93, 0.000, 0.000, 0.000, 16:19:07.543
12, 7.71, 12.57, 8.13, 14.38, 0.000, 0.000, 0.000, 16:19:07.543
13, 11.41, 7.51, 8.75, 11.95, 0.000, 0.000, 0.000, 16:19:07.564
14, -2.88, 7.23, 14.58, 11.90, 0.000, 0.000, 0.000, 16:19:07.565
15, 9.13, 7.69, 10.52, 10.10, 0.000, 0.000, 0.000, 16:19:07.565
16, 10.59, 10.92, 9.01, 10.43, 0.000, 0.000, 0.000, 16:19:07.565
17, 0.37, 2.28, 14.42, 16.85, 0.000, 0.000, 0.000, 16:19:07.586
18, 10.50, 10.42, 10.80, 7.33, 0.000, 0.000, 0.000, 16:19:07.586
19, 5.07, 6.37, 9.49, 12.98, 0.000, 0.000, 0.000, 16:19:07.587
20, 4.29, 11.74, 10.67, 13.73, 0.000, 0.000, 0.000, 16:19:07.587
21, 3.00, 5.12, 9.96, 13.01, 0.000, 0.000, 0.000, 16:19:07.609
22, 13.09, 10.05, 12.48, 10.15, 0.000, 0.000, 0.000, 16:19:07.610
23, 8.92, 12.45, 12.34, 14.77, 0.000, 0.000, 0.000, 16:19:07.610
24, 2.37, 4.60, 12.64, 12.86, 0.000, 0.000, 0.000, 16:19:07.610
25, 5.71, 7.07, 14.18, 11.57, 0.000, 0.000, 0.000, 16:19:07.611
26, 11.17, 11.00, 11.85, 12.07, 0.000, 0.000, 0.000, 16:19:07.611
27, 4.36, 3.62, 14.33, 12.16, 0.000, 0.000, 0.000, 16:19:07.633
28, 1.38, 5.85, 8.84, 8.01, 0.000, 0.000, 0.000, 16:19:07.634
29, 14.65, 11.60, 7.54, 7.97, 0.000, 0.000, 0.000, 16:19:07.634
30, 6.62, 5.37, 13.98, 11.91, 0.000, 0.000, 0.000, 16:19:07.634
31, -2.81, 6.28, 12.08, 11.49, 0.000, 0.000, 0.000, 16:19:07.653
32, 9.24, 10.55, 7.00, 11.80, 0.000, 0.000, 0.000, 16:19:07.654
33, 6.77, 16.71, 10.77, 10.82, 0.000, 0.000, 0.000, 16:19:07.654
34, -1.17, 2.80, 12.04, 13.38, 0.000, 0.000, 0.000, 16:19:07.654
35, 10.48, 5.88, 10.37, 10.33, 0.000, 0.000, 0.000, 16:19:07.676
36, 14.43, 16.10, 14.15, 12.34, 0.000, 0.000, 0.000, 16:19:07.676
37, -0.44, -3.33, 12.61, 14.99, 0.000, 0.000, 0.000, 16:19:07.677
38, 3.09, 8.60, 9.86, 10.69, 0.000, 0.000, 0.000, 16:19:07.677
39, 8.98, 15.63, 8.40, 9.00, 0.000, 0.000, 0.000, 16:19:07.699
40, 6.73, 10.85, 13.32, 10.57, 0.000, 0.000, 0.000, 16:19:07.699
41, 3.40, 5.29, 11.81, 14.30, 0.000, 0.000, 0.000, 16:19:07.699
42, 10.48, 9.18, 7.04, 12.14, 0.000, 0.000, 0.000, 16:19:07.700
43, 10.94, 8.36, 13.85, 13.27, 0.000, 0.000, 0.000, 16:19:07.700
44, 4.44, 2.57, 15.20, 15.72, 0.000, 0.000, 0.000, 16:19:07.700
45, 11.84, 14.52, 5.39, 9.79, 0.000, 0.000, 0.000, 16:19:07.721
46, 6.43, 7.24, 8.13, 11.26, 0.000, 0.000, 0.000, 16:19:07.721
47, 2.15, 0.97, 11.52, 16.50, 0.000, 0.000, 0.000, 16:19:07.721
48, 6.98, 7.58, 11.23, 9.98, 0.000, 0.000, 0.000, 16:19:07.722
49, 11.85, 16.52, 6.27, 8.36, 0.000, 0.000, 0.000, 16:19:07.743
50, 4.44, 7.75, 12.79, 14.70, 0.000, 0.000, 0.000, 16:19:07.744
51, 5.26, 8.10, 8.11, 16.09, 0.000, 0.000, 0.000, 16:19:07.744
52, 7.67, 10.49, 9.57, 7.76, 0.000, 0.000, 0.000, 16:19:07.745
53, 8.55, 12.00, 13.43, 11.20, 0.000, 0.000, 0.000, 16:19:07.767
54, 7.25, 9.23, 14.34, 13.24, 0.000, 0.000, 0.000, 16:19:07.769
55, 0.48, 5.36, 10.41, 12.93, 0.000, 0.000, 0.000, 16:19:07.769
56, 12.73, 12.15, 7.78, 14.72, 0.000, 0.000, 0.000, 16:19:07.769
57, 1.63, 2.23, 16.82, 16.52, 0.000, 0.000, 0.000, 16:19:07.788
58, 5.16, 7.37, 12.31, 12.03, 0.000, 0.000, 0.000, 16:19:07.789
59, 8.66, 10.11, 7.45, 9.29, 0.000, 0.000, 0.000, 16:19:07.790
60, 4.15, 9.13, 16.76, 14.61, 0.000, 0.000, 0.000, 16:19:07.790
61, 0.59, 5.34, 8.15, 13.14, 0.000, 0.000, 0.000, 16:19:07.791
62, 9.79, 11.26, 10.04, 7.40, 0.000, 0.000, 0.000, 16:19:07.791
63, 8.49, 17.69, 10.64, 13.36, 0.000, 0.000, 0.000, 16:19:07.811
64, -1.09, 2.11, 15.62, 7.06, 0.000, 0.000, 0.000, 16:19:07.811
65, 6.22, 5.98, 10.10, 10.93, 0.000, 0.000, 0.000, 16:19:07.811
66, 15.27, 12.21, 9.40, 10.97, 0.000, 0.000, 0.000, 16:19:07.812
67, -3.16, 1.72, 17.31, 14.62, 0.000, 0.000, 0.000, 16:19:07.833
68, 3.20, 4.10, 11.23, 9.36, 0.000, 0.000, 0.000, 16:19:07.833
69, 13.46, 16.11, 9.55, 12.93, 0.000, 0.000, 0.000, 16:19:07.834
70, 5.15, 3.55, 8.96, 12.89, 0.000, 0.000, 0.000, 16:19:07.834
71, 5.13, 4.37, 12.06, 8.78, 0.000, 0.000, 0.000, 16:19:07.856
72, 13.85, 14.16, 11.12, 14.02, 0.000, 0.000, 0.000, 16:19:07.856
73, 4.31, 6.04, 11.44, 12.63, 0.000, 0.000, 0.000, 16:19:07.856
74, -1.51, 4.32, 12.29, 16.56, 0.000, 0.000, 0.000, 16:19:07.857
75, 8.01, 10.64, 9.02, 9.79, 0.000, 0.000, 0.000, 16:19:07.878
76, 12.03, 15.47, 9.53, 12.15, 0.000, 0.000, 0.000, 16:19:07.878
77, 0.09, 3.12, 12.27, 15.31, 0.000, 0.000, 0.000, 16:19:07.879
78, 4.07, 8.26, 9.57, 10.95, 0.000, 0.000, 0.000, 16:19:07.879
79, 9.28, 14.99, 6.10, 8.00, 0.000, 0.000, 0.000, 16:19:07.879
80, 7.00, 10.79, 12.47, 13.11, 0.000, 0.000, 0.000, 16:19:07.880
81, 5.30, 9.32, 11.11, 13.73, 0.000, 0.000, 0.000, 16:19:07.900
82, 8.37, 9.92, 8.46, 12.62, 0.000, 0.000, 0.000, 16:19:07.901
83, 6.70, 8.53, 12.23, 12.72, 0.000, 0.000, 0.000, 16:19:07.902
84, 3.31, 1.02, 9.93, 10.72, 0.000, 0.000, 0.000, 16:19:07.902
85, 7.02, 11.03, 7.22, 10.43, 0.000, 0.000, 0.000, 16:19:07.923
86, 9.96, 13.38, 11.43, 13.04, 0.000, 0.000, 0.000, 16:19:07.923
87, 5.41, 0.36, 14.58, 13.02, 0.000, 0.000, 0.000, 16:19:07.924
88, 4.53, 6.20, 9.99, 11.28, 0.000, 0.000, 0.000, 16:19:07.924
89, 14.19, 8.71, 8.89, 6.85, 0.000, 0.000, 0.000, 16:19:07.945
90, 10.10, 10.16, 12.33, 15.90, 0.000, 0.000, 0.000, 16:19:07.946
91, -2.31, 4.64, 12.88, 14.38, 0.000, 0.000, 0.000, 16:19:07.946
92, 6.77, 9.79, 10.14, 9.22, 0.000, 0.000, 0.000, 16:19:07.947
93, 9.07, 7.75, 11.80, 13.59, 0.000, 0.000, 0.000, 16:19:07.968
94, 1.89, 4.78, 14.29, 13.46, 0.000, 0.000, 0.000, 16:19:07.969
95, 6.19, 5.29, 10.23, 11.57, 0.000, 0.000, 0.000, 16:19:07.969
96, 10.51, 11.44, 8.84, 8.76, 0.000, 0.000, 0.000, 16:19:07.969
97, 3.43, 5.71, 14.41, 14.97, 0.000, 0.000, 0.000, 16:19:07.969
98, 7.01, 9.55, 11.16, 12.02, 0.000, 0.000, 0.000, 16:19:07.970
99, 15.98, 12.97, 11.47, 8.70, 0.000, 0.000, 0.000, 16:19:07.991
100, -1.83, 6.65, 14.98, 16.40, 0.000, 0.000, 0.000, 16:19:07.991
101, 1.02, 5.70, 13.24, 12.58, 0.000, 0.000, 0.000, 16:19:07.991
102, 8.62, 9.23, 10.95, 5.65, 0.000, 0.000, 0.000, 16:19:07.992
103, 9.29, 5.11, 10.29, 13.89, 0.000, 0.000, 0.000, 16:19:08.013
104, 2.15, 5.79, 12.66, 14.67, 0.000, 0.000, 0.000, 16:19:08.013
105, 9.36, 12.52, 6.92, 9.27, 0.000, 0.000, 0.000, 16:19:08.014
106, 10.79, 10.87, 10.46, 7.72, 0.000, 0.000, 0.000, 16:19:08.014
107, 7.02, 4.65, 11.68, 14.29, 0.000, 0.000, 0.000, 16:19:08.035
108, 8.63, 10.83, 11.86, 9.21, 0.000, 0.000, 0.000, 16:19:08.036
109, 5.11, 10.52, 10.78, 12.10, 0.000, 0.000, 0.000, 16:19:08.036
110, 6.85, 8.32, 11.80, 13.19, 0.000, 0.000, 0.000, 16:19:08.036
111, 2.05, 4.55, 8.65, 12.63, 0.000, 0.000, 0.000, 16:19:08.058
112, 7.25, 7.57, 10.04, 9.62, 0.000, 0.000, 0.000, 16:19:08.059
113, 9.25, 7.99, 11.93, 10.71, 0.000, 0.000, 0.000, 16:19:08.059
114, 0.94, -0.40, 12.04, 12.81, 0.000, 0.000, 0.000, 16:19:08.059
115, 9.88, 7.91, 11.17, 7.66, 0.000, 0.000, 0.000, 16:19:08.060
116, 11.54, 13.70, 9.81, 12.83, 0.000, 0.000, 0.000, 16:19:08.060
117, 5.46, 7.84, 18.73, 15.46, 0.000, 0.000, 0.000, 16:19:08.080
118, 2.34, 1.17, 10.93, 15.84, 0.000, 0.000, 0.000, 16:19:08.081
119, 8.57, 13.31, 10.33, 11.75, 0.000, 0.000, 0.000, 16:19:08.081
120, 3.79, 9.24, 13.94, 18.77, 0.000, 0.000, 0.000, 16:19:08.081
121, 4.82, 7.66, 12.14, 12.47, 0.000, 0.000, 0.000, 16:19:08.103
122, 9.74, 10.61, 10.69, 8.41, 0.000, 0.000, 0.000, 16:19:08.103
123, 9.59, 12.02, 11.67, 15.38, 0.000, 0.000, 0.000, 16:19:08.104
124, 1.32, -0.98, 15.57, 17.94, 0.000, 0.000, 0.000, 16:19:08.104
125, 5.25, 7.08, 8.87, 5.83, 0.000, 0.000, 0.000, 16:19:08.126
126, 15.41, 16.41, 9.57, 15.77, 0.000, 0.000, 0.000, 16:19:08.126
127, -0.26, 0.10, 11.01, 16.38, 0.000, 0.000, 0.000, 16:19:08.126
128, 9.34, 7.91, 5.93, 9.66, 0.000, 0.000, 0.000, 16:19:08.127
129, 9.74, 14.55, 10.52, 10.31, 0.000, 0.000, 0.000, 16:19:08.148
130, 3.84, 9.43, 15.06, 11.98, 0.000, 0.000, 0.000, 16:19:08.148
131, -0.42, 4.74, 12.37, 16.05, 0.000, 0.000, 0.000, 16:19:08.149
132, 12.46, 10.78, 9.01, 7.30, 0.000, 0.000, 0.000, 16:19:08.149
133, 11.14, 10.89, 12.84, 11.11, 0.000, 0.000, 0.000, 16:19:08.150
134, -0.91, 3.16, 13.38, 13.85, 0.000, 0.000, 0.000, 16:19:08.150
135, 10.32, 11.39, 7.03, 11.51, 0.000, 0.000, 0.000, 16:19:08.170
136, 4.05, 13.94, 9.48, 8.84, 0.000, 0.000, 0.000, 16:19:08.171
137, 0.56, 9.19, 10.68, 13.76, 0.000, 0.000, 0.000, 16:19:08.171
138, 5.82, 10.36, 13.37, 11.11, 0.000, 0.000, 0.000, 16:19:08.171
139, 11.85, 11.34, 7.25, 11.85, 0.000, 0.000, 0.000, 16:19:08.193
140, 2.97, 3.58, 14.19, 10.14, 0.000, 0.000, 0.000, 16:19:08.193
141, 1.15, 10.41, 6.69, 12.21, 0.000, 0.000, 0.000, 16:19:08.194
142, 6.75, 11.48, 7.81, 12.79, 0.000, 0.000, 0.000, 16:19:08.194
143, 8.90, 6.55, 11.28, 8.36, 0.000, 0.000, 0.000, 16:19:08.216
144, 5.22, 5.83, 14.63, 11.63, 0.000, 0.000, 0.000, 16:19:08.216
145, -0.09, 4.18, 5.86, 11.25, 0.000, 0.000, 0.000, 16:19:08.217
146, 11.00, 9.71, 8.57, 7.73, 0.000, 0.000, 0.000, 16:19:08.217
147, 2.49, 5.55, 13.45, 15.08, 0.000, 0.000, 0.000, 16:19:08.238
148, 7.40, 8.32, 7.06, 11.03, 0.000, 0.000, 0.000, 16:19:08.239
149, 8.41, 11.98, 10.16, 9.24, 0.000, 0.000, 0.000, 16:19:08.239
150, 8.76, 5.29, 12.53, 12.47, 0.000, 0.000, 0.000, 16:19:08.239
151, 5.38, 4.79, 10.63, 10.81, 0.000, 0.000, 0.000, 16:19:08.240
152, 6.23, 12.60, 10.27, 10.56, 0.000, 0.000, 0.000, 16:19:08.240
153, 12.07, 13.56, 12.80, 13.66, 0.000, 0.000, 0.000, 16:19:08.260
154, 0.89, -1.04, 17.64, 17.23, 0.000, 0.000, 0.000, 16:19:08.261
155, 6.36, 10.86, 8.44, 13.68, 0.000, 0.000, 0.000, 16:19:08.261
156, 6.77, 12.76, 5.18, 8.16, 0.000, 0.000, 0.000, 16:19:08.262
157, 2.87, 3.56, 12.53, 17.59, 0.000, 0.000, 0.000, 16:19:08.283
158, 3.38, 7.01, 11.75, 11.70, 0.000, 0.000, 0.000, 16:19:08.283
159, 10.20, 12.18, 6.71, 9.81, 0.000, 0.000, 0.000, 16:19:08.284
160, 4.79, 7.57, 14.25, 12.89, 0.000, 0.000, 0.000, 16:19:08.284
161, 5.52, 1.92, 12.74, 14.42, 0.000, 0.000, 0.000, 16:19:08.306
162, 12.86, 14.98, 5.37, 10.60, 0.000, 0.000, 0.000, 16:19:08.307
163, 1.80, 1.83, 6.71, 12.07, 0.000, 0.000, 0.000, 16:19:08.307
164, 1.36, 6.02, 14.59, 12.57, 0.000, 0.000, 0.000, 16:19:08.308
165, 7.06, 9.65, 9.41, 11.63, 0.000, 0.000, 0.000, 16:19:08.328
166, 10.53, 12.70, 8.32, 6.52, 0.000, 0.000, 0.000, 16:19:08.328
167, 1.14, 4.00, 16.00, 13.11, 0.000, 0.000, 0.000, 16:19:08.329
168, 9.26, 13.20, 14.91, 12.63, 0.000, 0.000, 0.000, 16:19:08.329
169, 8.62, 13.20, 6.71, 9.26, 0.000, 0.000, 0.000, 16:19:08.330
170, 5.75, 6.95, 13.10, 15.17, 0.000, 0.000, 0.000, 16:19:08.330
171, 4.95, 10.41, 11.87, 11.37, 0.000, 0.000, 0.000, 16:19:08.351
172, 5.62, 6.88, 9.94, 13.30, 0.000, 0.000, 0.000, 16:19:08.351
173, 7.95, 10.85, 11.02, 14.52, 0.000, 0.000, 0.000, 16:19:08.351
174, 4.06, 5.36, 11.16, 12.49, 0.000, 0.000, 0.000, 16:19:08.352
175, 11.40, 14.80, 7.15, 7.08, 0.000, 0.000, 0.000, 16:19:08.373
176, 14.91, 6.69, 8.78, 8.46, 0.000, 0.000, 0.000, 16:19:08.373
177, 4.17, 4.94, 15.06, 15.61, 0.000, 0.000, 0.000, 16:19:08.374
178, 4.44, 5.81, 12.21, 7.97, 0.000, 0.000, 0.000, 16:19:08.375
179, 5.80, 9.66, 7.94, 7.31, 0.000, 0.000, 0.000, 16:19:08.396
180, 10.31, 12.99, 16.85, 13.26, 0.000, 0.000, 0.000, 16:19:08.396
181, 0.25, -1.15, 17.00, 15.67, 0.000, 0.000, 0.000, 16:19:08.397
182, 9.39, 13.60, 5.52, 9.94, 0.000, 0.000, 0.000, 16:19:08.397
183, 5.39, 11.99, 11.11, 9.07, 0.000, 0.000, 0.000, 16:19:08.418
184, 3.88, 3.70, 15.45, 15.49, 0.000, 0.000, 0.000, 16:19:08.419
185, 9.19, 6.50, 8.73, 10.74, 0.000, 0.000, 0.000, 16:19:08.419
186, 11.74, 11.22, 3.83, 8.90, 0.000, 0.000, 0.000, 16:19:08.419
187, 1.13, 3.65, 14.47, 13.80, 0.000, 0.000, 0.000, 16:19:08.420
188, 3.06, 8.57, 11.05, 13.75, 0.000, 0.000, 0.000, 16:19:08.420
189, 14.00, 9.60, 8.17, 8.07, 0.000, 0.000, 0.000, 16:19:08.441
190, 5.52, 7.38, 9.68, 14.18, 0.000, 0.000, 0.000, 16:19:08.441
191, 1.13, 7.19, 12.71, 15.33, 0.000, 0.000, 0.000, 16:19:08.441
192, 9.73, 11.25, 8.09, 10.59, 0.000, 0.000, 0.000, 16:19:08.442
193, 4.09, 9.46, 8.80, 11.38, 0.000, 0.000, 0.000, 16:19:08.463
194, 2.61, -0.11, 14.71, 17.67, 0.000, 0.000, 0.000, 16:19:08.463
195, 6.41, 11.38, 11.52, 13.11, 0.000, 0.000, 0.000, 16:19:08.463
196, 11.11, 11.35, 9.91, 7.35, 0.000, 0.000, 0.000, 16:19:08.464
197, 1.81, 7.17, 16.82, 14.34, 0.000, 0.000, 0.000, 16:19:08.486
198, 11.08, 11.89, 9.33, 10.95, 0.000, 0.000, 0.000, 16:19:08.486
199, 9.84, 3.36, 2.34, 8.51, 0.000, 0.000, 0.000, 16:19:08.486
200, 5.10, 5.39, 11.36, 14.18, 0.000, 0.000, 0.000, 16:19:08.487
0, 3.79, 6.60, 18.76, 17.91, 0.000, 0.000, 0.000, 16:19:08.487
1, 11.41, 8.95, 11.03, 12.88, 0.000, 0.000, 0.000, 16:19:08.508
2, 7.16, 9.93, 8.51, 5.21, 0.000, 0.000, 0.000, 16:19:08.509
3, 2.74, 2.50, 15.59, 18.54, 0.000, 0.000, 0.000, 16:19:08.509
4, 10.00, 8.40, 11.30, 8.38, 0.000, 0.000, 0.000, 16:19:08.510
5, 7.43, 13.82, 3.19, 3.87, 0.000, 0.000, 0.000, 16:19:08.531
6, 7.09, 9.58, 12.30, 12.73, 0.000, 0.000, 0.000, 16:19:08.531
7, 1.93, 3.78, 12.34, 15.36, 0.000, 0.000, 0.000, 16:19:08.533
8, 9.67, 12.51, 8.04, 3.61, 0.000, 0.000, 0.000, 16:19:08.533
9, 3.30, 8.16, 9.12, 13.71, 0.000, 0.000, 0.000, 16:19:08.554
10, 4.48, 2.83, 19.43, 23.99, 0.000, 0.000, 0.000, 16:19:08.554
11, 8.32, 11.66, 9.70, 9.41, 0.000, 0.000, 0.000, 16:19:08.555
12, 8.04, 11.56, 3.42, 4.34, 0.000, 0.000, 0.000, 16:19:08.555
13, 1.07, 8.12, 23.15, 21.16, 0.000, 0.000, 0.000, 16:19:08.555
14, 7.76, 9.89, 12.31, 10.42, 0.000, 0.000, 0.000, 16:19:08.556
15, 16.73, 15.61, 2.45, 1.72, 0.000, 0.000, 0.000, 16:19:08.576
16, 1.99, 2.06, 20.03, 21.32, 0.000, 0.000, 0.000, 16:19:08.576
17, 3.41, 6.82, 16.64, 19.52, 0.000, 0.000, 0.000, 16:19:08.577
18, 11.94, 15.83, 1.36, 0.63, 0.000, 0.000, 0.000, 16:19:08.577
19, 5.85, 7.41, 10.89, 11.06, 0.000, 0.000, 0.000, 16:19:08.598
20, -2.42, 6.15, 20.95, 20.77, 0.000, 0.000, 0.000, 16:19:08.598
21, 11.64, 9.39, 8.76, 6.84, 0.000, 0.000, 0.000, 16:19:08.599
22, 9.49, 10.09, 5.56, 2.28, 0.000, 0.000, 0.000, 16:19:08.599
23, 0.31, 1.32, 17.49, 21.12, 0.000, 0.000, 0.000, 16:19:08.621
24, 12.79, 14.32, 10.22, 13.42, 0.000, 0.000, 0.000, 16:19:08.621
25, 7.95, 9.13, 0.42, 4.07, 0.000, 0.000, 0.000, 16:19:08.621
26, -3.26, 5.56, 15.24, 17.89, 0.000, 0.000, 0.000, 16:19:08.622
27, 1.86, 5.86, 11.26, 14.53, 0.000, 0.000, 0.000, 16:19:08.643
28, 16.44, 13.85, 0.85, 2.19, 0.000, 0.000, 0.000, 16:19:08.643
29, 3.67, 8.09, 9.93, 9.32, 0.000, 0.000, 0.000, 16:19:08.644
30, 1.28, 5.04, 20.16, 17.62, 0.000, 0.000, 0.000, 16:19:08.644
31, 9.27, 11.74, 7.92, 10.32, 0.000, 0.000, 0.000, 16:19:08.644
32, 11.09, 12.35, 3.99, 5.32, 0.000, 0.000, 0.000, 16:19:08.645
33, 1.92, 6.51, 21.65, 22.90, 0.000, 0.000, 0.000, 16:19:08.667
34, 6.67, 5.92, 12.55, 13.22, 0.000, 0.000, 0.000, 16:19:08.667
35, 15.38, 17.27, 0.23, 3.44, 0.000, 0.000, 0.000, 16:19:08.667
36, -1.27, 3.65, 19.61, 19.20, 0.000, 0.000, 0.000, 16:19:08.668
37, -0.14, 4.20, 17.03, 15.12, 0.000, 0.000, 0.000, 16:19:08.688
38, 9.11, 11.57, 1.54, 5.56, 0.000, 0.000, 0.000, 16:19:08.689
39, 9.31, 6.88, 10.34, 7.84, 0.000, 0.000, 0.000, 16:19:08.689
40, 2.70, 2.30, 20.93, 17.24, 0.000, 0.000, 0.000, 16:19:08.690
41, 13.36, 12.64, 6.49, 12.65, 0.000, 0.000, 0.000, 16:19:08.711
42, 18.16, 15.52, 3.21, 1.61, 0.000, 0.000, 0.000, 16:19:08.711
43, -8.28, -5.74, 22.71, 23.25, 0.000, 0.000, 0.000, 16:19:08.711
44, 6.99, 6.63, 12.47, 15.06, 0.000, 0.000, 0.000, 16:19:08.712
45, 16.30, 15.77, 3.03, -1.81, 0.000, 0.000, 0.000, 16:19:08.733
46, 0.26, 4.12, 22.33, 20.32, 0.000, 0.000, 0.000, 16:19:08.733
47, 5.07, 2.81, 16.12, 19.42, 0.000, 0.000, 0.000, 16:19:08.734
48, 15.43, 14.25, 2.06, 2.59, 0.000, 0.000, 0.000, 16:19:08.734
49, 5.33, 6.62, 9.27, 13.72, 0.000, 0.000, 0.000, 16:19:08.734
50, -3.92, 1.47, 19.60, 18.93, 0.000, 0.000, 0.000, 16:19:08.735
51, 13.51, 17.96, 7.59, 10.09, 0.000, 0.000, 0.000, 16:19:08.757
52, 12.21, 8.57, 4.97, 4.54, 0.000, 0.000, 0.000, 16:19:08.758
53, -4.89, -2.16, 23.48, 22.38, 0.000, 0.000, 0.000, 16:19:08.758
54, 6.23, 7.43, 9.49, 13.73, 0.000, 0.000, 0.000, 16:19:08.758
55, 19.40, 19.82, 0.07, 0.73, 0.000, 0.000, 0.000, 16:19:08.778
56, -3.81, 2.40, 17.19, 20.84, 0.000, 0.000, 0.000, 16:19:08.779
57, 1.59, 7.30, 18.58, 16.65, 0.000, 0.000, 0.000, 16:19:08.779
58, 14.95, 18.40, 0.09, 2.16, 0.000, 0.000, 0.000, 16:19:08.779
59, 6.96, 8.23, 12.11, 14.04, 0.000, 0.000, 0.000, 16:19:08.801
60, -2.72, 3.50, 20.11, 19.79, 0.000, 0.000, 0.000, 16:19:08.801
61, 6.02, 10.58, 9.52, 7.48, 0.000, 0.000, 0.000, 16:19:08.802
62, 12.81, 19.35, 5.07, 3.23, 0.000, 0.000, 0.000, 16:19:08.802
63, -6.81, -3.18, 17.15, 22.17, 0.000, 0.000, 0.000, 16:19:08.823
64, 2.50, 8.58, 8.57, 13.98, 0.000, 0.000, 0.000, 16:19:08.823
65, 18.93, 13.42, 0.65, -0.52, 0.000, 0.000, 0.000, 16:19:08.824
66, -0.23, -2.67, 18.97, 19.25, 0.000, 0.000, 0.000, 16:19:08.824
67, 0.24, 1.96, 15.62, 17.58, 0.000, 0.000, 0.000, 16:19:08.824
68, 14.75, 18.16, 0.59, 4.75, 0.000, 0.000, 0.000, 16:19:08.824
69, 13.39, 10.57, 12.89, 12.87, 0.000, 0.000, 0.000, 16:19:08.846
70, -9.18, -3.13, 21.69, 25.66, 0.000, 0.000, 0.000, 16:19:08.846
71, 11.40, 11.07, 10.26, 8.01, 0.000, 0.000, 0.000, 16:19:08.846
72, 16.20, 14.16, 4.44, 0.29, 0.000, 0.000, 0.000, 16:19:08.847
73, -8.51, -2.16, 17.67, 21.52, 0.000, 0.000, 0.000, 16:19:08.868
74, 3.32, 5.97, 10.88, 12.30, 0.000, 0.000, 0.000, 16:19:08.868
75, 19.69, 17.83, 2.38, 1.25, 0.000, 0.000, 0.000, 16:19:08.869
76, 0.05, 4.37, 18.64, 23.21, 0.000, 0.000, 0.000, 16:19:08.869
77, -1.77, 3.13, 17.53, 16.34, 0.000, 0.000, 0.000, 16:19:08.890
78, 23.23, 24.50, 1.22, -0.60, 0.000, 0.000, 0.000, 16:19:08.891
79, 3.45, 7.42, 7.12, 9.96, 0.000, 0.000, 0.000, 16:19:08.891
80, -0.96, 1.44, 17.73, 22.53, 0.000, 0.000, 0.000, 16:19:08.891
81, 11.05, 13.06, 5.13, 6.76, 0.000, 0.000, 0.000, 16:19:08.915
82, 15.51, 18.21, 5.83, 4.44, 0.000, 0.000, 0.000, 16:19:08.915
83, -5.49, -4.42, 20.66, 21.38, 0.000, 0.000, 0.000, 16:19:08.915
84, 3.70, 5.71, 10.68, 9.45, 0.000, 0.000, 0.000, 16:19:08.916
85, 15.91, 17.37, 0.86, 2.52, 0.000, 0.000, 0.000, 16:19:08.916
86, -0.16, 1.54, 17.41, 22.37, 0.000, 0.000, 0.000, 16:19:08.916
87, 2.82, 5.86, 16.09, 15.56, 0.000, 0.000, 0.000, 16:19:08.937
88, 11.89, 15.63, 2.87, 3.77, 0.000, 0.000, 0.000, 16:19:08.937
89, 6.46, 9.31, 11.47, 14.05, 0.000, 0.000, 0.000, 16:19:08.938
90, -3.42, -1.14, 21.64, 23.84, 0.000, 0.000, 0.000, 16:19:08.938
91, 13.68, 15.80, 3.79, 1.73, 0.000, 0.000, 0.000, 16:19:08.960
92, 14.71, 13.52, 5.57, 2.59, 0.000, 0.000, 0.000, 16:19:08.960
93, -2.34, 0.01, 23.47, 22.23, 0.000, 0.000, 0.000, 16:19:08.960
94, 8.86, 10.09, 9.89, 14.09, 0.000, 0.000, 0.000, 16:19:08.961
95, 21.00, 21.15, -1.54, -1.07, 0.000, 0.000, 0.000, 16:19:08.981
96, 5.37, 0.72, 15.75, 18.73, 0.000, 0.000, 0.000, 16:19:08.981
97, -4.62, -0.92, 18.40, 17.38, 0.000, 0.000, 0.000, 16:19:08.981
98, 14.94, 18.22, 1.14, 1.88, 0.000, 0.000, 0.000, 16:19:08.981
99, 7.62, 9.80, 9.11, 13.08, 0.000, 0.000, 0.000, 16:19:09.003
100, -2.26, 0.35, 19.77, 23.19, 0.000, 0.000, 0.000, 16:19:09.003
101, 8.98, 10.35, 6.56, 8.12, 0.000, 0.000, 0.000, 16:19:09.004
102, 17.96, 19.97, 0.60, 4.74, 0.000, 0.000, 0.000, 16:19:09.004
103, -5.81, -2.67, 27.21, 26.50, 0.000, 0.000, 0.000, 16:19:09.005
104, 5.32, 1.34, 9.04, 12.23, 0.000, 0.000, 0.000, 16:19:09.005
105, 22.27, 23.22, -3.69, -0.59, 0.000, 0.000, 0.000, 16:19:09.026
106, -2.19, -3.61, 19.28, 22.55, 0.000, 0.000, 0.000, 16:19:09.026
107, -1.40, 2.07, 17.35, 18.02, 0.000, 0.000, 0.000, 16:19:09.026
108, 19.18, 15.53, 5.04, 3.70, 0.000, 0.000, 0.000, 16:19:09.027
109, 5.80, 10.49, 12.37, 10.25, 0.000, 0.000, 0.000, 16:19:09.050
110, -8.53, -1.16, 21.59, 22.11, 0.000, 0.000, 0.000, 16:19:09.050
111, 9.67, 11.57, 7.55, 7.59, 0.000, 0.000, 0.000, 16:19:09.050
112, 18.06, 19.51, -0.53, 4.08, 0.000, 0.000, 0.000, 16:19:09.050
113, -7.02, -1.04, 24.95, 22.71, 0.000, 0.000, 0.000, 16:19:09.073
114, 9.38, 11.62, 13.50, 13.56, 0.000, 0.000, 0.000, 16:19:09.073
115, 16.28, 17.93, -0.11, 0.76, 0.000, 0.000, 0.000, 16:19:09.074
116, -1.48, 2.77, 17.16, 20.97, 0.000, 0.000, 0.000, 16:19:09.074
117, -1.42, -0.78, 16.83, 18.08, 0.000, 0.000, 0.000, 16:19:09.093
118, 17.71, 18.24, 0.45, 3.95, 0.000, 0.000, 0.000, 16:19:09.094
119, 7.02, 6.16, 11.19, 14.19, 0.000, 0.000, 0.000, 16:19:09.094
120, -2.54, -2.06, 19.17, 21.75, 0.000, 0.000, 0.000, 16:19:09.094
121, 11.65, 12.16, 5.78, 8.89, 0.000, 0.000, 0.000, 16:19:09.094
122, 15.36, 18.18, 1.92, 4.12, 0.000, 0.000, 0.000, 16:19:09.095
123, -4.04, -1.87, 23.27, 22.24, 0.000, 0.000, 0.000, 16:19:09.116
124, 0.74, 3.91, 13.00, 12.25, 0.000, 0.000, 0.000, 16:19:09.116
125, 16.39, 18.39, -2.08, -5.17, 0.000, 0.000, 0.000, 16:19:09.116
126, -4.37, -0.78, 20.95, 19.28, 0.000, 0.000, 0.000, 16:19:09.116
127, -2.70, 2.17, 17.84, 18.57, 0.000, 0.000, 0.000, 16:19:09.138
128, 15.06, 21.74, 2.89, 3.19, 0.000, 0.000, 0.000, 16:19:09.139
129, 8.20, 10.83, 6.16, 7.91, 0.000, 0.000, 0.000, 16:19:09.139
130, -6.39, -1.15, 23.32, 23.25, 0.000, 0.000, 0.000, 16:19:09.140
131, 10.27, 10.33, 9.12, 6.40, 0.000, 0.000, 0.000, 16:19:09.161
132, 23.53, 23.49, 2.71, 3.26, 0.000, 0.000, 0.000, 16:19:09.161
133, -9.34, -7.77, 25.58, 23.56, 0.000, 0.000, 0.000, 16:19:09.161
134, 9.02, 8.07, 10.68, 9.58, 0.000, 0.000, 0.000, 16:19:09.161
135, 18.29, 18.58, -1.28, -0.63, 0.000, 0.000, 0.000, 16:19:09.183
136, -0.60, 4.70, 18.11, 24.04, 0.000, 0.000, 0.000, 16:19:09.183
137, -2.35, 0.31, 21.75, 19.01, 0.000, 0.000, 0.000, 16:19:09.183
138, 16.32, 17.97, -0.83, 2.40, 0.000, 0.000, 0.000, 16:19:09.184
139, 4.50, 11.69, 9.81, 10.78, 0.000, 0.000, 0.000, 16:19:09.184
140, -4.52, -2.61, 22.44, 23.11, 0.000, 0.000, 0.000, 16:19:09.184
141, 9.45, 14.47, 1.17, 4.90, 0.000, 0.000, 0.000, 16:19:09.206
142, 14.19, 19.11, 0.77, 2.10, 0.000, 0.000, 0.000, 16:19:09.206
143, -4.57, -5.50, 21.86, 25.61, 0.000, 0.000, 0.000, 16:19:09.206
144, 3.77, 6.69, 10.27, 11.03, 0.000, 0.000, 0.000, 16:19:09.207
145, 23.14, 24.62, -1.19, -1.99, 0.000, 0.000, 0.000, 16:19:09.228
146, -5.88, 1.29, 18.81, 19.24, 0.000, 0.000, 0.000, 16:19:09.229
147, 0.75, 2.63, 17.26, 18.37, 0.000, 0.000, 0.000, 16:19:09.229
148, 21.70, 21.25, -1.02, -2.23, 0.000, 0.000, 0.000, 16:19:09.229
149, 9.06, 6.37, 7.29, 11.83, 0.000, 0.000, 0.000, 16:19:09.250
150, -1.97, -2.75, 19.57, 22.72, 0.000, 0.000, 0.000, 16:19:09.251
151, 7.57, 8.95, 4.39, 8.34, 0.000, 0.000, 0.000, 16:19:09.251
152, 16.57, 20.31, 3.27, -2.04, 0.000, 0.000, 0.000, 16:19:09.251
153, -8.52, -6.43, 25.61, 23.18, 0.000, 0.000, 0.000, 16:19:09.273
154, 5.21, 3.12, 12.98, 16.09, 0.000, 0.000, 0.000, 16:19:09.273
155, 24.40, 22.07, -3.09, -0.74, 0.000, 0.000, 0.000, 16:19:09.274
156, -3.43, 2.80, 18.86, 19.73, 0.000, 0.000, 0.000, 16:19:09.274
157, 0.67, 0.83, 19.70, 18.35, 0.000, 0.000, 0.000, 16:19:09.274
158, 19.94, 24.24, 1.41, -3.45, 0.000, 0.000, 0.000, 16:19:09.274
159, 9.34, 9.83, 11.82, 10.77, 0.000, 0.000, 0.000, 16:19:09.295
160, -7.64, -9.98, 23.77, 26.74, 0.000, 0.000, 0.000, 16:19:09.296
161, 11.32, 11.56, 6.76, 6.89, 0.000, 0.000, 0.000, 16:19:09.296
162, 16.47, 22.78, 0.53, 0.12, 0.000, 0.000, 0.000, 16:19:09.296
163, -9.82, -3.71, 26.95, 25.38, 0.000, 0.000, 0.000, 16:19:09.318
164, -1.64, 0.88, 13.47, 14.63, 0.000, 0.000, 0.000, 16:19:09.318
165, 20.21, 21.93, -4.53, -3.95, 0.000, 0.000, 0.000, 16:19:09.318
166, -1.87, 2.71, 16.70, 19.38, 0.000, 0.000, 0.000, 16:19:09.319
167, 1.54, 0.76, 20.46, 20.02, 0.000, 0.000, 0.000, 16:19:09.340
168, 26.55, 21.18, -4.44, 2.56, 0.000, 0.000, 0.000, 16:19:09.341
169, -0.29, 6.14, 11.36, 12.68, 0.000, 0.000, 0.000, 16:19:09.341
170, -7.64, -1.06, 22.49, 24.05, 0.000, 0.000, 0.000, 16:19:09.341
171, 12.01, 9.77, 5.93, 8.75, 0.000, 0.000, 0.000, 16:19:09.363
172, 19.72, 20.75, 1.20, -0.46, 0.000, 0.000, 0.000, 16:19:09.363
173, -9.57, -0.91, 25.96, 25.57, 0.000, 0.000, 0.000, 16:19:09.363
174, 4.41, 6.15, 8.63, 9.56, 0.000, 0.000, 0.000, 16:19:09.364
175, 22.07, 21.78, -2.53, -2.57, 0.000, 0.000, 0.000, 16:19:09.364
176, -1.01, -2.27, 19.43, 20.43, 0.000, 0.000, 0.000, 16:19:09.364
177, 1.44, 2.94, 18.61, 17.58, 0.000, 0.000, 0.000, 16:19:09.385
178, 16.21, 17.44, -1.04, -1.83, 0.000, 0.000, 0.000, 16:19:09.386
179, 7.50, 10.40, 10.88, 10.88, 0.000, 0.000, 0.000, 16:19:09.386
180, -6.16, -5.29, 23.16, 25.97, 0.000, 0.000, 0.000, 16:19:09.386
181, 11.30, 11.97, 6.37, 8.01, 0.000, 0.000, 0.000, 16:19:09.408
182, 16.08, 16.39, -3.78, -1.69, 0.000, 0.000, 0.000, 16:19:09.418
183, -5.37, -1.92, 27.40, 25.96, 0.000, 0.000, 0.000, 16:19:09.418
184, 6.53, 10.40, 11.44, 14.72, 0.000, 0.000, 0.000, 16:19:09.418
185, 19.23, 21.15, -1.01, -8.43, 0.000, 0.000, 0.000, 16:19:09.430
186, 1.92, 6.48, 17.51, 23.25, 0.000, 0.000, 0.000, 16:19:09.431
187, -7.94, -2.83, 18.01, 19.62, 0.000, 0.000, 0.000, 16:19:09.431
188, 21.29, 18.51, 1.94, -0.40, 0.000, 0.000, 0.000, 16:19:09.431
189, 7.31, 13.68, 11.98, 9.98, 0.000, 0.000, 0.000, 16:19:09.453
190, -2.00, -3.56, 24.90, 29.88, 0.000, 0.000, 0.000, 16:19:09.454
191, 11.52, 9.28, 6.33, 7.58, 0.000, 0.000, 0.000, 16:19:09.454
192, 15.23, 20.60, 1.15, -0.84, 0.000, 0.000, 0.000, 16:19:09.454
193, -11.61, -5.52, 22.02, 29.76, 0.000, 0.000, 0.000, 16:19:09.455
194, 4.43, 7.23, 10.53, 13.54, 0.000, 0.000, 0.000, 16:19:09.455
195, 26.53, 23.07, -1.12, -6.09, 0.000, 0.000, 0.000, 16:19:09.475
196, -8.89, -1.14, 19.05, 19.91, 0.000, 0.000, 0.000, 16:19:09.476
197, -2.27, -0.82, 19.51, 23.09, 0.000, 0.000, 0.000, 16:19:09.476
198, 21.06, 21.48, -1.33, -2.65, 0.000, 0.000, 0.000, 16:19:09.476
199, 11.56, 5.23, 4.20, 4.01, 0.000, 0.000, 0.000, 16:19:09.498
200, -5.63, -2.50, 23.15, 28.73, 0.000, 0.000, 0.000, 16:19:09.498
0, 10.24, 13.26, 8.23, 5.88, 0.000, 0.000, 0.000, 16:19:09.498
1, 17.62, 21.24, -1.23, -3.08, 0.000, 0.000, 0.000, 16:19:09.499
2, -8.45, 2.08, 26.21, 25.83, 0.000, 0.000, 0.000, 16:19:09.499
3, 9.53, 6.56, 15.00, 17.91, 0.000, 0.000, 0.000, 16:19:09.521
4, 20.28, 17.20, -3.46, -8.42, 0.000, 0.000, 0.000, 16:19:09.521
5, -4.61, 0.25, 17.24, 20.29, 0.000, 0.000, 0.000, 16:19:09.521
6, -1.14, -0.50, 15.13, 18.74, 0.000, 0.000, 0.000, 16:19:09.521
7, 18.35, 19.75, 1.31, -2.32, 0.000, 0.000, 0.000, 16:19:09.543
8, 7.59, 9.91, 11.75, 14.79, 0.000, 0.000, 0.000, 16:19:09.543
9, -6.00, -0.27, 21.44, 25.48, 0.000, 0.000, 0.000, 16:19:09.544
10, 14.10, 11.86, 5.81, 8.73, 0.000, 0.000, 0.000, 16:19:09.544
11, 19.35, 19.14, -0.81, -1.76, 0.000, 0.000, 0.000, 16:19:09.565
12, 1.97, 1.17, 22.84, 30.51, 0.000, 0.000, 0.000, 16:19:09.566
13, -1.90, 2.57, 14.52, 15.00, 0.000, 0.000, 0.000, 16:19:09.566
14, 16.80, 20.07, -4.86, -3.74, 0.000, 0.000, 0.000, 16:19:09.566
15, -2.72, -3.30, 20.95, 20.03, 0.000, 0.000, 0.000, 16:19:09.588
16, -0.24, 0.64, 19.16, 24.89, 0.000, 0.000, 0.000, 16:19:09.588
17, 17.41, 16.64, 0.28, -0.24, 0.000, 0.000, 0.000, 16:19:09.589
18, 7.49, 10.19, 5.40, 7.07, 0.000, 0.000, 0.000, 16:19:09.589
19, -8.90, -2.69, 25.80, 27.55, 0.000, 0.000, 0.000, 16:19:09.589
20, 9.62, 10.54, 7.00, 6.82, 0.000, 0.000, 0.000, 16:19:09.589
21, 23.99, 21.09, -2.52, -5.20, 0.000, 0.000, 0.000, 16:19:09.611
22, -7.92, -7.16, 25.24, 30.19, 0.000, 0.000, 0.000, 16:19:09.611
23, 5.98, 8.81, 13.98, 13.10, 0.000, 0.000, 0.000, 16:19:09.612
24, 17.37, 18.93, -4.20, -6.32, 0.000, 0.000, 0.000, 16:19:09.612
25, -0.88, 6.38, 14.91, 22.53, 0.000, 0.000, 0.000, 16:19:09.633
26, -4.18, 0.05, 20.39, 21.99, 0.000, 0.000, 0.000, 16:19:09.633
27, 19.23, 19.01, -3.01, 0.96, 0.000, 0.000, 0.000, 16:19:09.634
28, 6.87, 8.98, 11.48, 11.08, 0.000, 0.000, 0.000, 16:19:09.634
29, -7.58, 0.35, 25.39, 29.65, 0.000, 0.000, 0.000, 16:19:09.656
30, 17.11, 19.58, 5.67, 6.11, 0.000, 0.000, 0.000, 16:19:09.656
31, 14.56, 11.17, 1.41, -2.70, 0.000, 0.000, 0.000, 16:19:09.656
32, -3.12, -4.14, 23.85, 27.52, 0.000, 0.000, 0.000, 16:19:09.656
33, 6.88, 9.16, 15.21, 12.68, 0.000, 0.000, 0.000, 16:19:09.679
34, 22.94, 25.97, -5.57, -7.36, 0.000, 0.000, 0.000, 16:19:09.679
35, -3.34, -1.38, 16.98, 23.08, 0.000, 0.000, 0.000, 16:19:09.679
36, -2.67, -0.25, 18.38, 22.16, 0.000, 0.000, 0.000, 16:19:09.680
37, 16.17, 16.95, -0.91, -2.67, 0.000, 0.000, 0.000, 16:19:09.680
38, 6.35, 13.88, 5.28, 8.89, 0.000, 0.000, 0.000, 16:19:09.680
39, -3.09, 1.65, 26.24, 25.94, 0.000, 0.000, 0.000, 16:19:09.701
40, 5.85, 9.29, 7.73, 7.43, 0.000, 0.000, 0.000, 16:19:09.701
41, 19.44, 16.24, -2.35, -0.32, 0.000, 0.000, 0.000, 16:19:09.701
42, -6.73, -1.77, 26.25, 27.55, 0.000, 0.000, 0.000, 16:19:09.702
43, 3.91, 3.71, 14.13, 12.09, 0.000, 0.000, 0.000, 16:19:09.723
44, 17.36, 23.50, -6.67, -7.92, 0.000, 0.000, 0.000, 16:19:09.723
45, -0.02, 4.52, 19.75, 19.69, 0.000, 0.000, 0.000, 16:19:09.723
46, -0.68, 1.99, 18.99, 19.92, 0.000, 0.000, 0.000, 16:19:09.724
47, 16.55, 18.88, -5.51, -1.38, 0.000, 0.000, 0.000, 16:19:09.746
48, 9.71, 13.76, 11.52, 4.59, 0.000, 0.000, 0.000, 16:19:09.746
49, -10.99, -10.31, 26.60, 28.45, 0.000, 0.000, 0.000, 16:19:09.746
50, 10.25, 13.00, 4.98, 6.18, 0.000, 0.000, 0.000, 16:19:09.746
51, 18.70, 14.84, -0.69, -6.34, 0.000, 0.000, 0.000, 16:19:09.768
52, -8.96, -3.03, 25.67, 25.62, 0.000, 0.000, 0.000, 16:19:09.768
53, 1.50, 5.11, 14.91, 13.53, 0.000, 0.000, 0.000, 16:19:09.769
54, 21.75, 23.03, -4.47, -7.24, 0.000, 0.000, 0.000, 16:19:09.769
55, -1.02, 0.73, 18.70, 25.94, 0.000, 0.000, 0.000, 16:19:09.769
56, -1.38, 2.92, 22.61, 24.05, 0.000, 0.000, 0.000, 16:19:09.769
57, 20.12, 15.77, 0.03, 1.84, 0.000, 0.000, 0.000, 16:19:09.790
58, 7.23, 7.00, 8.71, 14.22, 0.000, 0.000, 0.000, 16:19:09.791
59, -5.86, -5.09, 22.35, 26.94, 0.000, 0.000, 0.000, 16:19:09.791
60, 7.70, 11.20, 4.83, 8.12, 0.000, 0.000, 0.000, 16:19:09.791
61, 20.18, 22.50, 1.13, 0.46, 0.000, 0.000, 0.000, 16:19:09.813
62, -5.95, -3.40, 25.46, 26.51, 0.000, 0.000, 0.000, 16:19:09.813
63, 4.59, 7.87, 14.39, 15.27, 0.000, 0.000, 0.000, 16:19:09.813
64, 23.22, 23.15, -5.74, -5.21, 0.000, 0.000, 0.000, 16:19:09.814
65, -1.82, -0.83, 17.32, 19.50, 0.000, 0.000, 0.000, 16:19:09.836
66, 4.81, 4.60, 20.05, 21.85, 0.000, 0.000, 0.000, 16:19:09.836
67, 10.36, 15.69, -1.29, 1.65, 0.000, 0.000, 0.000, 16:19:09.836
68, 6.27, 10.99, 9.62, 8.89, 0.000, 0.000, 0.000, 16:19:09.836
69, -7.80, -6.95, 25.43, 27.04, 0.000, 0.000, 0.000, 16:19:09.858
70, 10.92, 13.08, 6.09, 8.26, 0.000, 0.000, 0.000, 16:19:09.859
71, 18.60, 16.90, -3.94, 2.52, 0.000, 0.000, 0.000, 16:19:09.859
72, -4.50, -2.16, 28.29, 27.50, 0.000, 0.000, 0.000, 16:19:09.859
73, 5.17, 9.12, 13.80, 15.95, 0.000, 0.000, 0.000, 16:19:09.862
74, 18.59, 18.56, -5.36, -4.30, 0.000, 0.000, 0.000, 16:19:09.863
75, 2.67, 0.55, 19.71, 17.05, 0.000, 0.000, 0.000, 16:19:09.881
76, -2.69, -1.35, 17.29, 20.96, 0.000, 0.000, 0.000, 16:19:09.882
77, 17.55, 19.46, 2.62, -2.14, 0.000, 0.000, 0.000, 16:19:09.882
78, 7.75, 9.74, 7.33, 7.37, 0.000, 0.000, 0.000, 16:19:09.882
79, 0.01, 0.82, 27.02, 25.73, 0.000, 0.000, 0.000, 16:19:09.903
80, 9.05, 13.55, 4.03, 7.88, 0.000, 0.000, 0.000, 16:19:09.903
81, 18.11, 19.83, -2.42, -4.53, 0.000, 0.000, 0.000, 16:19:09.904
82, -7.05, -2.77, 28.06, 29.84, 0.000, 0.000, 0.000, 16:19:09.904
83, 2.74, 7.18, 12.59, 12.66, 0.000, 0.000, 0.000, 16:19:09.926
84, 24.81, 29.31, -4.12, -4.99, 0.000, 0.000, 0.000, 16:19:09.926
85, -8.77, -4.43, 16.38, 21.23, 0.000, 0.000, 0.000, 16:19:09.926
86, -1.38, 2.73, 21.40, 22.47, 0.000, 0.000, 0.000, 16:19:09.926
87, 18.69, 19.43, -0.62, 0.60, 0.000, 0.000, 0.000, 16:19:09.948
88, 13.47, 10.11, 9.16, 8.87, 0.000, 0.000, 0.000, 16:19:09.948
89, -6.19, -1.46, 26.90, 29.77, 0.000, 0.000, 0.000, 16:19:09.948
90, 10.59, 17.78, 6.22, 10.67, 0.000, 0.000, 0.000, 16:19:09.948
91, 15.81, 17.50, -2.50, -5.46, 0.000, 0.000, 0.000, 16:19:09.949
92, -7.98, -8.59, 28.38, 28.71, 0.000, 0.000, 0.000, 16:19:09.949
93, 6.63, 7.43, 14.33, 16.12, 0.000, 0.000, 0.000, 16:19:09.970
94, 23.17, 24.19, -4.69, -4.15, 0.000, 0.000, 0.000, 16:19:09.971
95, -4.40, -0.45, 19.93, 23.00, 0.000, 0.000, 0.000, 16:19:09.971
96, -5.25, -5.37, 19.77, 23.15, 0.000, 0.000, 0.000, 16:19:09.971
97, 16.40, 17.89, -1.75, -4.92, 0.000, 0.000, 0.000, 16:19:09.993
98, 6.22, 10.69, 6.64, 9.87, 0.000, 0.000, 0.000, 16:19:09.993
99, -7.91, -4.85, 21.69, 26.75, 0.000, 0.000, 0.000, 16:19:09.994
100, 9.10, 8.04, 5.42, 7.82, 0.000, 0.000, 0.000, 16:19:09.994
101, 20.29, 19.80, -1.49, -6.22, 0.000, 0.000, 0.000, 16:19:10.016
102, -3.05, -1.00, 26.66, 28.35, 0.000, 0.000, 0.000, 16:19:10.016
103, 0.82, 0.16, 15.39, 17.49, 0.000, 0.000, 0.000, 16:19:10.016
104, 19.74, 19.89, -5.88, -6.14, 0.000, 0.000, 0.000, 16:19:10.016
105, -0.30, 5.04, 18.75, 19.23, 0.000, 0.000, 0.000, 16:19:10.039
106, -2.33, 3.11, 22.34, 21.91, 0.000, 0.000, 0.000, 16:19:10.039
107, 15.66, 17.19, 0.68, 3.29, 0.000, 0.000, 0.000, 16:19:10.039
108, 8.58, 9.79, 8.20, 11.05, 0.000, 0.000, 0.000, 16:19:10.039
109, -8.39, -1.01, 25.82, 29.04, 0.000, 0.000, 0.000, 16:19:10.040
110, 12.52, 9.45, 7.09, 4.25, 0.000, 0.000, 0.000, 16:19:10.040
111, 23.09, 17.48, -6.16, -6.20, 0.000, 0.000, 0.000, 16:19:10.061
112, -9.59, -9.13, 27.30, 27.42, 0.000, 0.000, 0.000, 16:19:10.061
113, 5.92, 6.43, 14.70, 18.48, 0.000, 0.000, 0.000, 16:19:10.061
114, 27.61, 21.42, -6.90, -7.12, 0.000, 0.000, 0.000, 16:19:10.061
115, -0.82, 3.87, 16.49, 18.45, 0.000, 0.000, 0.000, 16:19:10.083
116, -3.06, -1.13, 18.81, 21.70, 0.000, 0.000, 0.000, 16:19:10.083
117, 15.86, 19.29, -5.73, -2.62, 0.000, 0.000, 0.000, 16:19:10.083
118, 9.75, 8.78, 6.58, 8.40, 0.000, 0.000, 0.000, 16:19:10.084
119, -2.90, -1.86, 25.57, 28.23, 0.000, 0.000, 0.000, 16:19:10.106
120, 12.98, 12.90, 6.88, 9.70, 0.000, 0.000, 0.000, 16:19:10.106
121, 11.76, 16.91, -1.92, -2.94, 0.000, 0.000, 0.000, 16:19:10.106
122, -7.90, -1.23, 26.32, 31.17, 0.000, 0.000, 0.000, 16:19:10.106
123, 3.41, 6.40, 14.08, 17.72, 0.000, 0.000, 0.000, 16:19:10.128
124, 19.34, 28.78, -1.00, -6.70, 0.000, 0.000, 0.000, 16:19:10.129
125, -2.21, 0.13, 17.41, 20.96, 0.000, 0.000, 0.000, 16:19:10.129
126, 0.68, -1.16, 18.60, 26.85, 0.000, 0.000, 0.000, 16:19:10.129
127, 18.09, 15.99, 0.11, -5.05, 0.000, 0.000, 0.000, 16:19:10.130
128, 7.71, 12.45, 9.10, 7.16, 0.000, 0.000, 0.000, 16:19:10.130
129, -5.91, 2.45, 28.48, 30.30, 0.000, 0.000, 0.000, 16:19:10.150
130, 5.30, 9.12, 6.43, 4.35, 0.000, 0.000, 0.000, 16:19:10.151
131, 16.28, 21.18, -3.79, -7.87, 0.000, 0.000, 0.000, 16:19:10.151
132, -10.34, -7.03, 28.16, 30.43, 0.000, 0.000, 0.000, 16:19:10.151
133, 2.37, 5.41, 14.25, 14.98, 0.000, 0.000, 0.000, 16:19:10.173
134, 22.01, 17.43, -7.93, -9.79, 0.000, 0.000, 0.000, 16:19:10.173
135, -0.84, 1.53, 18.34, 22.97, 0.000, 0.000, 0.000, 16:19:10.174
136, 0.69, 3.11, 20.91, 24.74, 0.000, 0.000, 0.000, 16:19:10.174
137, 21.49, 14.69, -3.25, -3.61, 0.000, 0.000, 0.000, 16:19:10.196
138, 13.58, 13.15, 5.81, 0.67, 0.000, 0.000, 0.000, 16:19:10.196
139, -9.45, -4.05, 29.12, 32.21, 0.000, 0.000, 0.000, 16:19:10.196
140, 6.60, 11.10, 8.06, 6.83, 0.000, 0.000, 0.000, 16:19:10.196
141, 16.04, 18.22, -4.48, -8.99, 0.000, 0.000, 0.000, 16:19:10.218
142, -6.07, -1.06, 27.87, 32.11, 0.000, 0.000, 0.000, 16:19:10.219
143, 0.09, 5.63, 11.75, 16.12, 0.000, 0.000, 0.000, 16:19:10.219
144, 18.08, 17.62, -2.84, -12.97, 0.000, 0.000, 0.000, 16:19:10.219
145, -0.01, 6.80, 18.41, 22.49, 0.000, 0.000, 0.000, 16:19:10.219
146, 1.07, 1.72, 21.63, 23.85, 0.000, 0.000, 0.000, 16:19:10.220
147, 18.36, 16.99, -1.40, -0.70, 0.000, 0.000, 0.000, 16:19:10.241
148, 10.92, 9.09, 6.29, 5.54, 0.000, 0.000, 0.000, 16:19:10.241
149, -6.07, -1.47, 21.16, 30.08, 0.000, 0.000, 0.000, 16:19:10.241
150, 9.74, 11.53, 8.08, 7.89, 0.000, 0.000, 0.000, 16:19:10.241
151, 11.82, 9.80, 8.43, -7.66, 0.000, 0.000, 0.000, 16:19:10.263
152, -393.95, 385.73, 10.10, 26.91, 0.000, 0.000, 0.000, 16:19:10.263
153, -731.20, 523.24, -10.20, -6.97, 0.000, 0.000, 0.000, 16:19:10.264
154, -1604.48, -372.23, -72.39, -89.59, 0.000, 0.000, 0.000, 16:19:10.264
155, -1305.63, -366.93, -30.88, -35.33, 0.000, 0.000, 0.000, 16:19:10.286
156, -1026.39, 224.60, -9.89, -10.47, 0.000, 0.000, 0.000, 16:19:10.286
157, -1862.60, 106.80, 0.64, 2.98, 0.000, 0.000, 0.000, 16:19:10.286
158, -1252.97, -328.83, -47.95, -52.09, 0.000, 0.000, 0.000, 16:19:10.286
159, -930.68, 492.97, 4.51, 9.08, 0.000, 0.000, 0.000, 16:19:10.308
160, -1775.84, -91.57, 32.09, 35.72, 0.000, 0.000, 0.000, 16:19:10.308
161, -2029.72, -222.29, 44.43, 41.35, 0.000, 0.000, 0.000, 16:19:10.309
162, -1292.20, 73.85, 21.09, 28.04, 0.000, 0.000, 0.000, 16:19:10.310
163, -472.84, 188.31, 18.22, 25.31, 0.000, 0.000, 0.000, 16:19:10.310
164, 274.40, -32.05, 36.76, 34.56, 0.000, 0.000, 0.000, 16:19:10.310
165, 18.21, -16.96, 18.37, 22.23, 0.000, 0.000, 0.000, 16:19:10.331
166, -2.37, 251.15, 14.40, 20.73, 0.000, 0.000, 0.000, 16:19:10.331
167, 355.16, 121.08, 28.72, 25.29, 0.000, 0.000, 0.000, 16:19:10.332
168, 811.06, -334.28, 27.10, 28.67, 0.000, 0.000, 0.000, 16:19:10.332
169, 97.70, -142.65, 13.35, 15.84, 0.000, 0.000, 0.000, 16:19:10.353
170, 908.81, -321.31, 24.29, 26.52, 0.000, 0.000, 0.000, 16:19:10.353
171, 1172.22, -872.70, 33.25, 30.44, 0.000, 0.000, 0.000, 16:19:10.354
172, 672.76, -816.02, 7.17, 14.77, 0.000, 0.000, 0.000, 16:19:10.354
173, 273.69, -147.30, 12.31, 18.57, 0.000, 0.000, 0.000, 16:19:10.376
174, 734.86, -508.20, 30.12, 27.54, 0.000, 0.000, 0.000, 16:19:10.376
175, 388.33, -192.61, 13.69, 15.70, 0.000, 0.000, 0.000, 16:19:10.376
176, -328.13, 548.21, 10.56, 10.50, 0.000, 0.000, 0.000, 16:19:10.377
177, -44.09, 252.78, 23.78, 25.57, 0.000, 0.000, 0.000, 16:19:10.398
178, 589.25, -557.56, 17.54, 17.54, 0.000, 0.000, 0.000, 16:19:10.398
179, -99.49, -380.11, 8.43, 9.18, 0.000, 0.000, 0.000, 16:19:10.399
180, 233.62, -804.83, 16.20, 19.53, 0.000, 0.000, 0.000, 16:19:10.399
181, 489.87, -1160.86, 24.05, 22.63, 0.000, 0.000, 0.000, 16:19:10.400
182, -190.13, -441.82, 0.98, 9.62, 0.000, 0.000, 0.000, 16:19:10.400
183, -620.17, -269.00, 10.51, 10.75, 0.000, 0.000, 0.000, 16:19:10.421
184, -186.57, -916.14, 21.52, 24.20, 0.000, 0.000, 0.000, 16:19:10.421
185, -773.19, -812.69, 10.39, 9.71, 0.000, 0.000, 0.000, 16:19:10.421
186, -1452.21, -24.88, 1.99, 3.42, 0.000, 0.000, 0.000, 16:19:10.421
187, -1292.82, -66.80, 24.67, 20.03, 0.000, 0.000, 0.000, 16:19:10.443
188, -927.30, -798.83, 17.01, 22.76, 0.000, 0.000, 0.000, 16:19:10.443
189, -1847.02, -430.63, 0.68, 3.96, 0.000, 0.000, 0.000, 16:19:10.444
190, -1559.09, -672.09, 15.25, 9.61, 0.000, 0.000, 0.000, 16:19:10.444
191, -1248.61, -1107.99, 24.82, 26.48, 0.000, 0.000, 0.000, 16:19:10.465
192, -1661.14, -190.39, -0.30, 5.17, 0.000, 0.000, 0.000, 16:19:10.466
193, -1923.36, 137.40, 3.07, 10.16, 0.000, 0.000, 0.000, 16:19:10.466
194, -1648.28, -288.77, 26.15, 22.98, 0.000, 0.000, 0.000, 16:19:10.466
195, -1679.70, -80.11, 8.35, 12.06, 0.000, 0.000, 0.000, 16:19:10.488
196, -1745.34, 143.53, 4.34, 5.26, 0.000, 0.000, 0.000, 16:19:10.488
197, -2502.87, -703.56, -25.34, -27.99, 0.000, 0.000, 0.000, 16:19:10.489
198, -1798.12, -88.26, -69.74, -77.31, 0.000, 0.000, 0.000, 16:19:10.489
199, -1501.78, 802.52, 25.83, 39.35, 0.000, 0.000, 0.000, 16:19:10.489
200, -1534.04, 1204.24, 21.35, 16.14, 0.000, 0.000, 0.000, 16:19:10.490
0, 396.94, -2418.67, 13.18, 0.93, 0.000, 0.000, 0.000, 16:19:10.511
1, 322.98, -2192.80, 30.99, 35.02, 0.000, 0.000, 0.000, 16:19:10.512
2, 302.12, -1952.49, 23.20, 23.42, 0.000, 0.000, 0.000, 16:19:10.512
3, 292.76, -1732.99, -3.50, -2.32, 0.000, 0.000, 0.000, 16:19:10.533
4, 241.89, -1572.42, 19.25, 31.03, 0.000, 0.000, 0.000, 16:19:10.534
5, 212.05, -1412.59, 27.55, 32.46, 0.000, 0.000, 0.000, 16:19:10.538
6, 214.15, -1247.19, 8.70, 6.08, 0.000, 0.000, 0.000, 16:19:10.538
7, 185.91, -1125.27, 9.19, 12.04, 0.000, 0.000, 0.000, 16:19:10.539
8, 148.81, -1024.12, 32.22, 33.66, 0.000, 0.000, 0.000, 16:19:10.539
9, 152.65, -900.45, 13.73, 12.43, 0.000, 0.000, 0.000, 16:19:10.556
10, 148.18, -805.40, 0.82, -0.45, 0.000, 0.000, 0.000, 16:19:10.556
11, 105.74, -743.33, 31.76, 30.74, 0.000, 0.000, 0.000, 16:19:10.557
12, 106.79, -657.72, 18.25, 19.56, 0.000, 0.000, 0.000, 16:19:10.557
13, 112.77, -572.17, -2.43, -6.24, 0.000, 0.000, 0.000, 16:19:10.579
14, 78.24, -537.19, 19.16, 23.57, 0.000, 0.000, 0.000, 16:19:10.580
15, 72.71, -484.56, 24.26, 27.30, 0.000, 0.000, 0.000, 16:19:10.580
16, 85.59, -416.04, 0.79, -0.99, 0.000, 0.000, 0.000, 16:19:10.580
17, 69.66, -376.28, 7.61, 9.04, 0.000, 0.000, 0.000, 16:19:10.601
18, 53.41, -347.89, 24.36, 30.33, 0.000, 0.000, 0.000, 16:19:10.602
19, 56.87, -308.47, 8.20, 8.73, 0.000, 0.000, 0.000, 16:19:10.602
20, 70.50, -265.26, -1.94, -4.22, 0.000, 0.000, 0.000, 16:19:10.602
21, 31.50, -260.24, 25.18, 24.89, 0.000, 0.000, 0.000, 16:19:10.623
22, 37.78, -222.61, 12.94, 15.11, 0.000, 0.000, 0.000, 16:19:10.623
23, 55.73, -186.99, -2.24, 1.29, 0.000, 0.000, 0.000, 16:19:10.624
24, 29.39, -184.44, 19.34, 18.72, 0.000, 0.000, 0.000, 16:19:10.624
25, 20.36, -173.37, 20.14, 25.09, 0.000, 0.000, 0.000, 16:19:10.624
26, 40.53, -137.43, 3.14, 1.15, 0.000, 0.000, 0.000, 16:19:10.625
27, 35.24, -126.10, 10.78, 8.49, 0.000, 0.000, 0.000, 16:19:10.646
28, 9.97, -134.56, 24.80, 23.73, 0.000, 0.000, 0.000, 16:19:10.646
29, 27.46, -99.69, 8.16, 9.15, 0.000, 0.000, 0.000, 16:19:10.647
30, 32.38, -83.33, 1.62, 1.28, 0.000, 0.000, 0.000, 16:19:10.647
31, 9.68, -98.40, 26.90, 30.23, 0.000, 0.000, 0.000, 16:19:10.668
32, 13.50, -81.87, 15.31, 17.91, 0.000, 0.000, 0.000, 16:19:10.668
33, 34.98, -56.49, -3.93, -4.94, 0.000, 0.000, 0.000, 16:19:10.669
34, 15.27, -66.56, 14.52, 17.86, 0.000, 0.000, 0.000, 16:19:10.669
35, 6.85, -60.95, 17.17, 24.07, 0.000, 0.000, 0.000, 16:19:10.691
36, 30.44, -32.26, 3.31, 1.06, 0.000, 0.000, 0.000, 16:19:10.691
37, 13.12, -42.09, 4.97, 7.50, 0.000, 0.000, 0.000, 16:19:10.691
38, -0.14, -51.81, 22.36, 24.77, 0.000, 0.000, 0.000, 16:19:10.692
39, 19.64, -34.29, 11.73, 7.39, 0.000, 0.000, 0.000, 16:19:10.713
40, 26.13, -22.12, 0.87, -0.93, 0.000, 0.000, 0.000, 16:19:10.713
41, -2.98, -42.96, 25.23, 24.40, 0.000, 0.000, 0.000, 16:19:10.714
42, 7.69, -29.31, 14.10, 17.70, 0.000, 0.000, 0.000, 16:19:10.714
43, 28.08, -5.91, 0.01, -2.34, 0.000, 0.000, 0.000, 16:19:10.714
44, 5.37, -24.67, 14.05, 16.31, 0.000, 0.000, 0.000, 16:19:10.714
45, 3.64, -24.09, 20.92, 21.32, 0.000, 0.000, 0.000, 16:19:10.735
46, 19.06, -9.92, -0.23, 3.95, 0.000, 0.000, 0.000, 16:19:10.736
47, 11.18, -7.78, 6.66, 7.44, 0.000, 0.000, 0.000, 16:19:10.736
48, -5.23, -26.01, 23.79, 22.31, 0.000, 0.000, 0.000, 16:19:10.736
49, 10.66, -8.10, 14.14, 8.46, 0.000, 0.000, 0.000, 16:19:10.758
50, 26.32, 4.16, 5.37, 0.00, 0.000, 0.000, 0.000, 16:19:10.758
51, 0.54, -19.97, 23.72, 25.22, 0.000, 0.000, 0.000, 16:19:10.759
52, 5.56, -6.89, 10.44, 14.28, 0.000, 0.000, 0.000, 16:19:10.759
53, 23.09, 3.96, -3.26, -5.46, 0.000, 0.000, 0.000, 16:19:10.780
54, 8.58, -8.80, 17.23, 16.64, 0.000, 0.000, 0.000, 16:19:10.781
55, -9.30, -15.83, 21.82, 22.35, 0.000, 0.000, 0.000, 16:19:10.781
56, 19.08, 6.31, -0.54, 4.11, 0.000, 0.000, 0.000, 16:19:10.781
57, 12.45, 3.82, 7.46, 9.24, 0.000, 0.000, 0.000, 16:19:10.803
58, -3.20, -10.98, 20.65, 26.08, 0.000, 0.000, 0.000, 16:19:10.803
59, 9.47, 0.14, 8.08, 7.94, 0.000, 0.000, 0.000, 16:19:10.803
60, 20.42, 10.62, -1.01, 1.11, 0.000, 0.000, 0.000, 16:19:10.804
61, -2.11, -12.42, 20.32, 29.26, 0.000, 0.000, 0.000, 16:19:10.804
62, 2.98, -2.50, 13.46, 13.93, 0.000, 0.000, 0.000, 16:19:10.805
63, 26.52, 18.10, -4.84, -2.07, 0.000, 0.000, 0.000, 16:19:10.825
64, -1.06, -5.79, 19.67, 19.24, 0.000, 0.000, 0.000, 16:19:10.826
65, -1.25, -7.19, 15.60, 16.61, 0.000, 0.000, 0.000, 16:19:10.826
66, 15.54, 11.56, 0.05, 1.67, 0.000, 0.000, 0.000, 16:19:10.826
67, 11.36, 3.62, 5.44, 7.06, 0.000, 0.000, 0.000, 16:19:10.848
68, -5.07, -9.54, 18.70, 24.22, 0.000, 0.000, 0.000, 16:19:10.849
69, 11.56, 6.01, 8.44, 9.82, 0.000, 0.000, 0.000, 16:19:10.849
70, 18.57, 15.04, -0.61, -0.91, 0.000, 0.000, 0.000, 16:19:10.849
71, -1.07, -7.51, 24.91, 25.05, 0.000, 0.000, 0.000, 16:19:10.870
72, 7.41, -1.02, 12.14, 15.31, 0.000, 0.000, 0.000, 16:19:10.871
73, 16.43, 11.46, -1.70, -2.16, 0.000, 0.000, 0.000, 16:19:10.871
74, 1.24, -2.08, 14.05, 16.56, 0.000, 0.000, 0.000, 16:19:10.871
75, 2.20, -6.70, 18.54, 18.53, 0.000, 0.000, 0.000, 16:19:10.893
76, 16.70, 12.24, 2.55, 1.19, 0.000, 0.000, 0.000, 16:19:10.893
77, 8.83, 5.72, 7.51, 8.88, 0.000, 0.000, 0.000, 16:19:10.894
78, -5.16, -6.77, 23.23, 25.05, 0.000, 0.000, 0.000, 16:19:10.894
79, 7.81, 6.28, 10.46, 11.46, 0.000, 0.000, 0.000, 16:19:10.894
80, 23.81, 12.64, -1.90, -2.43, 0.000, 0.000, 0.000, 16:19:10.894
81, -0.49, -4.33, 22.29, 27.42, 0.000, 0.000, 0.000, 16:19:10.915
82, 1.62, 2.38, 12.11, 15.95, 0.000, 0.000, 0.000, 16:19:10.916
83, 20.37, 18.72, 1.24, -0.92, 0.000, 0.000, 0.000, 16:19:10.916
84, -0.09, -1.54, 15.54, 19.67, 0.000, 0.000, 0.000, 16:19:10.916
85, -1.17, -3.25, 18.73, 21.30, 0.000, 0.000, 0.000, 16:19:10.938
86, 18.02, 16.02, 4.01, 1.50, 0.000, 0.000, 0.000, 16:19:10.938
87, 12.15, 10.62, 10.14, 5.05, 0.000, 0.000, 0.000, 16:19:10.960
88, -7.16, -5.30, 25.03, 25.69, 0.000, 0.000, 0.000, 16:19:10.961
89, 10.32, 9.45, 7.41, 11.12, 0.000, 0.000, 0.000, 16:19:10.961
90, 21.14, 15.43, -0.98, -2.61, 0.000, 0.000, 0.000, 16:19:10.961
91, -4.37, -4.85, 21.83, 23.79, 0.000, 0.000, 0.000, 16:19:10.962
92, 3.09, 3.09, 13.74, 16.40, 0.000, 0.000, 0.000, 16:19:10.962
93, 18.11, 17.59, -5.58, -2.85, 0.000, 0.000, 0.000, 16:19:10.983
94, 1.15, -0.55, 13.80, 18.77, 0.000, 0.000, 0.000, 16:19:10.983
95, -3.86, -7.19, 19.69, 23.87, 0.000, 0.000, 0.000, 16:19:10.984
96, 14.94, 12.70, 1.88, 5.00, 0.000, 0.000, 0.000, 16:19:10.984
97, 9.94, 10.27, 8.69, 6.92, 0.000, 0.000, 0.000, 16:19:10.984
98, -3.01, -5.83, 22.34, 21.92, 0.000, 0.000, 0.000, 16:19:10.984
99, 11.01, 12.79, 9.48, 8.19, 0.000, 0.000, 0.000, 16:19:11.005
100, 18.66, 16.96, 4.69, 0.24, 0.000, 0.000, 0.000, 16:19:11.006
101, -5.84, -3.74, 18.64, 23.39, 0.000, 0.000, 0.000, 16:19:11.006
102, 2.60, 9.99, 17.49, 14.66, 0.000, 0.000, 0.000, 16:19:11.006
103, 19.02, 17.56, -0.55, -1.43, 0.000, 0.000, 0.000, 16:19:11.028
104, -2.11, 3.28, 18.55, 14.57, 0.000, 0.000, 0.000, 16:19:11.028
105, -3.81, 0.62, 20.93, 24.09, 0.000, 0.000, 0.000, 16:19:11.029
106, 17.03, 13.88, 4.12, 5.89, 0.000, 0.000, 0.000, 16:19:11.029
107, 10.39, 8.74, 4.26, 9.44, 0.000, 0.000, 0.000, 16:19:11.051
108, -1.63, -2.05, 22.55, 20.67, 0.000, 0.000, 0.000, 16:19:11.051
109, 6.11, 5.50, 7.91, 8.19, 0.000, 0.000, 0.000, 16:19:11.051
110, 18.99, 13.42, 1.49, -0.59, 0.000, 0.000, 0.000, 16:19:11.051
111, -5.33, -7.27, 19.15, 23.56, 0.000, 0.000, 0.000, 16:19:11.073
112, 5.75, 4.83, 15.01, 14.16, 0.000, 0.000, 0.000, 16:19:11.073
113, 21.26, 16.11, -0.16, -1.27, 0.000, 0.000, 0.000, 16:19:11.073
114, 4.01, 1.71, 17.42, 18.19, 0.000, 0.000, 0.000, 16:19:11.074
115, -0.58, -3.63, 19.13, 18.33, 0.000, 0.000, 0.000, 16:19:11.074
116, 18.66, 14.60, 4.94, 3.84, 0.000, 0.000, 0.000, 16:19:11.074
117, 13.54, 15.51, 9.27, 9.62, 0.000, 0.000, 0.000, 16:19:11.095
118, -11.14, -4.88, 21.04, 26.60, 0.000, 0.000, 0.000, 16:19:11.096
119, 5.67, 5.11, 6.90, 8.06, 0.000, 0.000, 0.000, 16:19:11.096
120, 17.90, 16.62, 3.33, 0.10, 0.000, 0.000, 0.000, 16:19:11.096
121, -8.45, -0.65, 22.45, 21.78, 0.000, 0.000, 0.000, 16:19:11.118
122, 2.47, 1.62, 12.27, 18.69, 0.000, 0.000, 0.000, 16:19:11.118
123, 24.83, 22.36, -1.05, -3.92, 0.000, 0.000, 0.000, 16:19:11.118
124, 3.90, 1.24, 15.40, 17.90, 0.000, 0.000, 0.000, 16:19:11.119
125, 0.10, 1.78, 21.11, 18.36, 0.000, 0.000, 0.000, 16:19:11.140
126, 23.49, 18.76, 3.36, 2.25, 0.000, 0.000, 0.000, 16:19:11.141
127, 3.40, 8.03, 6.85, 5.70, 0.000, 0.000, 0.000, 16:19:11.141
128, -6.26, -1.93, 21.68, 25.25, 0.000, 0.000, 0.000, 16:19:11.141
129, 6.46, 10.66, 10.51, 8.17, 0.000, 0.000, 0.000, 16:19:11.163
130, 20.18, 18.37, 0.72, 1.17, 0.000, 0.000, 0.000, 16:19:11.163
131, -4.41, -0.12, 19.69, 19.39, 0.000, 0.000, 0.000, 16:19:11.163
132, 3.45, 2.07, 11.57, 14.49, 0.000, 0.000, 0.000, 16:19:11.163
133, 17.14, 20.57, -3.31, 0.16, 0.000, 0.000, 0.000, 16:19:11.164
134, 1.03, 0.10, 10.60, 17.05, 0.000, 0.000, 0.000, 16:19:11.164
135, -0.38, -1.43, 20.07, 22.16, 0.000, 0.000, 0.000, 16:19:11.185
136, 9.99, 10.68, 1.35, 3.48, 0.000, 0.000, 0.000, 16:19:11.186
137, 12.18, 12.96, 7.16, 4.28, 0.000, 0.000, 0.000, 16:19:11.186
138, -3.61, -5.52, 24.72, 28.38, 0.000, 0.000, 0.000, 16:19:11.186
139, 10.62, 8.12, 10.14, 11.86, 0.000, 0.000, 0.000, 16:19:11.209
140, 20.69, 22.46, 0.59, -1.83, 0.000, 0.000, 0.000, 16:19:11.209
141, -5.31, -1.90, 19.07, 22.60, 0.000, 0.000, 0.000, 16:19:11.209
142, 5.66, 2.60, 15.30, 16.57, 0.000, 0.000, 0.000, 16:19:11.209
143, 18.68, 20.72, 0.23, -2.86, 0.000, 0.000, 0.000, 16:19:11.230
144, 1.60, 6.41, 17.29, 13.77, 0.000, 0.000, 0.000, 16:19:11.231
145, -8.27, -7.71, 20.33, 21.59, 0.000, 0.000, 0.000, 16:19:11.231
146, 18.50, 17.45, 2.95, 1.73, 0.000, 0.000, 0.000, 16:19:11.231
147, 10.42, 9.99, 3.81, 8.90, 0.000, 0.000, 0.000, 16:19:11.253
148, -8.45, -6.48, 20.22, 23.12, 0.000, 0.000, 0.000, 16:19:11.253
149, 8.68, 6.68, 9.41, 12.02, 0.000, 0.000, 0.000, 16:19:11.254
150, 24.12, 17.65, 3.17, -1.47, 0.000, 0.000, 0.000, 16:19:11.254
151, -7.44, -4.08, 21.79, 23.10, 0.000, 0.000, 0.000, 16:19:11.254
152, 1.20, 4.05, 12.64, 13.66, 0.000, 0.000, 0.000, 16:19:11.254
153, 26.73, 24.14, 0.47, -2.09, 0.000, 0.000, 0.000, 16:19:11.275
154, -0.68, 1.28, 16.00, 16.88, 0.000, 0.000, 0.000, 16:19:11.276
155, -3.30, -2.40, 17.61, 21.36, 0.000, 0.000, 0.000, 16:19:11.276
156, 16.90, 19.91, 2.26, 5.43, 0.000, 0.000, 0.000, 16:19:11.276
157, 11.13, 14.27, 11.11, 6.92, 0.000, 0.000, 0.000, 16:19:11.298
158, -10.37, -4.20, 22.94, 22.45, 0.000, 0.000, 0.000, 16:19:11.298
159, 7.03, 7.75, 8.99, 14.48, 0.000, 0.000, 0.000, 16:19:11.298
160, 15.25, 19.70, 3.62, -0.23, 0.000, 0.000, 0.000, 16:19:11.299
161, -5.25, -0.07, 21.14, 22.97, 0.000, 0.000, 0.000, 16:19:11.321
162, 9.70, 6.06, 13.80, 17.02, 0.000, 0.000, 0.000, 16:19:11.321
163, 14.06, 14.68, -0.09, 0.77, 0.000, 0.000, 0.000, 16:19:11.321
164, 0.86, 2.89, 18.01, 16.91, 0.000, 0.000, 0.000, 16:19:11.321
165, -0.01, -0.48, 15.35, 20.79, 0.000, 0.000, 0.000, 16:19:11.343
166, 18.16, 12.93, 1.39, 3.30, 0.000, 0.000, 0.000, 16:19:11.343
167, 8.75, 9.01, 5.67, 10.21, 0.000, 0.000, 0.000, 16:19:11.343
168, -4.21, -2.51, 18.98, 25.27, 0.000, 0.000, 0.000, 16:19:11.344
169, 7.00, 10.00, 8.18, 8.28, 0.000, 0.000, 0.000, 16:19:11.344
170, 21.41, 13.59, -0.46, -1.89, 0.000, 0.000, 0.000, 16:19:11.344
171, -0.05, -1.61, 17.49, 23.47, 0.000, 0.000, 0.000, 16:19:11.366
172, -0.20, 0.96, 13.47, 18.26, 0.000, 0.000, 0.000, 16:19:11.366
173, 19.99, 18.17, 1.96, -0.17, 0.000, 0.000, 0.000, 16:19:11.366
174, 2.88, 4.92, 16.22, 16.50, 0.000, 0.000, 0.000, 16:19:11.366
175, -0.64, -1.24, 18.87, 17.59, 0.000, 0.000, 0.000, 16:19:11.388
176, 12.81, 16.61, 0.99, 3.58, 0.000, 0.000, 0.000, 16:19:11.388
177, 14.16, 14.61, 6.97, 7.83, 0.000, 0.000, 0.000, 16:19:11.389
178, -2.11, -4.87, 21.45, 24.18, 0.000, 0.000, 0.000, 16:19:11.389
179, 8.39, 11.00, 8.56, 9.49, 0.000, 0.000, 0.000, 16:19:11.410
180, 21.45, 25.75, -0.08, 1.99, 0.000, 0.000, 0.000, 16:19:11.411
181, -9.85, -8.94, 21.34, 24.98, 0.000, 0.000, 0.000, 16:19:11.411
182, 1.15, 3.37, 10.57, 17.18, 0.000, 0.000, 0.000, 16:19:11.411
183, 20.75, 21.91, -1.36, 0.73, 0.000, 0.000, 0.000, 16:19:11.438
184, 0.18, 1.29, 18.45, 14.21, 0.000, 0.000, 0.000, 16:19:11.439
185, -2.70, -1.73, 18.33, 19.65, 0.000, 0.000, 0.000, 16:19:11.439
186, 16.12, 18.98, 4.92, 5.26, 0.000, 0.000, 0.000, 16:19:11.439
187, 11.41, 11.30, 5.45, 4.25, 0.000, 0.000, 0.000, 16:19:11.439
188, -4.63, -3.01, 21.87, 24.77, 0.000, 0.000, 0.000, 16:19:11.439
189, 9.65, 13.21, 7.48, 11.68, 0.000, 0.000, 0.000, 16:19:11.456
190, 14.92, 16.71, -0.04, -0.58, 0.000, 0.000, 0.000, 16:19:11.456
191, -6.17, -4.10, 21.97, 21.59, 0.000, 0.000, 0.000, 16:19:11.456
192, 1.87, 5.87, 12.80, 15.54, 0.000, 0.000, 0.000, 16:19:11.457
193, 20.99, 20.75, 3.81, 3.22, 0.000, 0.000, 0.000, 16:19:11.478
194, 2.97, 3.34, 15.91, 16.55, 0.000, 0.000, 0.000, 16:19:11.478
195, -1.43, -0.99, 15.11, 17.58, 0.000, 0.000, 0.000, 16:19:11.479
196, 15.96, 13.18, 4.76, 2.06, 0.000, 0.000, 0.000, 16:19:11.479
197, 12.96, 14.24, 7.86, 5.28, 0.000, 0.000, 0.000, 16:19:11.501
198, -2.15, 4.10, 25.09, 23.77, 0.000, 0.000, 0.000, 16:19:11.501
199, 5.19, 6.92, 10.23, 7.15, 0.000, 0.000, 0.000, 16:19:11.502
200, 20.05, 22.91, -0.23, -3.89, 0.000, 0.000, 0.000, 16:19:11.502
0, -6.44, -3.15, 19.79, 25.04, 0.000, 0.000, 0.000, 16:19:11.523
1, -0.18, 4.38, 11.66, 15.11, 0.000, 0.000, 0.000, 16:19:11.524
2, 17.51, 17.75, -2.94, 1.61, 0.000, 0.000, 0.000, 16:19:11.524
3, 3.85, 5.74, 18.08, 18.13, 0.000, 0.000, 0.000, 16:19:11.524
4, -1.67, 2.46, 19.31, 16.89, 0.000, 0.000, 0.000, 16:19:11.524
5, 11.36, 15.83, 2.39, 5.80, 0.000, 0.000, 0.000, 16:19:11.546
6, 13.26, 15.14, 8.63, 6.92, 0.000, 0.000, 0.000, 16:19:11.546
7, -7.50, -4.13, 19.44, 22.71, 0.000, 0.000, 0.000, 16:19:11.546
8, 7.84, 9.09, 9.27, 9.83, 0.000, 0.000, 0.000, 16:19:11.546
9, 16.27, 15.19, 3.95, 0.37, 0.000, 0.000, 0.000, 16:19:11.569
10, -2.38, -2.43, 21.41, 21.41, 0.000, 0.000, 0.000, 16:19:11.570
11, 3.17, 4.37, 14.69, 17.22, 0.000, 0.000, 0.000, 16:19:11.570
12, 23.39, 23.58, 1.22, 3.41, 0.000, 0.000, 0.000, 16:19:11.570
13, 3.98, 4.29, 15.32, 15.54, 0.000, 0.000, 0.000, 16:19:11.570
14, -1.08, -0.82, 17.26, 18.57, 0.000, 0.000, 0.000, 16:19:11.570
15, 16.42, 15.57, 0.57, 3.28, 0.000, 0.000, 0.000, 16:19:11.590
16, 10.68, 18.60, 7.58, 5.78, 0.000, 0.000, 0.000, 16:19:11.591
17, -7.69, -0.19, 21.25, 23.22, 0.000, 0.000, 0.000, 16:19:11.591
18, 6.64, 5.71, 7.21, 10.55, 0.000, 0.000, 0.000, 16:19:11.591
19, 18.70, 15.24, 2.72, 2.99, 0.000, 0.000, 0.000, 16:19:11.613
20, -5.15, -6.00, 20.97, 20.95, 0.000, 0.000, 0.000, 16:19:11.613
21, 6.05, 3.26, 12.27, 11.78, 0.000, 0.000, 0.000, 16:19:11.614
22, 18.75, 15.10, -0.16, 0.16, 0.000, 0.000, 0.000, 16:19:11.614
23, 0.78, 3.83, 14.53, 14.49, 0.000, 0.000, 0.000, 16:19:11.635
24, 3.54, 7.69, 17.80, 19.40, 0.000, 0.000, 0.000, 16:19:11.636
25, 12.91, 12.96, 6.60, 7.84, 0.000, 0.000, 0.000, 16:19:11.636
26, 9.27, 12.87, 7.71, 5.81, 0.000, 0.000, 0.000, 16:19:11.636
27, -4.95, -4.29, 22.36, 20.54, 0.000, 0.000, 0.000, 16:19:11.658
28, 6.58, 8.42, 7.48, 11.49, 0.000, 0.000, 0.000, 16:19:11.658
29, 15.26, 16.37, 3.91, 1.58, 0.000, 0.000, 0.000, 16:19:11.659
30, -4.19, -6.04, 18.33, 21.94, 0.000, 0.000, 0.000, 16:19:11.659
31, 1.61, 4.31, 13.33, 14.95, 0.000, 0.000, 0.000, 16:19:11.659
32, 17.22, 14.91, 2.15, 1.62, 0.000, 0.000, 0.000, 16:19:11.659
33, 8.59, 6.12, 15.05, 16.12, 0.000, 0.000, 0.000, 16:19:11.681
34, -6.60, 0.49, 18.68, 18.46, 0.000, 0.000, 0.000, 16:19:11.681
35, 17.29, 15.09, 6.03, 6.29, 0.000, 0.000, 0.000, 16:19:11.681
36, 11.79, 11.13, 11.58, 7.68, 0.000, 0.000, 0.000, 16:19:11.682
37, -1.42, 0.90, 21.88, 21.38, 0.000, 0.000, 0.000, 16:19:11.703
38, 6.47, 5.97, 5.98, 10.75, 0.000, 0.000, 0.000, 16:19:11.703
39, 19.52, 18.27, 0.08, 1.82, 0.000, 0.000, 0.000, 16:19:11.704
40, -3.31, -3.58, 22.70, 22.98, 0.000, 0.000, 0.000, 16:19:11.704
41, -0.28, 3.58, 13.00, 13.56, 0.000, 0.000, 0.000, 16:19:11.725
42, 21.75, 25.34, -0.79, 1.87, 0.000, 0.000, 0.000, 16:19:11.726
43, -4.33, -0.41, 13.65, 17.44, 0.000, 0.000, 0.000, 16:19:11.726
44, -2.01, -0.69, 16.96, 17.43, 0.000, 0.000, 0.000, 16:19:11.727
45, 12.70, 12.12, -0.17, 5.21, 0.000, 0.000, 0.000, 16:19:11.748
46, 11.81, 12.37, 7.26, 7.34, 0.000, 0.000, 0.000, 16:19:11.748
47, -1.76, 1.49, 21.17, 23.95, 0.000, 0.000, 0.000, 16:19:11.749
48, 7.52, 9.01, 7.53, 11.21, 0.000, 0.000, 0.000, 16:19:11.749
49, 17.99, 15.56, 6.95, 7.20, 0.000, 0.000, 0.000, 16:19:11.749
50, -7.51, 0.28, 21.81, 22.40, 0.000, 0.000, 0.000, 16:19:11.749
51, 5.16, 10.13, 15.30, 13.50, 0.000, 0.000, 0.000, 16:19:11.770
52, 17.07, 16.71, -0.97, -0.23, 0.000, 0.000, 0.000, 16:19:11.771
53, 2.23, 8.49, 15.66, 13.78, 0.000, 0.000, 0.000, 16:19:11.771
54, -1.02, 3.42, 19.22, 20.08, 0.000, 0.000, 0.000, 16:19:11.771
55, 13.43, 13.76, 4.02, 2.81, 0.000, 0.000, 0.000, 16:19:11.793
56, 9.45, 12.55, 7.20, 7.49, 0.000, 0.000, 0.000, 16:19:11.793
57, -1.61, -2.49, 21.01, 23.55, 0.000, 0.000, 0.000, 16:19:11.794
58, 8.82, 9.24, 8.72, 9.68, 0.000, 0.000, 0.000, 16:19:11.794
59, 16.63, 17.10, 1.75, -1.88, 0.000, 0.000, 0.000, 16:19:11.816
60, -1.91, -1.53, 18.68, 18.53, 0.000, 0.000, 0.000, 16:19:11.816
61, 1.23, -1.21, 14.27, 13.21, 0.000, 0.000, 0.000, 16:19:11.816
62, 17.90, 16.39, -0.42, 3.56, 0.000, 0.000, 0.000, 16:19:11.816
63, 0.33, 4.56, 15.60, 17.52, 0.000, 0.000, 0.000, 16:19:11.838
64, -3.00, 1.34, 19.05, 17.99, 0.000, 0.000, 0.000, 16:19:11.838
65, 13.75, 12.44, 6.70, 7.67, 0.000, 0.000, 0.000, 16:19:11.838
66, 15.55, 15.49, 7.62, 7.68, 0.000, 0.000, 0.000, 16:19:11.839
67, -3.78, -2.47, 19.43, 21.15, 0.000, 0.000, 0.000, 16:19:11.839
68, 9.50, 9.73, 7.04, 7.38, 0.000, 0.000, 0.000, 16:19:11.839
69, 17.21, 20.24, -0.62, 3.93, 0.000, 0.000, 0.000, 16:19:11.861
70, -4.07, -2.37, 20.05, 20.67, 0.000, 0.000, 0.000, 16:19:11.861
71, 4.28, 3.25, 11.47, 13.65, 0.000, 0.000, 0.000, 16:19:11.861
72, 18.69, 15.06, -3.62, 2.49, 0.000, 0.000, 0.000, 16:19:11.862
73, 5.76, 7.47, 13.48, 17.44, 0.000, 0.000, 0.000, 16:19:11.883
74, -3.10, 2.02, 18.05, 21.66, 0.000, 0.000, 0.000, 16:19:11.883
75, 13.54, 13.73, 4.95, 7.44, 0.000, 0.000, 0.000, 16:19:11.883
76, 8.27, 13.85, 7.71, 8.50, 0.000, 0.000, 0.000, 16:19:11.884
77, -4.06, -3.48, 17.57, 23.84, 0.000, 0.000, 0.000, 16:19:11.906
78, 12.63, 12.92, 10.19, 9.43, 0.000, 0.000, 0.000, 16:19:11.906
79, 12.83, 13.33, 4.56, 5.30, 0.000, 0.000, 0.000, 16:19:11.906
80, -7.07, 2.36, 19.22, 20.83, 0.000, 0.000, 0.000, 16:19:11.906
81, 4.55, 6.94, 14.46, 18.08, 0.000, 0.000, 0.000, 16:19:11.928
82, 20.43, 16.53, 0.37, -0.85, 0.000, 0.000, 0.000, 16:19:11.928
83, 2.93, 3.95, 14.34, 12.04, 0.000, 0.000, 0.000, 16:19:11.928
84, -1.25, -0.13, 24.30, 21.26, 0.000, 0.000, 0.000, 16:19:11.929
85, 12.89, 12.20, 2.90, 4.95, 0.000, 0.000, 0.000, 16:19:11.930
86, 10.62, 12.61, 6.75, 6.26, 0.000, 0.000, 0.000, 16:19:11.930
87, 1.47, -1.35, 18.33, 17.51, 0.000, 0.000, 0.000, 16:19:11.950
88, 3.77, 6.90, 9.71, 14.41, 0.000, 0.000, 0.000, 16:19:11.951
89, 15.70, 18.08, 0.35, 0.78, 0.000, 0.000, 0.000, 16:19:11.951
90, -0.95, 0.61, 20.09, 24.20, 0.000, 0.000, 0.000, 16:19:11.951
91, 7.79, 7.09, 13.74, 15.71, 0.000, 0.000, 0.000, 16:19:11.973
92, 14.44, 15.45, 1.29, 1.29, 0.000, 0.000, 0.000, 16:19:11.973
93, 7.87, 9.60, 18.36, 11.80, 0.000, 0.000, 0.000, 16:19:11.974
94, -3.46, 0.65, 18.23, 22.11, 0.000, 0.000, 0.000, 16:19:11.974
95, 11.18, 13.47, 8.18, 3.22, 0.000, 0.000, 0.000, 16:19:11.996
96, 14.38, 17.63, 9.60, 3.99, 0.000, 0.000, 0.000, 16:19:11.996
97, -6.97, -6.43, 18.49, 24.25, 0.000, 0.000, 0.000, 16:19:11.996
98, 11.01, 12.71, 8.39, 12.19, 0.000, 0.000, 0.000, 16:19:11.996
99, 17.32, 16.07, -0.69, -1.97, 0.000, 0.000, 0.000, 16:19:12.018
100, -4.51, -0.76, 17.64, 17.89, 0.000, 0.000, 0.000, 16:19:12.018
101, 2.35, 4.62, 12.24, 16.21, 0.000, 0.000, 0.000, 16:19:12.019
102, 18.03, 18.34, 0.50, 1.31, 0.000, 0.000, 0.000, 16:19:12.019
103, 3.44, 4.10, 12.21, 12.10, 0.000, 0.000, 0.000, 16:19:12.019
104, -0.71, 3.22, 15.92, 17.02, 0.000, 0.000, 0.000, 16:19:12.019
105, 15.18, 15.92, 5.40, 8.86, 0.000, 0.000, 0.000, 16:19:12.041
106, 5.53, 9.39, 9.04, 9.38, 0.000, 0.000, 0.000, 16:19:12.041
107, -4.40, -2.16, 21.51, 18.52, 0.000, 0.000, 0.000, 16:19:12.041
108, 9.11, 8.83, 12.56, 11.11, 0.000, 0.000, 0.000, 16:19:12.041
109, 16.58, 15.54, 1.23, 4.48, 0.000, 0.000, 0.000, 16:19:12.063
110, -4.84, 0.36, 19.67, 23.32, 0.000, 0.000, 0.000, 16:19:12.063
111, 6.86, 5.27, 15.66, 18.93, 0.000, 0.000, 0.000, 16:19:12.064
112, 15.22, 14.59, -0.32, 0.70, 0.000, 0.000, 0.000, 16:19:12.064
113, 0.36, 6.31, 15.66, 15.17, 0.000, 0.000, 0.000, 16:19:12.085
114, 2.61, 7.49, 17.07, 21.55, 0.000, 0.000, 0.000, 16:19:12.086
115, 8.30, 11.79, 4.42, 8.61, 0.000, 0.000, 0.000, 16:19:12.086
116, 5.00, 11.38, 8.24, 8.07, 0.000, 0.000, 0.000, 16:19:12.086
117, -4.06, 3.65, 20.78, 19.61, 0.000, 0.000, 0.000, 16:19:12.108
118, 10.81, 10.69, 6.38, 9.40, 0.000, 0.000, 0.000, 16:19:12.108
119, 14.68, 12.95, 3.33, 3.48, 0.000, 0.000, 0.000, 16:19:12.108
120, 1.58, 0.60, 20.26, 18.97, 0.000, 0.000, 0.000, 16:19:12.109
121, 5.00, 2.98, 12.31, 16.45, 0.000, 0.000, 0.000, 16:19:12.109
122, 16.74, 13.69, 2.76, 2.65, 0.000, 0.000, 0.000, 16:19:12.109
123, 4.37, 8.04, 9.93, 13.53, 0.000, 0.000, 0.000, 16:19:12.131
124, -0.79, -0.27, 17.41, 23.38, 0.000, 0.000, 0.000, 16:19:12.131
125, 17.39, 14.25, 3.41, 4.53, 0.000, 0.000, 0.000, 16:19:12.131
126, 9.55, 17.47, 7.03, 6.64, 0.000, 0.000, 0.000, 16:19:12.131
127, -4.32, -1.70, 18.76, 20.94, 0.000, 0.000, 0.000, 16:19:12.155
128, 6.94, 6.52, 10.01, 11.94, 0.000, 0.000, 0.000, 16:19:12.155
129, 13.76, 14.10, 4.90, -1.00, 0.000, 0.000, 0.000, 16:19:12.155
130, -0.70, -1.86, 21.67, 18.83, 0.000, 0.000, 0.000, 16:19:12.155
131, 9.19, 4.63, 15.03, 13.75, 0.000, 0.000, 0.000, 16:19:12.175
132, 22.70, 20.99, 3.02, 2.23, 0.000, 0.000, 0.000, 16:19:12.176
133, -2.57, 0.43, 9.73, 14.83, 0.000, 0.000, 0.000, 16:19:12.176
134, -0.23, 1.79, 15.03, 13.91, 0.000, 0.000, 0.000, 16:19:12.176
135, 10.19, 12.21, 2.50, 4.04, 0.000, 0.000, 0.000, 16:19:12.198
136, 13.27, 12.50, 11.40, 6.32, 0.000, 0.000, 0.000, 16:19:12.198
137, -5.23, 1.24, 22.77, 21.35, 0.000, 0.000, 0.000, 16:19:12.198
138, 7.85, 10.35, 11.05, 12.64, 0.000, 0.000, 0.000, 16:19:12.199
139, 13.36, 17.53, 3.60, 4.70, 0.000, 0.000, 0.000, 16:19:12.199
140, -1.45, 2.65, 18.16, 19.30, 0.000, 0.000, 0.000, 16:19:12.199
141, 6.83, 10.39, 12.81, 15.98, 0.000, 0.000, 0.000, 16:19:12.220
142, 12.31, 14.30, -0.35, 3.63, 0.000, 0.000, 0.000, 16:19:12.221
143, 1.43, 7.49, 10.90, 16.84, 0.000, 0.000, 0.000, 16:19:12.221
144, 0.17, 1.49, 18.89, 20.37, 0.000, 0.000, 0.000, 16:19:12.221
145, 13.48, 14.31, 5.26, 7.67, 0.000, 0.000, 0.000, 16:19:12.243
146, 10.77, 8.72, 6.24, 4.94, 0.000, 0.000, 0.000, 16:19:12.243
147, -1.08, -0.41, 22.54, 23.76, 0.000, 0.000, 0.000, 16:19:12.243
148, 6.74, 3.64, 11.89, 9.48, 0.000, 0.000, 0.000, 16:19:12.244
149, 11.81, 15.03, 2.35, 4.77, 0.000, 0.000, 0.000, 16:19:12.265
150, 0.56, 6.39, 16.76, 18.30, 0.000, 0.000, 0.000, 16:19:12.266
151, -1.36, 0.04, 16.66, 16.48, 0.000, 0.000, 0.000, 16:19:12.266
152, 16.72, 17.87, 1.92, 2.04, 0.000, 0.000, 0.000, 16:19:12.266
153, 7.23, 6.94, 11.89, 13.68, 0.000, 0.000, 0.000, 16:19:12.288
154, 0.58, 1.04, 19.57, 21.09, 0.000, 0.000, 0.000, 16:19:12.288
155, 11.04, 13.09, 4.23, 1.94, 0.000, 0.000, 0.000, 16:19:12.288
156, 10.23, 13.94, 4.60, 8.37, 0.000, 0.000, 0.000, 16:19:12.288
157, -2.30, 1.51, 21.38, 21.00, 0.000, 0.000, 0.000, 16:19:12.289
158, 4.49, 9.34, 9.30, 7.50, 0.000, 0.000, 0.000, 16:19:12.289
159, 18.37, 17.49, 2.90, 0.35, 0.000, 0.000, 0.000, 16:19:12.311
160, -1.97, -0.23, 18.77, 22.53, 0.000, 0.000, 0.000, 16:19:12.311
161, 3.63, 3.93, 15.82, 13.13, 0.000, 0.000, 0.000, 16:19:12.311
162, 14.16, 16.98, 4.49, 4.47, 0.000, 0.000, 0.000, 16:19:12.311
163, 3.65, 3.98, 13.23, 14.05, 0.000, 0.000, 0.000, 16:19:12.333
164, -1.89, -2.89, 19.04, 21.95, 0.000, 0.000, 0.000, 16:19:12.333
165, 15.66, 14.33, 6.46, 7.46, 0.000, 0.000, 0.000, 16:19:12.333
166, 8.77, 12.52, 8.10, 11.11, 0.000, 0.000, 0.000, 16:19:12.334
167, -3.24, 2.41, 21.64, 22.63, 0.000, 0.000, 0.000, 16:19:12.355
168, 15.28, 13.99, 7.96, 9.30, 0.000, 0.000, 0.000, 16:19:12.356
169, 7.32, 10.49, 5.36, 3.61, 0.000, 0.000, 0.000, 16:19:12.356
170, -0.14, 2.70, 18.20, 20.60, 0.000, 0.000, 0.000, 16:19:12.356
171, 4.17, 6.31, 17.34, 15.47, 0.000, 0.000, 0.000, 16:19:12.378
172, 18.97, 15.99, 0.91, 5.09, 0.000, 0.000, 0.000, 16:19:12.378
173, 5.01, 3.10, 13.26, 13.20, 0.000, 0.000, 0.000, 16:19:12.378
174, 1.54, 5.98, 20.76, 16.69, 0.000, 0.000, 0.000, 16:19:12.378
175, 11.23, 12.57, 8.44, 5.79, 0.000, 0.000, 0.000, 16:19:12.379
176, 5.64, 12.36, 7.47, 5.77, 0.000, 0.000, 0.000, 16:19:12.379
177, 1.85, -1.48, 18.82, 22.77, 0.000, 0.000, 0.000, 16:19:12.400
178, 6.81, 7.79, 6.90, 10.10, 0.000, 0.000, 0.000, 16:19:12.401
179, 16.48, 16.92, 1.31, 5.48, 0.000, 0.000, 0.000, 16:19:12.401
180, -3.98, 6.89, 20.03, 19.14, 0.000, 0.000, 0.000, 16:19:12.401
181, 9.52, 6.31, 15.33, 13.42, 0.000, 0.000, 0.000, 16:19:12.423
182, 11.56, 14.00, 4.43, 2.59, 0.000, 0.000, 0.000, 16:19:12.423
183, 4.55, 6.91, 15.04, 14.99, 0.000, 0.000, 0.000, 16:19:12.445
184, 0.45, 0.99, 17.21, 19.99, 0.000, 0.000, 0.000, 16:19:12.446
185, 12.98, 13.30, 3.45, 5.08, 0.000, 0.000, 0.000, 16:19:12.446
186, 7.74, 6.58, 7.57, 5.73, 0.000, 0.000, 0.000, 16:19:12.446
187, 1.31, 0.78, 18.17, 19.75, 0.000, 0.000, 0.000, 16:19:12.447
188, 4.46, 8.56, 8.60, 8.23, 0.000, 0.000, 0.000, 16:19:12.447
189, 10.30, 18.18, 2.90, 4.41, 0.000, 0.000, 0.000, 16:19:12.468
190, -0.75, 5.72, 14.90, 17.68, 0.000, 0.000, 0.000, 16:19:12.468
191, 2.59, 3.42, 15.27, 14.31, 0.000, 0.000, 0.000, 16:19:12.469
192, 12.63, 14.95, 2.97, 4.83, 0.000, 0.000, 0.000, 16:19:12.469
193, 1.21, 6.64, 11.18, 16.41, 0.000, 0.000, 0.000, 16:19:12.469
194, 0.61, 5.04, 19.31, 19.94, 0.000, 0.000, 0.000, 16:19:12.469
195, 12.94, 13.52, 10.79, 9.82, 0.000, 0.000, 0.000, 16:19:12.490
196, 11.57, 7.71, 7.32, 7.11, 0.000, 0.000, 0.000, 16:19:12.491
197, 1.46, -3.18, 19.34, 17.45, 0.000, 0.000, 0.000, 16:19:12.491
198, 9.64, 5.44, 10.80, 9.91, 0.000, 0.000, 0.000, 16:19:12.491
199, 17.40, 13.88, 1.33, 0.77, 0.000, 0.000, 0.000, 16:19:12.513
200, 0.78, -0.30, 17.61, 19.36, 0.000, 0.000, 0.000, 16:19:12.513
0, 6.72, 3.88, 10.64, 17.40, 0.000, 0.000, 0.000, 16:19:12.514
1, 13.44, 16.24, 2.10, 4.41, 0.000, 0.000, 0.000, 16:19:12.514
2, 1.93, 4.08, 13.50, 16.06, 0.000, 0.000, 0.000, 16:19:12.514
3, 7.61, 6.48, 16.49, 15.84, 0.000, 0.000, 0.000, 16:19:12.536
4, 10.02, 7.86, 5.81, 9.13, 0.000, 0.000, 0.000, 16:19:12.536
5, 11.24, 10.19, 8.85, 5.98, 0.000, 0.000, 0.000, 16:19:12.536
6, -2.70, 2.98, 21.19, 18.47, 0.000, 0.000, 0.000, 16:19:12.536
7, 10.05, 10.04, 10.54, 12.78, 0.000, 0.000, 0.000, 16:19:12.558
8, 12.54, 16.41, -0.66, -0.43, 0.000, 0.000, 0.000, 16:19:12.558
9, -2.97, 1.98, 16.81, 18.79, 0.000, 0.000, 0.000, 16:19:12.558
10, 4.41, 3.51, 13.69, 16.07, 0.000, 0.000, 0.000, 16:19:12.560
11, 11.71, 18.50, -0.65, 3.61, 0.000, 0.000, 0.000, 16:19:12.581
12, 9.49, 12.38, 15.60, 13.46, 0.000, 0.000, 0.000, 16:19:12.581
13, -3.00, -0.31, 17.18, 17.69, 0.000, 0.000, 0.000, 16:19:12.581
14, 11.41, 10.10, 7.54, 5.29, 0.000, 0.000, 0.000, 16:19:12.581
15, 10.28, 5.39, 8.33, 10.95, 0.000, 0.000, 0.000, 16:19:12.603
16, -1.13, 1.25, 20.37, 23.82, 0.000, 0.000, 0.000, 16:19:12.603
17, 4.85, 8.29, 7.28, 13.83, 0.000, 0.000, 0.000, 16:19:12.603
18, 10.44, 20.98, 3.52, 1.64, 0.000, 0.000, 0.000, 16:19:12.604
19, 0.25, 4.94, 16.80, 17.97, 0.000, 0.000, 0.000, 16:19:12.604
20, 3.76, 9.74, 13.03, 17.08, 0.000, 0.000, 0.000, 16:19:12.604
21, 15.92, 15.23, 4.96, 0.04, 0.000, 0.000, 0.000, 16:19:12.625
22, 1.06, 3.88, 6.51, 13.72, 0.000, 0.000, 0.000, 16:19:12.626
23, 1.96, 2.91, 16.17, 20.33, 0.000, 0.000, 0.000, 16:19:12.626
24, 10.39, 8.56, 8.29, 7.53, 0.000, 0.000, 0.000, 16:19:12.626
25, 10.27, 13.06, 9.91, 4.10, 0.000, 0.000, 0.000, 16:19:12.648
26, -6.36, -3.14, 18.97, 23.72, 0.000, 0.000, 0.000, 16:19:12.648
27, 7.16, 13.82, 12.26, 11.90, 0.000, 0.000, 0.000, 16:19:12.648
28, 15.63, 16.19, 2.57, 1.84, 0.000, 0.000, 0.000, 16:19:12.649
29, -2.75, 2.79, 20.56, 18.66, 0.000, 0.000, 0.000, 16:19:12.670
30, 12.46, 8.31, 14.04, 13.78, 0.000, 0.000, 0.000, 16:19:12.671
31, 8.03, 10.24, 3.45, 4.33, 0.000, 0.000, 0.000, 16:19:12.671
32, 5.11, 7.48, 10.11, 13.98, 0.000, 0.000, 0.000, 16:19:12.671
33, -0.90, 1.66, 14.20, 13.58, 0.000, 0.000, 0.000, 16:19:12.693
34, 11.45, 9.40, 6.08, 9.30, 0.000, 0.000, 0.000, 16:19:12.693
35, 9.68, 9.72, 6.20, 9.65, 0.000, 0.000, 0.000, 16:19:12.693
36, -0.39, 0.32, 20.40, 20.04, 0.000, 0.000, 0.000, 16:19:12.694
37, 9.78, 11.22, 9.07, 12.20, 0.000, 0.000, 0.000, 16:19:12.694
38, 12.88, 19.91, 1.12, 4.81, 0.000, 0.000, 0.000, 16:19:12.694
39, 0.67, 1.77, 15.05, 20.49, 0.000, 0.000, 0.000, 16:19:12.716
40, 2.57, 1.94, 13.64, 12.17, 0.000, 0.000, 0.000, 16:19:12.716
41, 14.36, 13.77, 2.88, 1.56, 0.000, 0.000, 0.000, 16:19:12.716
42, 5.50, 4.98, 13.87, 13.79, 0.000, 0.000, 0.000, 16:19:12.716
43, 4.29, 6.82, 18.34, 21.04, 0.000, 0.000, 0.000, 16:19:12.738
44, 13.02, 8.20, 5.08, 4.75, 0.000, 0.000, 0.000, 16:19:12.738
45, 11.92, 14.71, 6.63, 9.56, 0.000, 0.000, 0.000, 16:19:12.738
46, -2.86, -4.88, 16.61, 20.59, 0.000, 0.000, 0.000, 16:19:12.739
47, 6.84, 7.32, 8.64, 8.83, 0.000, 0.000, 0.000, 16:19:12.760
48, 15.16, 23.11, 2.05, 6.61, 0.000, 0.000, 0.000, 16:19:12.761
49, -5.19, -2.69, 21.40, 20.43, 0.000, 0.000, 0.000, 16:19:12.761
50, 0.94, 5.22, 13.76, 14.77, 0.000, 0.000, 0.000, 16:19:12.761
51, 13.99, 18.37, 1.06, 1.83, 0.000, 0.000, 0.000, 16:19:12.783
52, 5.16, 7.84, 12.54, 12.86, 0.000, 0.000, 0.000, 16:19:12.783
53, 0.71, 4.00, 21.59, 19.36, 0.000, 0.000, 0.000, 16:19:12.783
54, 9.39, 16.27, 4.01, 4.46, 0.000, 0.000, 0.000, 16:19:12.783
55, 10.86, 14.68, 8.60, 6.60, 0.000, 0.000, 0.000, 16:19:12.784
56, -1.88, -0.60, 18.06, 19.64, 0.000, 0.000, 0.000, 16:19:12.784
57, 11.50, 6.82, 9.33, 14.71, 0.000, 0.000, 0.000, 16:19:12.806
58, 11.42, 12.78, 3.71, 0.93, 0.000, 0.000, 0.000, 16:19:12.806
59, -1.12, 1.09, 18.60, 21.37, 0.000, 0.000, 0.000, 16:19:12.806
60, 1.39, 4.17, 11.54, 14.94, 0.000, 0.000, 0.000, 16:19:12.807
61, 12.35, 15.87, 5.25, 1.76, 0.000, 0.000, 0.000, 16:19:12.828
62, 3.43, 2.77, 14.59, 12.10, 0.000, 0.000, 0.000, 16:19:12.828
63, 1.78, 3.94, 15.47, 16.79, 0.000, 0.000, 0.000, 16:19:12.828
64, 11.49, 12.08, 3.06, 7.24, 0.000, 0.000, 0.000, 16:19:12.829
65, 11.40, 9.91, 6.60, 7.93, 0.000, 0.000, 0.000, 16:19:12.850
66, 2.34, 7.48, 23.48, 22.73, 0.000, 0.000, 0.000, 16:19:12.851
67, 2.64, 5.11, 11.01, 12.90, 0.000, 0.000, 0.000, 16:19:12.851
68, 13.29, 14.83, 0.90, 1.35, 0.000, 0.000, 0.000, 16:19:12.851
69, -0.22, 4.93, 20.77, 18.43, 0.000, 0.000, 0.000, 16:19:12.873
70, 3.93, 6.09, 12.11, 16.08, 0.000, 0.000, 0.000, 16:19:12.873
71, 15.09, 14.83, 0.13, 3.57, 0.000, 0.000, 0.000, 16:19:12.874
72, 3.60, 7.22, 12.26, 12.30, 0.000, 0.000, 0.000, 16:19:12.874
73, -2.23, 2.20, 17.82, 19.38, 0.000, 0.000, 0.000, 16:19:12.874
74, 11.68, 12.29, 5.80, 7.96, 0.000, 0.000, 0.000, 16:19:12.874
75, 14.61, 19.44, 7.66, 7.06, 0.000, 0.000, 0.000, 16:19:12.896
76, -1.26, -1.81, 21.76, 20.75, 0.000, 0.000, 0.000, 16:19:12.896
77, 5.09, 3.60, 12.22, 11.21, 0.000, 0.000, 0.000, 16:19:12.896
78, 12.44, 15.54, 3.03, -2.40, 0.000, 0.000, 0.000, 16:19:12.896
79, 0.75, 6.86, 16.71, 16.04, 0.000, 0.000, 0.000, 16:19:12.918
80, 3.02, 4.89, 13.74, 16.01, 0.000, 0.000, 0.000, 16:19:12.918
81, 17.16, 20.84, 3.47, 4.51, 0.000, 0.000, 0.000, 16:19:12.918
82, 2.68, 7.58, 14.70, 17.47, 0.000, 0.000, 0.000, 16:19:12.919
83, 0.33, 1.11, 16.92, 22.28, 0.000, 0.000, 0.000, 16:19:12.940
84, 12.64, 13.40, 3.83, 4.61, 0.000, 0.000, 0.000, 16:19:12.941
85, 8.12, 7.02, 5.91, 9.56, 0.000, 0.000, 0.000, 16:19:12.941
86, 0.70, 0.99, 19.89, 18.49, 0.000, 0.000, 0.000, 16:19:12.941
87, 10.23, 8.23, 8.56, 13.93, 0.000, 0.000, 0.000, 16:19:12.964
88, 12.92, 21.95, 0.12, -0.56, 0.000, 0.000, 0.000, 16:19:12.964
89, -2.23, 2.10, 18.62, 19.80, 0.000, 0.000, 0.000, 16:19:12.964
90, 4.87, 5.71, 18.67, 16.35, 0.000, 0.000, 0.000, 16:19:12.965
91, 15.22, 14.67, 6.52, 6.13, 0.000, 0.000, 0.000, 16:19:12.965
92, 3.29, 4.78, 16.54, 16.00, 0.000, 0.000, 0.000, 16:19:12.965
93, 2.69, 2.87, 18.71, 17.89, 0.000, 0.000, 0.000, 16:19:12.985
94, 7.86, 10.13, 6.74, 7.95, 0.000, 0.000, 0.000, 16:19:12.986
95, 8.91, 9.33, 4.38, 8.23, 0.000, 0.000, 0.000, 16:19:12.986
96, -2.09, 8.61, 19.89, 20.13, 0.000, 0.000, 0.000, 16:19:12.986
97, 8.17, 10.43, 7.64, 13.43, 0.000, 0.000, 0.000, 16:19:13.010
98, 11.56, 13.77, 1.54, 0.83, 0.000, 0.000, 0.000, 16:19:13.010
99, 2.54, 3.87, 17.51, 17.87, 0.000, 0.000, 0.000, 16:19:13.010
100, 2.68, 9.04, 12.21, 18.72, 0.000, 0.000, 0.000, 16:19:13.011
101, 12.60, 16.05, -0.86, 4.78, 0.000, 0.000, 0.000, 16:19:13.030
102, 7.90, 11.07, 12.64, 12.80, 0.000, 0.000, 0.000, 16:19:13.031
103, -3.78, -2.48, 21.22, 20.20, 0.000, 0.000, 0.000, 16:19:13.031
104, 10.58, 14.08, 7.05, 5.26, 0.000, 0.000, 0.000, 16:19:13.031
105, 8.38, 11.81, 5.28, 5.22, 0.000, 0.000, 0.000, 16:19:13.053
106, -0.28, 0.50, 24.01, 24.07, 0.000, 0.000, 0.000, 16:19:13.053
107, 3.69, 2.09, 13.30, 14.02, 0.000, 0.000, 0.000, 16:19:13.054
108, 15.35, 12.18, 4.69, 2.34, 0.000, 0.000, 0.000, 16:19:13.054
109, 0.49, 1.85, 20.26, 20.12, 0.000, 0.000, 0.000, 16:19:13.054
110, 7.78, 4.71, 16.99, 13.99, 0.000, 0.000, 0.000, 16:19:13.054
111, 15.75, 18.92, 3.17, 3.00, 0.000, 0.000, 0.000, 16:19:13.075
112, 3.83, 4.73, 15.59, 15.20, 0.000, 0.000, 0.000, 16:19:13.076
113, -1.89, 2.11, 15.63, 18.79, 0.000, 0.000, 0.000, 16:19:13.076
114, 12.93, 16.44, 3.18, 7.26, 0.000, 0.000, 0.000, 16:19:13.076
115, 12.33, 15.16, 2.13, 5.20, 0.000, 0.000, 0.000, 16:19:13.098
116, -1.65, 3.78, 20.62, 25.32, 0.000, 0.000, 0.000, 16:19:13.098
117, 3.97, 7.29, 7.07, 4.61, 0.000, 0.000, 0.000, 16:19:13.099
118, 11.57, 17.59, 1.01, 3.54, 0.000, 0.000, 0.000, 16:19:13.099
119, -2.29, 1.59, 21.99, 22.52, 0.000, 0.000, 0.000, 16:19:13.120
120, 9.24, 8.35, 18.83, 12.03, 0.000, 0.000, 0.000, 16:19:13.121
121, 9.26, 11.48, 2.03, 1.88, 0.000, 0.000, 0.000, 16:19:13.121
122, 5.57, 6.21, 10.00, 15.84, 0.000, 0.000, 0.000, 16:19:13.121
123, 1.37, 5.42, 14.10, 17.33, 0.000, 0.000, 0.000, 16:19:13.143
124, 9.56, 7.27, 4.22, 3.98, 0.000, 0.000, 0.000, 16:19:13.143
125, 7.43, 10.77, 5.87, 5.81, 0.000, 0.000, 0.000, 16:19:13.143
126, -0.16, 5.16, 16.69, 19.25, 0.000, 0.000, 0.000, 16:19:13.144
127, 6.59, 10.33, 12.42, 11.80, 0.000, 0.000, 0.000, 16:19:13.144
128, 11.79, 10.63, 0.86, 5.44, 0.000, 0.000, 0.000, 16:19:13.145
129, 4.10, 3.88, 15.64, 21.65, 0.000, 0.000, 0.000, 16:19:13.166
130, 0.83, 3.22, 15.03, 15.52, 0.000, 0.000, 0.000, 16:19:13.166
131, 10.43, 12.96, 7.40, 3.62, 0.000, 0.000, 0.000, 16:19:13.166
132, 5.05, 4.35, 12.60, 13.81, 0.000, 0.000, 0.000, 16:19:13.166
133, -0.71, 2.28, 18.41, 18.43, 0.000, 0.000, 0.000, 16:19:13.188
134, 10.84, 10.68, 5.36, 7.94, 0.000, 0.000, 0.000, 16:19:13.188
135, 14.04, 13.11, 7.95, 9.78, 0.000, 0.000, 0.000, 16:19:13.188
136, -2.16, 3.16, 20.69, 25.12, 0.000, 0.000, 0.000, 16:19:13.189
137, 9.80, 6.04, 9.07, 12.15, 0.000, 0.000, 0.000, 16:19:13.210
138, 14.51, 20.00, 0.49, -0.19, 0.000, 0.000, 0.000, 16:19:13.211
139, -6.39, -0.67, 19.05, 15.32, 0.000, 0.000, 0.000, 16:19:13.212
140, 5.79, 2.55, 12.52, 18.47, 0.000, 0.000, 0.000, 16:19:13.212
141, 15.59, 14.85, 2.19, 2.20, 0.000, 0.000, 0.000, 16:19:13.233
142, 7.84, 9.01, 9.18, 10.30, 0.000, 0.000, 0.000, 16:19:13.233
143, 1.78, 6.62, 16.38, 16.73, 0.000, 0.000, 0.000, 16:19:13.233
144, 14.43, 13.66, 4.95, 5.13, 0.000, 0.000, 0.000, 16:19:13.234
145, 8.09, 14.38, 6.08, 5.18, 0.000, 0.000, 0.000, 16:19:13.234
146, 2.65, -0.76, 21.62, 22.31, 0.000, 0.000, 0.000, 16:19:13.234
147, 12.55, 11.47, 9.62, 11.97, 0.000, 0.000, 0.000, 16:19:13.256
148, 11.28, 11.94, -0.27, 2.14, 0.000, 0.000, 0.000, 16:19:13.256
149, 4.85, 0.49, 18.30, 21.62, 0.000, 0.000, 0.000, 16:19:13.256
150, 10.96, 8.53, 17.27, 16.81, 0.000, 0.000, 0.000, 16:19:13.256
151, 14.61, 13.90, 2.51, 5.66, 0.000, 0.000, 0.000, 16:19:13.279
152, 6.23, 4.37, 12.75, 14.98, 0.000, 0.000, 0.000, 16:19:13.280
153, 2.13, 3.74, 17.15, 22.15, 0.000, 0.000, 0.000, 16:19:13.280
154, 7.81, 12.31, 6.96, 8.87, 0.000, 0.000, 0.000, 16:19:13.280
155, 5.04, 10.28, 7.69, 7.81, 0.000, 0.000, 0.000, 16:19:13.301
156, 3.61, 5.99, 20.11, 19.27, 0.000, 0.000, 0.000, 16:19:13.301
157, 1.74, 4.06, 10.26, 13.43, 0.000, 0.000, 0.000, 16:19:13.301
158, 12.06, 10.43, 0.28, 4.02, 0.000, 0.000, 0.000, 16:19:13.301
159, 0.57, 5.36, 17.70, 17.74, 0.000, 0.000, 0.000, 16:19:13.323
160, 5.82, 7.34, 13.30, 12.79, 0.000, 0.000, 0.000, 16:19:13.323
161, 11.17, 13.80, 3.27, 2.64, 0.000, 0.000, 0.000, 16:19:13.323
162, 5.94, 5.24, 12.88, 9.27, 0.000, 0.000, 0.000, 16:19:13.324
163, 2.37, 4.52, 17.87, 15.93, 0.000, 0.000, 0.000, 16:19:13.324
164, 11.22, 9.36, 7.41, 9.20, 0.000, 0.000, 0.000, 16:19:13.324
165, 11.64, 11.69, 4.04, 8.60, 0.000, 0.000, 0.000, 16:19:13.345
166, -6.85, 1.41, 18.65, 21.15, 0.000, 0.000, 0.000, 16:19:13.345
167, 6.11, 12.42, 6.82, 11.58, 0.000, 0.000, 0.000, 16:19:13.368
168, 6.55, 13.63, 7.40, -0.77, 0.000, 0.000, 0.000, 16:19:13.371
169, -3.43, 5.36, 16.72, 18.02, 0.000, 0.000, 0.000, 16:19:13.371
170, 5.10, 4.51, 16.09, 15.12, 0.000, 0.000, 0.000, 16:19:13.371
171, 11.78, 13.68, 5.22, 7.21, 0.000, 0.000, 0.000, 16:19:13.371
172, 3.25, 3.74, 9.02, 12.13, 0.000, 0.000, 0.000, 16:19:13.371
173, 7.41, 0.55, 18.77, 16.59, 0.000, 0.000, 0.000, 16:19:13.391
174, 15.66, 12.20, 8.44, 9.65, 0.000, 0.000, 0.000, 16:19:13.391
175, 4.77, 8.74, 8.49, 8.07, 0.000, 0.000, 0.000, 16:19:13.391
176, 1.11, 0.03, 18.23, 15.54, 0.000, 0.000, 0.000, 16:19:13.392
177, 9.25, 9.35, 10.47, 10.50, 0.000, 0.000, 0.000, 16:19:13.413
178, 14.48, 13.83, 9.23, 2.53, 0.000, 0.000, 0.000, 16:19:13.413
179, -0.97, 5.10, 19.10, 16.33, 0.000, 0.000, 0.000, 16:19:13.414
180, 7.69, 10.49, 17.34, 12.01, 0.000, 0.000, 0.000, 16:19:13.414
181, 10.21, 11.25, 1.31, 4.59, 0.000, 0.000, 0.000, 16:19:13.414
182, 5.16, 10.25, 14.65, 14.68, 0.000, 0.000, 0.000, 16:19:13.414
183, 4.17, 6.28, 14.54, 17.93, 0.000, 0.000, 0.000, 16:19:13.435
184, 8.01, 6.52, 7.00, 9.81, 0.000, 0.000, 0.000, 16:19:13.436
185, 8.66, 11.11, 5.02, 6.99, 0.000, 0.000, 0.000, 16:19:13.436
186, 2.46, 4.26, 17.84, 20.23, 0.000, 0.000, 0.000, 16:19:13.436
187, 9.57, 8.49, 8.52, 6.85, 0.000, 0.000, 0.000, 16:19:13.458
188, 10.37, 10.26, 2.45, 5.98, 0.000, 0.000, 0.000, 16:19:13.458
189, 4.09, 7.83, 16.79, 16.56, 0.000, 0.000, 0.000, 16:19:13.458
190, 2.06, 10.86, 16.11, 16.88, 0.000, 0.000, 0.000, 16:19:13.459
191, 10.09, 17.66, 9.53, 5.22, 0.000, 0.000, 0.000, 16:19:13.480
192, 7.77, 8.65, 15.55, 15.52, 0.000, 0.000, 0.000, 16:19:13.481
193, 0.08, 0.64, 17.19, 16.82, 0.000, 0.000, 0.000, 16:19:13.481
194, 8.97, 14.16, 7.25, 9.08, 0.000, 0.000, 0.000, 16:19:13.481
195, 7.66, 11.29, 4.44, 4.95, 0.000, 0.000, 0.000, 16:19:13.503
196, -0.64, 5.01, 17.19, 20.95, 0.000, 0.000, 0.000, 16:19:13.503
197, 8.25, 6.78, 12.07, 11.43, 0.000, 0.000, 0.000, 16:19:13.503
198, 12.69, 11.62, 0.31, 1.42, 0.000, 0.000, 0.000, 16:19:13.504
199, 2.64, 3.60, 14.46, 16.46, 0.000, 0.000, 0.000, 16:19:13.504
200, 5.71, 10.40, 15.59, 15.53, 0.000, 0.000, 0.000, 16:19:13.504
0, 15.82, 12.49, -0.02, 2.74, 0.000, 0.000, 0.000, 16:19:13.525
1, 3.78, 6.14, 9.04, 13.18, 0.000, 0.000, 0.000, 16:19:13.526
2, 1.82, 6.61, 15.37, 22.22, 0.000, 0.000, 0.000, 16:19:13.526
3, 9.53, 10.69, 6.61, 8.01, 0.000, 0.000, 0.000, 16:19:13.548
4, 7.58, 8.58, 6.06, 5.07, 0.000, 0.000, 0.000, 16:19:13.548
5, 1.77, 5.05, 19.27, 21.46, 0.000, 0.000, 0.000, 16:19:13.548
6, 7.20, 7.30, 7.87, 12.31, 0.000, 0.000, 0.000, 16:19:13.549
7, 8.98, 11.13, 7.49, 6.39, 0.000, 0.000, 0.000, 16:19:13.549
8, 5.30, 4.67, 17.66, 19.57, 0.000, 0.000, 0.000, 16:19:13.549
9, 12.53, 11.96, 13.26, 20.23, 0.000, 0.000, 0.000, 16:19:13.570
10, 6.55, 9.77, 5.19, 2.82, 0.000, 0.000, 0.000, 16:19:13.571
11, 2.37, 9.77, 12.85, 10.70, 0.000, 0.000, 0.000, 16:19:13.571
12, 0.90, 4.76, 18.56, 12.51, 0.000, 0.000, 0.000, 16:19:13.571
13, 8.52, 7.47, 6.14, 3.92, 0.000, 0.000, 0.000, 16:19:13.593
14, 5.98, 7.82, 9.87, 10.81, 0.000, 0.000, 0.000, 16:19:13.593
15, 3.07, 2.17, 18.72, 18.79, 0.000, 0.000, 0.000, 16:19:13.594
16, 7.48, 8.58, 9.16, 10.50, 0.000, 0.000, 0.000, 16:19:13.594
17, 9.90, 14.16, 6.66, 6.73, 0.000, 0.000, 0.000, 16:19:13.615
18, 9.51, 6.53, 14.51, 16.33, 0.000, 0.000, 0.000, 16:19:13.616
19, -0.49, -1.64, 16.96, 12.34, 0.000, 0.000, 0.000, 16:19:13.616
20, 11.36, 13.34, 4.22, 6.85, 0.000, 0.000, 0.000, 16:19:13.616
21, 5.16, 4.74, 11.63, 13.36, 0.000, 0.000, 0.000, 16:19:13.638
22, 2.71, 8.62, 16.14, 15.57, 0.000, 0.000, 0.000, 16:19:13.638
23, 9.53, 9.51, 5.69, 10.80, 0.000, 0.000, 0.000, 16:19:13.638
24, 14.46, 8.42, 6.41, 11.19, 0.000, 0.000, 0.000, 16:19:13.638
25, -1.92, 5.57, 14.83, 21.27, 0.000, 0.000, 0.000, 16:19:13.639
26, 9.59, 8.81, 12.84, 13.59, 0.000, 0.000, 0.000, 16:19:13.639
27, 13.05, 15.60, 4.43, 5.73, 0.000, 0.000, 0.000, 16:19:13.661
28, -2.26, 3.63, 17.76, 15.21, 0.000, 0.000, 0.000, 16:19:13.661
29, 7.08, 8.70, 14.61, 18.16, 0.000, 0.000, 0.000, 16:19:13.661
30, 10.68, 13.98, -0.32, 1.03, 0.000, 0.000, 0.000, 16:19:13.661
31, 4.88, 7.71, 11.89, 15.08, 0.000, 0.000, 0.000, 16:19:13.683
32, 0.49, 4.59, 13.69, 15.89, 0.000, 0.000, 0.000, 16:19:13.683
33, 9.33, 8.82, 7.22, 8.13, 0.000, 0.000, 0.000, 16:19:13.683
34, 11.49, 6.93, 6.02, 7.01, 0.000, 0.000, 0.000, 16:19:13.683
35, 2.19, 5.95, 16.90, 17.87, 0.000, 0.000, 0.000, 16:19:13.705
36, 11.64, 16.32, 11.21, 13.51, 0.000, 0.000, 0.000, 16:19:13.705
37, 7.25, 6.86, 8.17, 8.58, 0.000, 0.000, 0.000, 16:19:13.706
38, -0.24, 3.61, 18.13, 15.60, 0.000, 0.000, 0.000, 16:19:13.706
39, 5.82, 4.17, 14.79, 12.10, 0.000, 0.000, 0.000, 16:19:13.728
40, 13.50, 14.40, 7.59, 8.05, 0.000, 0.000, 0.000, 16:19:13.728
41, 4.92, 5.96, 11.67, 12.60, 0.000, 0.000, 0.000, 16:19:13.728
42, 5.69, 9.71, 14.89, 19.27, 0.000, 0.000, 0.000, 16:19:13.729
43, 9.71, 9.06, 3.17, 7.43, 0.000, 0.000, 0.000, 16:19:13.729
44, 4.18, 11.60, 6.47, 5.76, 0.000, 0.000, 0.000, 16:19:13.729
45, 3.47, 5.37, 17.23, 17.57, 0.000, 0.000, 0.000, 16:19:13.750
46, 10.25, 6.46, 10.08, 11.02, 0.000, 0.000, 0.000, 16:19:13.751
47, 11.74, 12.89, 4.04, 4.45, 0.000, 0.000, 0.000, 16:19:13.751
48, -0.33, 6.69, 20.03, 15.85, 0.000, 0.000, 0.000, 16:19:13.751
49, 9.02, 6.24, 15.84, 12.38, 0.000, 0.000, 0.000, 16:19:13.773
50, 10.72, 9.93, 5.38, 8.29, 0.000, 0.000, 0.000, 16:19:13.773
51, 6.00, 5.00, 11.11, 16.20, 0.000, 0.000, 0.000, 16:19:13.773
52, -0.28, -1.35, 15.87, 16.81, 0.000, 0.000, 0.000, 16:19:13.773
53, 9.84, 10.56, 8.45, 8.64, 0.000, 0.000, 0.000, 16:19:13.795
54, 14.32, 14.42, 7.54, 6.36, 0.000, 0.000, 0.000, 16:19:13.796
55, -5.57, 0.39, 14.19, 16.78, 0.000, 0.000, 0.000, 16:19:13.796
56, 8.72, 10.47, 12.16, 9.44, 0.000, 0.000, 0.000, 16:19:13.796
57, 12.70, 14.87, 5.26, 7.32, 0.000, 0.000, 0.000, 16:19:13.818
58, 3.50, 1.54, 14.85, 17.38, 0.000, 0.000, 0.000, 16:19:13.818
59, 6.25, 5.31, 16.04, 17.93, 0.000, 0.000, 0.000, 16:19:13.818
60, 7.90, 14.00, 4.11, 3.82, 0.000, 0.000, 0.000, 16:19:13.819
61, 2.17, 9.09, 8.62, 8.87, 0.000, 0.000, 0.000, 16:19:13.819
62, 8.02, 3.77, 13.78, 18.73, 0.000, 0.000, 0.000, 16:19:13.819
63, 11.20, 13.20, 6.93, 7.66, 0.000, 0.000, 0.000, 16:19:13.840
64, 8.40, 5.74, 5.68, 9.28, 0.000, 0.000, 0.000, 16:19:13.840
65, 1.99, 4.45, 17.62, 18.93, 0.000, 0.000, 0.000, 16:19:13.841
66, 4.53, 6.29, 8.55, 12.45, 0.000, 0.000, 0.000, 16:19:13.841
67, 8.98, 11.15, 7.09, 5.43, 0.000, 0.000, 0.000, 16:19:13.863
68, 3.59, 5.14, 19.45, 20.00, 0.000, 0.000, 0.000, 16:19:13.863
69, 8.56, 9.42, 11.95, 11.48, 0.000, 0.000, 0.000, 16:19:13.863
70, 13.39, 12.99, 4.64, 6.63, 0.000, 0.000, 0.000, 16:19:13.864
71, 5.51, 10.07, 15.46, 11.69, 0.000, 0.000, 0.000, 16:19:13.885
72, 10.02, 12.55, 12.21, 16.99, 0.000, 0.000, 0.000, 16:19:13.886
73, 0.82, 6.78, 8.42, 7.31, 0.000, 0.000, 0.000, 16:19:13.886
74, 8.49, 11.87, 12.11, 8.17, 0.000, 0.000, 0.000, 16:19:13.886
75, 4.41, 1.68, 11.12, 21.89, 0.000, 0.000, 0.000, 16:19:13.908
76, 5.26, 5.63, 11.37, 12.41, 0.000, 0.000, 0.000, 16:19:13.908
77, 6.19, 11.74, 6.88, 3.41, 0.000, 0.000, 0.000, 16:19:13.909
78, 1.90, 7.64, 17.48, 15.11, 0.000, 0.000, 0.000, 16:19:13.909
79, 8.99, 4.01, 13.35, 12.52, 0.000, 0.000, 0.000, 16:19:13.909
80, 8.83, 3.72, 2.72, 5.40, 0.000, 0.000, 0.000, 16:19:13.909
81, 10.86, 8.84, 11.47, 14.39, 0.000, 0.000, 0.000, 16:19:13.930
82, -1.42, 3.84, 17.10, 19.74, 0.000, 0.000, 0.000, 16:19:13.931
83, 6.57, 10.96, 9.60, 4.62, 0.000, 0.000, 0.000, 16:19:13.931
84, 8.86, 9.12, 10.37, 8.05, 0.000, 0.000, 0.000, 16:19:13.931
85, 1.11, 3.98, 16.85, 16.20, 0.000, 0.000, 0.000, 16:19:13.953
86, 4.96, 6.58, 10.23, 14.46, 0.000, 0.000, 0.000, 16:19:13.953
87, 11.35, 13.81, 5.01, 6.71, 0.000, 0.000, 0.000, 16:19:13.954
88, 4.44, 5.65, 17.69, 18.43, 0.000, 0.000, 0.000, 16:19:13.954
89, 7.04, 9.10, 15.40, 14.52, 0.000, 0.000, 0.000, 16:19:13.976
90, 12.68, 18.16, 7.88, 4.49, 0.000, 0.000, 0.000, 16:19:13.976
91, -4.65, 5.76, 11.28, 17.03, 0.000, 0.000, 0.000, 16:19:13.976
92, 4.74, 4.67, 15.60, 18.50, 0.000, 0.000, 0.000, 16:19:13.976
93, 9.62, 10.16, 7.49, 8.73, 0.000, 0.000, 0.000, 16:19:13.998
94, 14.06, 14.73, 4.30, 7.48, 0.000, 0.000, 0.000, 16:19:13.998
95, 1.08, 1.98, 19.92, 21.93, 0.000, 0.000, 0.000, 16:19:13.999
96, 5.93, 9.69, 5.97, 11.96, 0.000, 0.000, 0.000, 16:19:13.999
97, 7.50, 11.32, 2.47, 5.69, 0.000, 0.000, 0.000, 16:19:13.999
98, 2.31, 7.00, 16.67, 15.43, 0.000, 0.000, 0.000, 16:19:13.999
99, 5.88, 8.29, 12.64, 16.73, 0.000, 0.000, 0.000, 16:19:14.020
100, 8.45, 9.58, 7.72, 9.08, 0.000, 0.000, 0.000, 16:19:14.021
101, 2.41, 6.18, 12.79, 7.86, 0.000, 0.000, 0.000, 16:19:14.021
102, 3.14, 7.20, 9.08, 16.29, 0.000, 0.000, 0.000, 16:19:14.021
103, 8.82, 14.00, 8.78, 10.01, 0.000, 0.000, 0.000, 16:19:14.043
104, 5.64, 6.64, 11.71, 11.87, 0.000, 0.000, 0.000, 16:19:14.043
105, 1.27, 4.79, 21.84, 17.86, 0.000, 0.000, 0.000, 16:19:14.044
106, 5.85, 8.19, 11.05, 10.68, 0.000, 0.000, 0.000, 16:19:14.044
107, 10.92, 14.77, 6.00, 5.81, 0.000, 0.000, 0.000, 16:19:14.065
108, 7.43, 6.24, 17.91, 17.26, 0.000, 0.000, 0.000, 16:19:14.066
109, -0.05, 5.73, 13.99, 15.17, 0.000, 0.000, 0.000, 16:19:14.066
110, 11.24, 11.24, 4.70, 7.97, 0.000, 0.000, 0.000, 16:19:14.066
111, 3.06, 5.90, 8.73, 11.31, 0.000, 0.000, 0.000, 16:19:14.088
112, 5.87, 6.79, 15.11, 16.51, 0.000, 0.000, 0.000, 16:19:14.088
113, 10.17, 9.96, 6.61, 8.16, 0.000, 0.000, 0.000, 16:19:14.088
114, 13.81, 8.75, 3.91, 11.12, 0.000, 0.000, 0.000, 16:19:14.088
115, 1.80, 5.01, 16.74, 15.92, 0.000, 0.000, 0.000, 16:19:14.089
116, 7.48, 9.74, 12.73, 10.51, 0.000, 0.000, 0.000, 16:19:14.089
117, 12.22, 13.50, 6.22, 3.56, 0.000, 0.000, 0.000, 16:19:14.111
118, -0.65, -0.31, 16.91, 16.15, 0.000, 0.000, 0.000, 16:19:14.111
119, 10.03, 7.32, 11.74, 12.88, 0.000, 0.000, 0.000, 16:19:14.111
120, 12.41, 11.59, 1.51, 4.09, 0.000, 0.000, 0.000, 16:19:14.111
121, 4.61, 8.76, 10.09, 11.77, 0.000, 0.000, 0.000, 16:19:14.133
122, 3.57, 5.29, 17.59, 15.18, 0.000, 0.000, 0.000, 16:19:14.133
123, 11.04, 14.49, 10.49, 8.52, 0.000, 0.000, 0.000, 16:19:14.133
124, 7.24, 9.45, 10.12, 9.01, 0.000, 0.000, 0.000, 16:19:14.134
125, 1.46, 4.10, 15.93, 18.06, 0.000, 0.000, 0.000, 16:19:14.155
126, 13.93, 13.90, 11.31, 12.88, 0.000, 0.000, 0.000, 16:19:14.156
127, 3.34, 7.72, 4.87, 6.61, 0.000, 0.000, 0.000, 16:19:14.156
128, 1.94, 6.35, 16.91, 15.60, 0.000, 0.000, 0.000, 16:19:14.156
129, 2.43, 7.44, 11.95, 15.76, 0.000, 0.000, 0.000, 16:19:14.178
130, 11.37, 11.09, 5.80, 7.04, 0.000, 0.000, 0.000, 16:19:14.178
131, 4.24, 6.08, 15.47, 15.26, 0.000, 0.000, 0.000, 16:19:14.178
132, 6.00, 4.44, 16.74, 16.30, 0.000, 0.000, 0.000, 16:19:14.179
133, 7.25, 11.57, 9.18, 5.59, 0.000, 0.000, 0.000, 16:19:14.179
134, 6.62, 9.09, 3.65, 7.48, 0.000, 0.000, 0.000, 16:19:14.179
135, 4.19, 6.94, 17.86, 18.41, 0.000, 0.000, 0.000, 16:19:14.200
136, 7.94, 5.12, 6.06, 11.79, 0.000, 0.000, 0.000, 16:19:14.200
137, 10.20, 13.54, 6.55, 4.30, 0.000, 0.000, 0.000, 16:19:14.201
138, 0.87, 6.41, 14.28, 17.30, 0.000, 0.000, 0.000, 16:19:14.201
139, 2.49, 6.87, 16.20, 11.68, 0.000, 0.000, 0.000, 16:19:14.223
140, 8.93, 11.87, 4.13, 4.35, 0.000, 0.000, 0.000, 16:19:14.223
141, 3.41, 9.57, 11.52, 12.58, 0.000, 0.000, 0.000, 16:19:14.223
142, 3.58, 6.98, 16.18, 18.82, 0.000, 0.000, 0.000, 16:19:14.223
143, 8.51, 13.45, 9.62, 6.28, 0.000, 0.000, 0.000, 16:19:14.245
144, 9.84, 13.47, 6.75, 5.17, 0.000, 0.000, 0.000, 16:19:14.246
145, -5.05, 1.78, 17.79, 17.30, 0.000, 0.000, 0.000, 16:19:14.246
146, 8.81, 6.70, 9.15, 12.55, 0.000, 0.000, 0.000, 16:19:14.246
147, 13.46, 10.17, 7.43, 6.58, 0.000, 0.000, 0.000, 16:19:14.268
148, 2.99, 3.58, 17.41, 16.35, 0.000, 0.000, 0.000, 16:19:14.268
149, 4.26, 3.42, 14.52, 13.68, 0.000, 0.000, 0.000, 16:19:14.291
150, 15.30, 13.63, 6.33, 11.55, 0.000, 0.000, 0.000, 16:19:14.291
151, 5.65, 6.57, 9.34, 10.12, 0.000, 0.000, 0.000, 16:19:14.291
152, 2.45, 3.84, 17.83, 16.78, 0.000, 0.000, 0.000, 16:19:14.291
153, 10.00, 7.64, 7.61, 9.58, 0.000, 0.000, 0.000, 16:19:14.292
154, 14.12, 8.38, 8.06, 5.86, 0.000, 0.000, 0.000, 16:19:14.292
155, 2.26, 5.26, 12.03, 17.51, 0.000, 0.000, 0.000, 16:19:14.292
156, 4.35, 13.54, 9.94, 12.43, 0.000, 0.000, 0.000, 16:19:14.293
157, 12.92, 17.01, 5.18, 4.98, 0.000, 0.000, 0.000, 16:19:14.313
158, 4.64, 3.82, 11.20, 19.92, 0.000, 0.000, 0.000, 16:19:14.313
159, 5.61, 9.01, 13.90, 14.19, 0.000, 0.000, 0.000, 16:19:14.313
160, 12.06, 12.43, 6.10, 3.97, 0.000, 0.000, 0.000, 16:19:14.313
161, 4.36, 9.57, 11.69, 12.66, 0.000, 0.000, 0.000, 16:19:14.335
162, 7.19, 7.27, 15.29, 16.01, 0.000, 0.000, 0.000, 16:19:14.336
163, 3.58, 1.28, 5.70, 12.34, 0.000, 0.000, 0.000, 16:19:14.336
164, 7.84, 10.57, 6.63, 5.70, 0.000, 0.000, 0.000, 16:19:14.336
165, 1.75, 5.34, 17.04, 17.87, 0.000, 0.000, 0.000, 16:19:14.358
166, 4.53, 10.78, 7.54, 9.76, 0.000, 0.000, 0.000, 16:19:14.358
167, 9.22, 12.84, 6.00, 8.20, 0.000, 0.000, 0.000, 16:19:14.358
168, 5.50, 2.79, 13.70, 17.63, 0.000, 0.000, 0.000, 16:19:14.359
169, 6.58, 6.20, 13.98, 13.39, 0.000, 0.000, 0.000, 16:19:14.359
170, 10.24, 13.99, 8.11, 3.55, 0.000, 0.000, 0.000, 16:19:14.360
171, 6.34, 11.18, 12.55, 12.43, 0.000, 0.000, 0.000, 16:19:14.380
172, -1.08, 2.67, 16.49, 16.13, 0.000, 0.000, 0.000, 16:19:14.381
173, 7.65, 10.97, 10.10, 6.70, 0.000, 0.000, 0.000, 16:19:14.381
174, 9.33, 9.12, 11.18, 7.22, 0.000, 0.000, 0.000, 16:19:14.381
175, 1.73, 5.67, 20.34, 22.36, 0.000, 0.000, 0.000, 16:19:14.403
176, 6.33, 8.02, 9.17, 12.50, 0.000, 0.000, 0.000, 16:19:14.403
177, 12.08, 11.80, 2.81, 4.70, 0.000, 0.000, 0.000, 16:19:14.403
178, 2.87, 1.92, 11.42, 15.10, 0.000, 0.000, 0.000, 16:19:14.404
179, 5.54, 7.08, 13.71, 12.17, 0.000, 0.000, 0.000, 16:19:14.427
180, 15.27, 15.75, 5.62, 8.10, 0.000, 0.000, 0.000, 16:19:14.427
181, 2.14, 4.11, 15.93, 13.88, 0.000, 0.000, 0.000, 16:19:14.427
182, 2.91, 2.78, 15.16, 14.17, 0.000, 0.000, 0.000, 16:19:14.428
183, 13.03, 8.66, 7.65, 10.73, 0.000, 0.000, 0.000, 16:19:14.448
184, 8.21, 9.39, 10.99, 8.10, 0.000, 0.000, 0.000, 16:19:14.448
185, -2.45, 3.60, 14.14, 18.76, 0.000, 0.000, 0.000, 16:19:14.448
186, 6.50, 11.42, 10.36, 9.87, 0.000, 0.000, 0.000, 16:19:14.449
187, 13.39, 13.56, 5.32, 6.83, 0.000, 0.000, 0.000, 16:19:14.449
188, 6.06, 3.68, 12.29, 16.36, 0.000, 0.000, 0.000, 16:19:14.449
189, 6.95, 11.80, 14.01, 15.73, 0.000, 0.000, 0.000, 16:19:14.470
190, 9.35, 11.67, 4.95, 4.49, 0.000, 0.000, 0.000, 16:19:14.470
191, 3.52, 9.61, 10.08, 11.50, 0.000, 0.000, 0.000, 16:19:14.471
192, 2.32, 5.41, 14.41, 18.21, 0.000, 0.000, 0.000, 16:19:14.471
193, 9.55, 9.24, 10.74, 12.75, 0.000, 0.000, 0.000, 16:19:14.493
194, 6.15, 7.75, 4.24, 9.36, 0.000, 0.000, 0.000, 16:19:14.493
195, 6.87, 4.70, 18.92, 16.85, 0.000, 0.000, 0.000, 16:19:14.494
196, 6.00, 9.75, 9.51, 9.32, 0.000, 0.000, 0.000, 16:19:14.494
197, 9.73, 12.19, 7.50, 8.70, 0.000, 0.000, 0.000, 16:19:14.515
198, 8.29, 10.41, 14.16, 15.19, 0.000, 0.000, 0.000, 16:19:14.516
199, -1.74, 4.32, 12.03, 13.82, 0.000, 0.000, 0.000, 16:19:14.516
200, 14.20, 9.16, 7.14, 6.78, 0.000, 0.000, 0.000, 16:19:14.516
0, 5.88, 6.31, 12.62, 12.38, 0.000, 0.000, 0.000, 16:19:14.517
1, 2.79, 3.84, 13.90, 15.92, 0.000, 0.000, 0.000, 16:19:14.538
2, 9.78, 8.33, 9.45, 9.82, 0.000, 0.000, 0.000, 16:19:14.538
3, 2.15, 8.36, 9.17, 9.80, 0.000, 0.000, 0.000, 16:19:14.538
4, -1.17, 8.04, 15.55, 17.65, 0.000, 0.000, 0.000, 16:19:14.538
5, 5.90, 9.68, 8.31, 9.47, 0.000, 0.000, 0.000, 16:19:14.560
6, 15.71, 18.77, 8.23, 4.06, 0.000, 0.000, 0.000, 16:19:14.561
7, -3.20, -2.66, 15.77, 17.09, 0.000, 0.000, 0.000, 16:19:14.561
8, 8.18, 6.29, 16.09, 12.71, 0.000, 0.000, 0.000, 16:19:14.561
9, 9.03, 12.22, 8.91, 9.28, 0.000, 0.000, 0.000, 16:19:14.589
10, 7.25, 12.45, 8.73, 14.04, 0.000, 0.000, 0.000, 16:19:14.589
11, 1.37, 8.86, 15.94, 16.31, 0.000, 0.000, 0.000, 16:19:14.589
12, 9.03, 8.34, 5.58, 9.78, 0.000, 0.000, 0.000, 16:19:14.590
13, 7.06, 11.03, 7.66, 10.96, 0.000, 0.000, 0.000, 16:19:14.590
14, 1.92, 6.56, 18.15, 13.79, 0.000, 0.000, 0.000, 16:19:14.590
15, 10.34, 10.92, 9.62, 11.98, 0.000, 0.000, 0.000, 16:19:14.605
16, 5.71, 12.56, 1.28, 6.38, 0.000, 0.000, 0.000, 16:19:14.606
17, 8.29, -2.15, 18.76, 16.40, 0.000, 0.000, 0.000, 16:19:14.606
18, 9.35, 8.15, 11.72, 14.94, 0.000, 0.000, 0.000, 16:19:14.606
19, 10.48, 15.64, 7.27, 6.83, 0.000, 0.000, 0.000, 16:19:14.630
20, 3.94, 5.07, 11.68, 13.35, 0.000, 0.000, 0.000, 16:19:14.630
21, 0.56, 4.79, 13.75, 16.34, 0.000, 0.000, 0.000, 16:19:14.630
22, 8.64, 8.66, 7.25, 6.65, 0.000, 0.000, 0.000, 16:19:14.630
23, 6.35, 7.66, 11.28, 10.57, 0.000, 0.000, 0.000, 16:19:14.650
24, 8.59, 11.90, 14.36, 17.25, 0.000, 0.000, 0.000, 16:19:14.651
25, 3.72, 2.06, 11.20, 14.42, 0.000, 0.000, 0.000, 16:19:14.651
26, 10.61, 12.30, 4.17, 8.93, 0.000, 0.000, 0.000, 16:19:14.651
27, 1.31, 2.37, 13.16, 14.84, 0.000, 0.000, 0.000, 16:19:14.673
28, 6.06, 7.66, 10.60, 14.61, 0.000, 0.000, 0.000, 16:19:14.673
29, 8.98, 9.84, 9.78, 9.00, 0.000, 0.000, 0.000, 16:19:14.674
30, 7.48, 7.62, 10.30, 21.12, 0.000, 0.000, 0.000, 16:19:14.674
31, 4.41, 4.30, 12.21, 15.69, 0.000, 0.000, 0.000, 16:19:14.674
32, 10.72, 9.40, 10.12, 13.03, 0.000, 0.000, 0.000, 16:19:14.674
33, 6.51, 11.88, 8.84, 11.41, 0.000, 0.000, 0.000, 16:19:14.695
34, -2.53, 2.28, 15.32, 9.12, 0.000, 0.000, 0.000, 16:19:14.695
35, 6.85, 7.12, 10.60, 12.08, 0.000, 0.000, 0.000, 16:19:14.696
36, 13.12, 11.01, 11.52, 6.39, 0.000, 0.000, 0.000, 16:19:14.696
37, 5.34, 4.75, 20.22, 15.76, 0.000, 0.000, 0.000, 16:19:14.718
38, 0.91, 8.60, 11.25, 10.95, 0.000, 0.000, 0.000, 16:19:14.718
39, 8.67, 11.15, 8.13, 9.66, 0.000, 0.000, 0.000, 16:19:14.719
40, 4.91, 6.95, 12.19, 11.60, 0.000, 0.000, 0.000, 16:19:14.719
41, 3.21, 5.09, 14.28, 13.19, 0.000, 0.000, 0.000, 16:19:14.740
42, 15.27, 13.58, 8.48, 12.00, 0.000, 0.000, 0.000, 16:19:14.741
43, 6.97, 4.28, 9.03, 12.69, 0.000, 0.000, 0.000, 16:19:14.741
44, 1.54, 4.55, 17.37, 13.37, 0.000, 0.000, 0.000, 16:19:14.741
45, 5.11, 11.45, 7.74, 14.31, 0.000, 0.000, 0.000, 16:19:14.763
46, 9.10, 15.32, 11.01, 11.67, 0.000, 0.000, 0.000, 16:19:14.763
47, 1.77, 3.32, 14.40, 13.25, 0.000, 0.000, 0.000, 16:19:14.764
48, 10.63, 7.50, 11.43, 11.24, 0.000, 0.000, 0.000, 16:19:14.764
49, 10.21, 12.51, 7.94, 10.79, 0.000, 0.000, 0.000, 16:19:14.764
50, 4.97, 6.72, 11.65, 13.24, 0.000, 0.000, 0.000, 16:19:14.764
51, 2.55, 7.27, 10.22, 13.31, 0.000, 0.000, 0.000, 16:19:14.785
52, 6.67, 6.70, 10.17, 3.93, 0.000, 0.000, 0.000, 16:19:14.786
53, 11.29, 7.03, 8.99, 11.08, 0.000, 0.000, 0.000, 16:19:14.786
54, -1.01, 5.08, 14.58, 16.17, 0.000, 0.000, 0.000, 16:19:14.786
55, 7.73, 13.05, 12.50, 9.34, 0.000, 0.000, 0.000, 16:19:14.808
56, 7.64, 13.02, 6.53, 4.32, 0.000, 0.000, 0.000, 16:19:14.808
57, 6.18, 9.78, 16.52, 16.51, 0.000, 0.000, 0.000, 16:19:14.809
58, 8.93, 7.32, 8.66, 11.99, 0.000, 0.000, 0.000, 16:19:14.809
59, 11.45, 13.19, 9.72, 7.28, 0.000, 0.000, 0.000, 16:19:14.830
60, 11.12, 11.36, 7.42, 11.44, 0.000, 0.000, 0.000, 16:19:14.830
61, 1.00, 1.16, 14.82, 16.50, 0.000, 0.000, 0.000, 16:19:14.853
62, 9.50, 11.32, 9.38, 10.40, 0.000, 0.000, 0.000, 16:19:14.853
63, 9.45, 8.05, 12.96, 13.19, 0.000, 0.000, 0.000, 16:19:14.854
64, 6.63, 4.83, 15.46, 12.82, 0.000, 0.000, 0.000, 16:19:14.854
65, 10.81, 12.19, 11.46, 10.48, 0.000, 0.000, 0.000, 16:19:14.854
66, 10.62, 8.09, 6.33, 6.85, 0.000, 0.000, 0.000, 16:19:14.854
67, 4.92, 4.32, 14.51, 14.28, 0.000, 0.000, 0.000, 16:19:14.876
68, 0.01, 5.08, 12.73, 12.86, 0.000, 0.000, 0.000, 16:19:14.877
69, 5.96, 10.47, 6.09, 9.25, 0.000, 0.000, 0.000, 16:19:14.877
70, 7.48, 8.79, 13.73, 14.60, 0.000, 0.000, 0.000, 16:19:14.877
71, 4.85, 6.20, 13.65, 12.08, 0.000, 0.000, 0.000, 16:19:14.877
72, 3.32, 9.29, 8.04, 8.70, 0.000, 0.000, 0.000, 16:19:14.878
73, 7.25, 11.66, 9.42, 10.99, 0.000, 0.000, 0.000, 16:19:14.898
74, 0.65, 5.88, 11.10, 11.21, 0.000, 0.000, 0.000, 16:19:14.898
75, 6.72, 8.35, 14.34, 17.10, 0.000, 0.000, 0.000, 16:19:14.899
76, 13.45, 15.71, 8.07, 11.54, 0.000, 0.000, 0.000, 16:19:14.899
77, 6.60, 3.88, 12.53, 18.56, 0.000, 0.000, 0.000, 16:19:14.920
78, 8.91, 13.31, 11.60, 10.82, 0.000, 0.000, 0.000, 16:19:14.920
79, 6.69, 9.11, 12.74, 10.06, 0.000, 0.000, 0.000, 16:19:14.921
80, 3.21, 5.64, 11.20, 11.99, 0.000, 0.000, 0.000, 16:19:14.921
81, 2.99, 2.28, 13.99, 13.43, 0.000, 0.000, 0.000, 16:19:14.943
82, 5.77, 10.07, 8.93, 9.62, 0.000, 0.000, 0.000, 16:19:14.944
83, 6.19, 7.83, 8.71, 15.26, 0.000, 0.000, 0.000, 16:19:14.944
84, 2.07, 5.59, 16.61, 13.39, 0.000, 0.000, 0.000, 16:19:14.944
85, 6.75, 10.53, 9.20, 11.21, 0.000, 0.000, 0.000, 16:19:14.944
86, 9.91, 18.65, 5.58, 8.27, 0.000, 0.000, 0.000, 16:19:14.944
87, 7.66, 5.36, 10.23, 11.45, 0.000, 0.000, 0.000, 16:19:14.966
88, 2.43, 3.81, 10.75, 14.25, 0.000, 0.000, 0.000, 16:19:14.966
89, 6.62, 11.18, 7.45, 11.63, 0.000, 0.000, 0.000, 16:19:14.966
90, 4.01, 8.10, 15.75, 13.06, 0.000, 0.000, 0.000, 16:19:14.966
91, 4.31, 4.27, 13.31, 15.61, 0.000, 0.000, 0.000, 16:19:14.988
92, 7.57, 9.47, 5.67, 10.62, 0.000, 0.000, 0.000, 16:19:14.988
93, 9.96, 12.04, 9.81, 9.13, 0.000, 0.000, 0.000, 16:19:14.988
94, 2.77, 4.56, 10.81, 16.68, 0.000, 0.000, 0.000, 16:19:14.989
95, 8.24, 5.31, 8.90, 12.17, 0.000, 0.000, 0.000, 16:19:15.010
96, 18.02, 15.96, 8.87, 12.02, 0.000, 0.000, 0.000, 16:19:15.011
97, -3.49, 1.99, 16.31, 16.38, 0.000, 0.000, 0.000, 16:19:15.011
98, 6.77, 8.44, 8.25, 13.95, 0.000, 0.000, 0.000, 16:19:15.011
99, 10.44, 9.82, 10.93, 8.09, 0.000, 0.000, 0.000, 16:19:15.033
100, 5.66, 6.40, 12.10, 6.83, 0.000, 0.000, 0.000, 16:19:15.033
101, 0.98, -0.89, 12.56, 8.69, 0.000, 0.000, 0.000, 16:19:15.033
102, 13.26, 10.37, 9.11, 9.25, 0.000, 0.000, 0.000, 16:19:15.034
103, 9.92, 8.06, 10.42, 9.50, 0.000, 0.000, 0.000, 16:19:15.034
104, -0.71, 3.34, 14.59, 15.20, 0.000, 0.000, 0.000, 16:19:15.034
105, 10.48, 10.24, 8.98, 9.64, 0.000, 0.000, 0.000, 16:19:15.056
106, 7.80, 10.98, 8.30, 7.53, 0.000, 0.000, 0.000, 16:19:15.056
107, 1.12, 6.65, 12.21, 14.63, 0.000, 0.000, 0.000, 16:19:15.056
108, 1.13, 8.61, 10.48, 13.37, 0.000, 0.000, 0.000, 16:19:15.056
109, 12.10, 12.66, 8.74, 12.25, 0.000, 0.000, 0.000, 16:19:15.078
110, 2.17, 5.55, 12.81, 12.72, 0.000, 0.000, 0.000, 16:19:15.078
111, 0.97, 6.67, 16.62, 16.43, 0.000, 0.000, 0.000, 16:19:15.078
112, 6.92, 11.82, 7.29, 8.30, 0.000, 0.000, 0.000, 16:19:15.079
113, 11.94, 12.74, 11.58, 10.96, 0.000, 0.000, 0.000, 16:19:15.100
114, 5.76, 8.16, 15.52, 13.97, 0.000, 0.000, 0.000, 16:19:15.101
115, -0.26, 6.20, 11.24, 10.35, 0.000, 0.000, 0.000, 16:19:15.101
116, 13.08, 10.45, 4.87, 8.53, 0.000, 0.000, 0.000, 16:19:15.101
117, 2.08, 3.84, 15.07, 17.04, 0.000, 0.000, 0.000, 16:19:15.123
118, -0.05, 6.65, 11.19, 9.70, 0.000, 0.000, 0.000, 16:19:15.124
119, 9.01, 10.04, 7.41, 11.63, 0.000, 0.000, 0.000, 16:19:15.124
120, 7.77, 4.62, 10.27, 11.03, 0.000, 0.000, 0.000, 16:19:15.124
121, -1.21, 4.15, 12.39, 11.71, 0.000, 0.000, 0.000, 16:19:15.124
122, 8.43, 9.71, 13.78, 10.07, 0.000, 0.000, 0.000, 16:19:15.125
123, 13.05, 11.97, 9.38, 11.85, 0.000, 0.000, 0.000, 16:19:15.145
124, -1.26, 4.81, 16.26, 11.83, 0.000, 0.000, 0.000, 16:19:15.146
125, 9.03, 11.65, 10.82, 8.93, 0.000, 0.000, 0.000, 16:19:15.146
126, 13.70, 13.83, 11.12, 12.17, 0.000, 0.000, 0.000, 16:19:15.146
127, 6.27, 4.25, 11.95, 13.08, 0.000, 0.000, 0.000, 16:19:15.168
128, -0.96, 4.05, 11.20, 14.05, 0.000, 0.000, 0.000, 16:19:15.168
129, 12.33, 16.38, 6.80, 11.26, 0.000, 0.000, 0.000, 16:19:15.168
130, 6.35, 6.25, 10.12, 15.59, 0.000, 0.000, 0.000, 16:19:15.169
131, 0.42, 5.25, 12.96, 9.92, 0.000, 0.000, 0.000, 16:19:15.191
132, 13.63, 14.90, 6.21, 10.69, 0.000, 0.000, 0.000, 16:19:15.191
133, 6.16, 6.95, 10.86, 10.97, 0.000, 0.000, 0.000, 16:19:15.191
134, -1.28, 0.25, 13.46, 13.74, 0.000, 0.000, 0.000, 16:19:15.191
135, 6.77, 7.59, 8.72, 14.87, 0.000, 0.000, 0.000, 16:19:15.213
136, 12.03, 16.96, 12.13, 11.03, 0.000, 0.000, 0.000, 16:19:15.213
137, -2.11, 8.62, 15.86, 13.95, 0.000, 0.000, 0.000, 16:19:15.213
138, 4.94, 10.32, 10.16, 13.28, 0.000, 0.000, 0.000, 16:19:15.214
139, 10.84, 13.58, 10.65, 13.03, 0.000, 0.000, 0.000, 16:19:15.214
140, 5.19, 6.20, 14.14, 16.84, 0.000, 0.000, 0.000, 16:19:15.214
141, 6.37, 5.42, 9.88, 11.63, 0.000, 0.000, 0.000, 16:19:15.235
142, 6.80, 5.13, 9.49, 9.31, 0.000, 0.000, 0.000, 16:19:15.236
143, 4.92, 10.38, 8.96, 11.84, 0.000, 0.000, 0.000, 16:19:15.236
144, 0.39, 3.86, 12.39, 14.25, 0.000, 0.000, 0.000, 16:19:15.236
145, 2.83, 5.22, 9.99, 9.11, 0.000, 0.000, 0.000, 16:19:15.258
146, 13.68, 7.34, 11.07, 12.40, 0.000, 0.000, 0.000, 16:19:15.258
147, 5.98, 5.48, 11.12, 13.62, 0.000, 0.000, 0.000, 16:19:15.259
148, 6.90, 8.32, 8.29, 10.87, 0.000, 0.000, 0.000, 16:19:15.259
149, 12.94, 12.89, 6.83, 8.64, 0.000, 0.000, 0.000, 16:19:15.280
150, 11.02, 16.15, 9.42, 11.47, 0.000, 0.000, 0.000, 16:19:15.281
151, -5.03, -0.88, 9.88, 16.67, 0.000, 0.000, 0.000, 16:19:15.281
152, 9.41, 11.74, 10.70, 9.30, 0.000, 0.000, 0.000, 16:19:15.281
153, 14.49, 9.52, 12.62, 8.06, 0.000, 0.000, 0.000, 16:19:15.303
154, 0.30, 4.40, 14.56, 13.99, 0.000, 0.000, 0.000, 16:19:15.303
155, 6.98, 10.23, 10.97, 10.93, 0.000, 0.000, 0.000, 16:19:15.304
156, 8.02, 11.62, 11.84, 9.96, 0.000, 0.000, 0.000, 16:19:15.304
157, 5.54, 5.75, 13.51, 11.42, 0.000, 0.000, 0.000, 16:19:15.304
158, 3.63, 9.23, 9.82, 11.26, 0.000, 0.000, 0.000, 16:19:15.304
159, 14.74, 9.04, 5.44, 7.39, 0.000, 0.000, 0.000, 16:19:15.326
160, 3.10, 3.48, 16.09, 13.65, 0.000, 0.000, 0.000, 16:19:15.326
161, 2.86, 1.36, 13.08, 11.61, 0.000, 0.000, 0.000, 16:19:15.326
162, 13.05, 11.08, 14.68, 11.22, 0.000, 0.000, 0.000, 16:19:15.326
163, 14.39, 14.16, 9.77, 10.59, 0.000, 0.000, 0.000, 16:19:15.348
164, -0.29, 5.18, 13.74, 15.40, 0.000, 0.000, 0.000, 16:19:15.348
165, 6.27, 7.42, 6.85, 8.15, 0.000, 0.000, 0.000, 16:19:15.349
166, 11.81, 10.63, 8.64, 11.00, 0.000, 0.000, 0.000, 16:19:15.349
167, 4.93, 6.31, 11.83, 12.55, 0.000, 0.000, 0.000, 16:19:15.371
168, 12.36, 6.98, 12.39, 11.93, 0.000, 0.000, 0.000, 16:19:15.371
169, 5.53, 6.86, 9.11, 9.90, 0.000, 0.000, 0.000, 16:19:15.371
170, 3.99, 10.30, 11.14, 12.12, 0.000, 0.000, 0.000, 16:19:15.371
171, 4.50, 2.53, 14.00, 15.17, 0.000, 0.000, 0.000, 16:19:15.393
172, 7.12, 12.45, 7.30, 12.11, 0.000, 0.000, 0.000, 16:19:15.393
173, 8.86, 9.71, 9.49, 11.27, 0.000, 0.000, 0.000, 16:19:15.394
174, 0.24, 6.58, 15.33, 16.67, 0.000, 0.000, 0.000, 16:19:15.394
175, 4.45, 7.94, 12.05, 12.12, 0.000, 0.000, 0.000, 16:19:15.394
176, 13.33, 15.48, 11.60, 13.62, 0.000, 0.000, 0.000, 16:19:15.394
177, 7.01, 7.66, 12.81, 18.68, 0.000, 0.000, 0.000, 16:19:15.415
178, -0.59, 6.78, 12.99, 11.76, 0.000, 0.000, 0.000, 16:19:15.416
179, 11.02, 10.12, 7.07, 11.31, 0.000, 0.000, 0.000, 16:19:15.416
180, 5.50, 6.57, 10.93, 13.76, 0.000, 0.000, 0.000, 16:19:15.416
181, 2.57, 2.43, 12.95, 14.81, 0.000, 0.000, 0.000, 16:19:15.438
182, 8.49, 7.99, 10.11, 9.98, 0.000, 0.000, 0.000, 16:19:15.438
183, 11.37, 14.61, 9.44, 14.18, 0.000, 0.000, 0.000, 16:19:15.439
184, 0.92, 4.41, 14.40, 16.87, 0.000, 0.000, 0.000, 16:19:15.439
185, 6.47, 7.29, 13.44, 11.77, 0.000, 0.000, 0.000, 16:19:15.460
186, 18.00, 14.65, 11.98, 6.92, 0.000, 0.000, 0.000, 16:19:15.461
187, -6.62, 1.14, 11.85, 16.05, 0.000, 0.000, 0.000, 16:19:15.461
188, 2.95, 5.08, 11.99, 11.06, 0.000, 0.000, 0.000, 16:19:15.461
189, 13.51, 11.45, 6.58, 11.23, 0.000, 0.000, 0.000, 16:19:15.483
190, 5.74, 9.71, 12.88, 12.78, 0.000, 0.000, 0.000, 16:19:15.483
191, 2.63, 4.48, 11.27, 14.02, 0.000, 0.000, 0.000, 16:19:15.483
192, 7.27, 9.89, 10.34, 8.64, 0.000, 0.000, 0.000, 16:19:15.484
193, 11.76, 11.55, 11.71, 14.37, 0.000, 0.000, 0.000, 16:19:15.484
194, -1.33, 4.09, 12.74, 14.38, 0.000, 0.000, 0.000, 16:19:15.484
195, 9.06, 11.25, 8.07, 10.93, 0.000, 0.000, 0.000, 16:19:15.506
196, 8.31, 11.70, 6.35, 8.97, 0.000, 0.000, 0.000, 16:19:15.506
197, 5.86, 4.31, 13.04, 13.36, 0.000, 0.000, 0.000, 16:19:15.506
198, 3.24, 9.96, 6.15, 7.48, 0.000, 0.000, 0.000, 16:19:15.506
199, 11.08, 12.43, 6.79, 8.14, 0.000, 0.000, 0.000, 16:19:15.528
200, 6.94, 7.94, 11.33, 14.19, 0.000, 0.000, 0.000, 16:19:15.528
0, 2.98, 3.93, 11.82, 12.22, 0.000, 0.000, 0.000, 16:19:15.529
1, 7.39, 11.44, 7.58, 10.77, 0.000, 0.000, 0.000, 16:19:15.529
2, 7.38, 12.16, 9.39, 9.12, 0.000, 0.000, 0.000, 16:19:15.529
3, 2.07, 5.41, 11.68, 16.66, 0.000, 0.000, 0.000, 16:19:15.551
4, 5.18, 4.79, 11.33, 12.16, 0.000, 0.000, 0.000, 16:19:15.551
5, 9.46, 11.65, 8.63, 8.54, 0.000, 0.000, 0.000, 16:19:15.551
6, 1.40, 3.52, 12.44, 14.15, 0.000, 0.000, 0.000, 16:19:15.551
7, 3.48, 5.91, 11.74, 12.03, 0.000, 0.000, 0.000, 16:19:15.573
8, 8.99, 8.78, 8.23, 9.57, 0.000, 0.000, 0.000, 16:19:15.574
9, 7.35, 9.75, 13.94, 14.09, 0.000, 0.000, 0.000, 16:19:15.574
10, 0.81, 3.68, 12.81, 16.15, 0.000, 0.000, 0.000, 16:19:15.574
11, 8.24, 12.32, 13.50, 9.00, 0.000, 0.000, 0.000, 16:19:15.596
12, 18.00, 15.44, 12.01, 11.66, 0.000, 0.000, 0.000, 16:19:15.596
13, -0.04, -2.21, 12.80, 13.87, 0.000, 0.000, 0.000, 16:19:15.596
14, 2.45, 7.00, 10.73, 13.17, 0.000, 0.000, 0.000, 16:19:15.596
15, 8.73, 12.18, 5.47, 8.40, 0.000, 0.000, 0.000, 16:19:15.618
16, 5.39, 6.80, 10.49, 14.17, 0.000, 0.000, 0.000, 16:19:15.618
17, 3.92, 4.28, 12.70, 10.77, 0.000, 0.000, 0.000, 16:19:15.618
18, 14.25, 16.30, 10.63, 7.67, 0.000, 0.000, 0.000, 16:19:15.618
19, 4.71, 9.14, 13.60, 13.75, 0.000, 0.000, 0.000, 16:19:15.619
20, 2.69, 5.57, 11.74, 13.30, 0.000, 0.000, 0.000, 16:19:15.619
21, 13.47, 10.08, 13.61, 13.01, 0.000, 0.000, 0.000, 16:19:15.640
22, 3.21, 10.74, 9.33, 11.35, 0.000, 0.000, 0.000, 16:19:15.641
23, 1.28, 5.60, 14.35, 11.09, 0.000, 0.000, 0.000, 16:19:15.641
24, 5.74, 11.79, 8.66, 11.98, 0.000, 0.000, 0.000, 16:19:15.641
25, 10.32, 11.45, 7.48, 8.78, 0.000, 0.000, 0.000, 16:19:15.663
26, 3.96, 1.96, 13.76, 13.41, 0.000, 0.000, 0.000, 16:19:15.663
27, 3.35, 9.45, 12.97, 9.65, 0.000, 0.000, 0.000, 16:19:15.664
28, 11.26, 13.04, 9.65, 7.38, 0.000, 0.000, 0.000, 16:19:15.664
29, 10.03, 10.09, 13.65, 12.14, 0.000, 0.000, 0.000, 16:19:15.685
30, 6.45, 8.95, 7.79, 8.82, 0.000, 0.000, 0.000, 16:19:15.686
31, -2.18, 1.73, 9.70, 10.32, 0.000, 0.000, 0.000, 16:19:15.686
32, 10.81, 8.77, 12.76, 12.14, 0.000, 0.000, 0.000, 16:19:15.686
33, 4.24, 4.28, 15.10, 15.61, 0.000, 0.000, 0.000, 16:19:15.708
34, 12.15, 10.99, 8.67, 10.77, 0.000, 0.000, 0.000, 16:19:15.708
35, 11.41, 8.88, 5.74, 5.24, 0.000, 0.000, 0.000, 16:19:15.708
