%OpenBCI Raw EEG Data
%
%Sample Rate = 200.0 Hz
%First Column = SampleIndex
%Last Column = Timestamp 
%Other Columns = EEG data in microvolts followed by Accel Data (in G) interleaved with Aux Data
0, 170.55, -204.24, -731.96, -1461.87, 0.000, 0.000, 0.000, 15:39:37.231
1, -348.06, -134.04, -765.43, -689.51, 0.000, 0.000, 0.000, 15:39:37.262
2, -398.83, -240.83, -1083.91, -1091.33, 0.000, 0.000, 0.000, 15:39:37.262
3, 118.31, -243.81, -875.57, -1602.87, 0.000, 0.000, 0.000, 15:39:37.263
4, -140.23, -105.94, -675.73, -1186.89, 0.000, 0.000, 0.000, 15:39:37.264
5, -466.43, -179.23, -1018.46, -710.97, 0.000, 0.000, 0.000, 15:39:37.264
6, -33.58, -269.48, -1001.29, -1262.22, 0.000, 0.000, 0.000, 15:39:37.265
7, 72.98, -137.35, -645.52, -883.25, 0.000, 0.000, 0.000, 15:39:37.266
8, -452.89, -159.01, -893.10, -552.90, 0.000, 0.000, 0.000, 15:39:37.266
9, -228.71, -264.36, -1067.74, -668.07, 0.000, 0.000, 0.000, 15:39:37.289
10, 178.97, -187.65, -724.52, -1430.74, 0.000, 0.000, 0.000, 15:39:37.290
11, -342.25, -113.79, -762.16, -715.05, 0.000, 0.000, 0.000, 15:39:37.319
12, -389.69, -222.80, -1084.28, -1104.77, 0.000, 0.000, 0.000, 15:39:37.319
13, 132.55, -248.31, -873.66, -1571.17, 0.000, 0.000, 0.000, 15:39:37.320
14, -148.14, -122.95, -670.24, -1188.59, 0.000, 0.000, 0.000, 15:39:37.320
15, -459.91, -189.47, -1019.42, -718.06, 0.000, 0.000, 0.000, 15:39:37.353
16, -31.06, -268.49, -1000.89, -1258.55, 0.000, 0.000, 0.000, 15:39:37.353
17, 68.40, -139.43, -653.56, -882.53, 0.000, 0.000, 0.000, 15:39:37.354
18, -446.56, -145.64, -901.09, -563.11, 0.000, 0.000, 0.000, 15:39:37.355
19, -236.14, -288.53, -1070.85, -669.95, 0.000, 0.000, 0.000, 15:39:37.355
20, 193.98, -195.71, -719.44, -1425.92, 0.000, 0.000, 0.000, 15:39:37.356
21, -345.47, -111.77, -760.15, -724.67, 0.000, 0.000, 0.000, 15:39:37.357
22, -387.98, -220.64, -1082.11, -1089.26, 0.000, 0.000, 0.000, 15:39:37.358
23, 137.07, -238.52, -873.00, -1565.22, 0.000, 0.000, 0.000, 15:39:37.379
24, -142.79, -124.86, -667.96, -1209.85, 0.000, 0.000, 0.000, 15:39:37.379
25, -451.36, -175.68, -1021.98, -692.99, 0.000, 0.000, 0.000, 15:39:37.409
26, -32.53, -286.88, -997.44, -1254.78, 0.000, 0.000, 0.000, 15:39:37.409
29, 150.67, -423.56, -1169.81, -1394.19, 0.000, 0.000, 0.000, 15:39:37.411
30, 595.53, -334.20, -827.51, -2148.50, 0.000, 0.000, 0.000, 15:39:37.411
31, 76.80, -275.09, -860.52, -1420.17, 0.000, 0.000, 0.000, 15:39:37.438
32, 3.77, -389.66, -1179.30, -1810.67, 0.000, 0.000, 0.000, 15:39:37.439
33, 545.95, -392.54, -966.01, -2262.80, 0.000, 0.000, 0.000, 15:39:37.440
34, 253.73, -286.33, -758.28, -1937.29, 0.000, 0.000, 0.000, 15:39:37.440
35, -49.56, -338.69, -1120.26, -1406.54, 0.000, 0.000, 0.000, 15:39:37.441
36, 375.89, -431.67, -1106.88, -1947.00, 0.000, 0.000, 0.000, 15:39:37.441
37, 457.56, -308.04, -734.42, -1642.95, 0.000, 0.000, 0.000, 15:39:37.442
38, -31.23, -287.07, -1000.06, -1253.30, 0.000, 0.000, 0.000, 15:39:37.442
41, -533.93, -210.91, -1040.50, -511.99, 0.000, 0.000, 0.000, 15:39:37.469
42, -612.36, -347.47, -1372.48, -896.47, 0.000, 0.000, 0.000, 15:39:37.470
43, -76.62, -340.59, -1171.10, -1374.91, 0.000, 0.000, 0.000, 15:39:37.498
44, -360.53, -206.81, -955.56, -1032.64, 0.000, 0.000, 0.000, 15:39:37.499
47, -261.57, -97.88, -599.73, -744.08, 0.000, 0.000, 0.000, 15:39:37.500
48, -780.26, -85.45, -845.78, -341.19, 0.000, 0.000, 0.000, 15:39:37.500
49, -584.53, -203.12, -1028.45, -444.72, 0.000, 0.000, 0.000, 15:39:37.529
50, -156.65, -142.64, -669.96, -1285.82, 0.000, 0.000, 0.000, 15:39:37.529
51, -649.89, -49.54, -718.00, -522.08, 0.000, 0.000, 0.000, 15:39:37.530
52, -739.12, -175.62, -1037.54, -888.13, 0.000, 0.000, 0.000, 15:39:37.530
53, -204.92, -184.74, -822.17, -1381.77, 0.000, 0.000, 0.000, 15:39:37.531
54, -464.62, -55.41, -608.89, -1036.42, 0.000, 0.000, 0.000, 15:39:37.531
55, -811.46, -139.51, -970.78, -502.38, 0.000, 0.000, 0.000, 15:39:37.531
56, -363.25, -206.06, -962.81, -1019.86, 0.000, 0.000, 0.000, 15:39:37.532
59, -136.62, -317.61, -1133.64, -1089.37, 0.000, 0.000, 0.000, 15:39:37.561
60, 269.14, -263.06, -796.75, -1952.08, 0.000, 0.000, 0.000, 15:39:37.562
61, -224.80, -163.03, -824.96, -1178.72, 0.000, 0.000, 0.000, 15:39:37.595
62, -313.09, -288.48, -1146.34, -1536.29, 0.000, 0.000, 0.000, 15:39:37.596
65, -668.40, -366.95, -1501.96, -1007.57, 0.000, 0.000, 0.000, 15:39:37.596
66, -232.43, -447.34, -1477.33, -1518.72, 0.000, 0.000, 0.000, 15:39:37.596
67, -111.91, -325.89, -1133.47, -1268.56, 0.000, 0.000, 0.000, 15:39:37.618
68, -641.75, -330.56, -1375.54, -868.45, 0.000, 0.000, 0.000, 15:39:37.619
69, -444.72, -431.48, -1565.19, -932.56, 0.000, 0.000, 0.000, 15:39:37.619
70, -16.60, -380.78, -1216.24, -1808.50, 0.000, 0.000, 0.000, 15:39:37.620
71, -519.73, -300.27, -1233.65, -1026.23, 0.000, 0.000, 0.000, 15:39:37.621
72, -594.08, -413.42, -1571.04, -1362.92, 0.000, 0.000, 0.000, 15:39:37.621
73, -65.32, -428.48, -1361.59, -1887.40, 0.000, 0.000, 0.000, 15:39:37.622
74, -305.92, -280.14, -1152.30, -1556.32, 0.000, 0.000, 0.000, 15:39:37.622
77, -161.38, -157.17, -789.33, -1294.40, 0.000, 0.000, 0.000, 15:39:37.648
78, -695.88, -161.12, -1030.77, -881.18, 0.000, 0.000, 0.000, 15:39:37.649
79, -498.42, -277.72, -1220.42, -950.68, 0.000, 0.000, 0.000, 15:39:37.678
80, -70.44, -216.42, -874.61, -1817.51, 0.000, 0.000, 0.000, 15:39:37.679
83, 452.39, -240.07, -687.54, -2364.86, 0.000, 0.000, 0.000, 15:39:37.680
84, 213.45, -116.70, -478.82, -2044.45, 0.000, 0.000, 0.000, 15:39:37.680
85, -142.08, -163.46, -819.51, -1449.67, 0.000, 0.000, 0.000, 15:39:37.708
86, 275.09, -262.71, -822.88, -1997.55, 0.000, 0.000, 0.000, 15:39:37.709
87, 426.96, -131.06, -452.48, -1750.55, 0.000, 0.000, 0.000, 15:39:37.710
88, -98.59, -122.94, -699.16, -1318.62, 0.000, 0.000, 0.000, 15:39:37.710
89, 63.52, -257.31, -878.01, -1391.58, 0.000, 0.000, 0.000, 15:39:37.711
90, 515.08, -177.36, -549.54, -2277.23, 0.000, 0.000, 0.000, 15:39:37.711
91, 15.48, -109.09, -554.84, -1516.28, 0.000, 0.000, 0.000, 15:39:37.712
92, -65.91, -224.85, -879.57, -1814.11, 0.000, 0.000, 0.000, 15:39:37.712
95, -395.92, -278.60, -1239.12, -1203.12, 0.000, 0.000, 0.000, 15:39:37.738
96, 10.23, -376.92, -1262.87, -1757.52, 0.000, 0.000, 0.000, 15:39:37.739
97, 143.81, -255.78, -883.84, -1534.87, 0.000, 0.000, 0.000, 15:39:37.768
98, -373.95, -239.28, -1123.84, -1072.98, 0.000, 0.000, 0.000, 15:39:37.769
101, -873.63, -153.51, -1154.22, -315.09, 0.000, 0.000, 0.000, 15:39:37.769
102, -988.43, -280.20, -1474.13, -628.65, 0.000, 0.000, 0.000, 15:39:37.770
103, -438.22, -289.47, -1280.37, -1146.22, 0.000, 0.000, 0.000, 15:39:37.798
104, -688.02, -150.74, -1041.87, -862.94, 0.000, 0.000, 0.000, 15:39:37.799
105, -1034.10, -223.87, -1380.73, -246.44, 0.000, 0.000, 0.000, 15:39:37.800
106, -597.18, -305.60, -1411.32, -765.79, 0.000, 0.000, 0.000, 15:39:37.801
107, -481.90, -204.62, -1048.04, -582.99, 0.000, 0.000, 0.000, 15:39:37.801
108, -996.95, -181.06, -1284.58, -114.94, 0.000, 0.000, 0.000, 15:39:37.802
109, -850.95, -322.42, -1470.64, -171.24, 0.000, 0.000, 0.000, 15:39:37.802
110, -394.88, -259.51, -1125.33, -1092.82, 0.000, 0.000, 0.000, 15:39:37.803
113, 149.45, -272.29, -915.22, -1616.87, 0.000, 0.000, 0.000, 15:39:37.829
114, -91.12, -150.29, -685.37, -1337.26, 0.000, 0.000, 0.000, 15:39:37.829
115, -460.01, -230.37, -1050.30, -722.49, 0.000, 0.000, 0.000, 15:39:37.858
116, -34.41, -295.29, -1058.71, -1227.35, 0.000, 0.000, 0.000, 15:39:37.859
119, 144.18, -406.47, -1264.73, -1253.62, 0.000, 0.000, 0.000, 15:39:37.859
120, 579.24, -361.11, -925.36, -2221.62, 0.000, 0.000, 0.000, 15:39:37.860
121, 131.84, -250.02, -931.61, -1409.60, 0.000, 0.000, 0.000, 15:39:37.889
122, 31.84, -377.62, -1255.62, -1664.06, 0.000, 0.000, 0.000, 15:39:37.890
123, 565.63, -395.83, -1081.48, -2179.13, 0.000, 0.000, 0.000, 15:39:37.891
124, 364.67, -249.92, -866.79, -1868.09, 0.000, 0.000, 0.000, 15:39:37.891
125, -1.88, -335.70, -1230.68, -1362.73, 0.000, 0.000, 0.000, 15:39:37.892
126, 416.44, -409.79, -1217.20, -1964.47, 0.000, 0.000, 0.000, 15:39:37.892
127, 543.11, -276.01, -812.93, -1836.04, 0.000, 0.000, 0.000, 15:39:37.893
128, -21.54, -273.92, -1016.70, -1346.89, 0.000, 0.000, 0.000, 15:39:37.893
131, -490.83, -175.09, -1023.07, -520.19, 0.000, 0.000, 0.000, 15:39:37.918
132, -611.05, -300.45, -1360.30, -724.79, 0.000, 0.000, 0.000, 15:39:37.919
133, -89.72, -312.48, -1190.81, -1327.02, 0.000, 0.000, 0.000, 15:39:37.948
134, -282.87, -158.13, -948.59, -1051.84, 0.000, 0.000, 0.000, 15:39:37.949
137, -110.34, -33.23, -582.65, -953.41, 0.000, 0.000, 0.000, 15:39:37.950
138, -650.31, -31.19, -792.86, -425.40, 0.000, 0.000, 0.000, 15:39:37.950
139, -474.99, -146.58, -1030.61, -449.35, 0.000, 0.000, 0.000, 15:39:37.978
140, -17.75, -88.47, -687.16, -495.20, 0.000, 0.000, 0.000, 15:39:37.979
141, -510.45, -8.86, -674.07, 300.25, 0.000, 0.000, 0.000, 15:39:37.979
142, -618.84, -107.04, -1011.19, 103.44, 0.000, 0.000, 0.000, 15:39:37.980
143, -94.63, -145.70, -823.54, -521.00, 0.000, 0.000, 0.000, 15:39:37.980
144, -293.90, -16.74, -577.30, -264.69, 0.000, 0.000, 0.000, 15:39:37.981
145, -673.35, -57.89, -947.41, 444.94, 0.000, 0.000, 0.000, 15:39:37.981
146, -278.50, -171.57, -969.53, -113.03, 0.000, 0.000, 0.000, 15:39:37.981
149, -129.94, -299.02, -1199.00, -135.23, 0.000, 0.000, 0.000, 15:39:38.008
150, 332.51, -234.28, -857.28, -169.93, 0.000, 0.000, 0.000, 15:39:38.009
151, -158.94, -160.58, -832.89, 625.47, 0.000, 0.000, 0.000, 15:39:38.039
152, -270.66, -266.99, -1170.42, 425.28, 0.000, 0.000, 0.000, 15:39:38.041
155, -652.13, -322.58, -1513.57, 1191.36, 0.000, 0.000, 0.000, 15:39:38.042
156, -262.70, -412.69, -1538.56, 612.63, 0.000, 0.000, 0.000, 15:39:38.042
157, -65.11, -289.21, -1170.18, 695.36, 0.000, 0.000, 0.000, 15:39:38.068
158, -618.27, -276.75, -1387.32, 1347.50, 0.000, 0.000, 0.000, 15:39:38.069
159, -477.43, -412.05, -1641.32, 1236.69, 0.000, 0.000, 0.000, 15:39:38.069
160, 37.02, -328.59, -1261.06, 1073.31, 0.000, 0.000, 0.000, 15:39:38.070
161, -470.46, -264.37, -1233.33, 1099.08, 0.000, 0.000, 0.000, 15:39:38.071
162, -632.36, -366.60, -1618.36, 885.21, 0.000, 0.000, 0.000, 15:39:38.071
163, -59.17, -372.92, -1427.84, 84.62, 0.000, 0.000, 0.000, 15:39:38.071
164, -252.10, -256.28, -1134.01, 435.28, 0.000, 0.000, 0.000, 15:39:38.072
167, -48.91, -135.44, -719.59, 492.72, 0.000, 0.000, 0.000, 15:39:38.098
168, -609.20, -112.85, -950.81, 1272.41, 0.000, 0.000, 0.000, 15:39:38.099
169, -484.80, -251.47, -1218.02, 1131.87, 0.000, 0.000, 0.000, 15:39:38.128
170, 27.43, -183.17, -842.56, 939.24, 0.000, 0.000, 0.000, 15:39:38.129
173, 598.82, -191.91, -658.75, 231.00, 0.000, 0.000, 0.000, 15:39:38.129
174, 387.29, -73.95, -391.98, 558.62, 0.000, 0.000, 0.000, 15:39:38.130
175, -16.62, -133.13, -756.15, 1269.47, 0.000, 0.000, 0.000, 15:39:38.158
176, 400.55, -207.42, -793.83, 670.90, 0.000, 0.000, 0.000, 15:39:38.159
177, 584.39, -104.73, -405.14, 769.00, 0.000, 0.000, 0.000, 15:39:38.159
178, 43.89, -73.66, -630.95, 1399.22, 0.000, 0.000, 0.000, 15:39:38.159
179, 195.97, -209.58, -848.31, 1295.43, 0.000, 0.000, 0.000, 15:39:38.160
180, 660.74, -154.31, -509.01, 1215.97, 0.000, 0.000, 0.000, 15:39:38.160
181, 184.06, -53.54, -482.05, 2123.47, 0.000, 0.000, 0.000, 15:39:38.161
182, 28.36, -181.64, -844.27, 1837.81, 0.000, 0.000, 0.000, 15:39:38.161
185, -386.90, -262.19, -1217.77, 2537.31, 0.000, 0.000, 0.000, 15:39:38.188
186, 38.19, -331.17, -1224.82, 1969.27, 0.000, 0.000, 0.000, 15:39:38.189
187, 209.26, -223.78, -838.71, 2057.27, 0.000, 0.000, 0.000, 15:39:38.218
188, -338.98, -207.62, -1069.24, 2668.77, 0.000, 0.000, 0.000, 15:39:38.219
191, -820.75, -105.16, -1050.79, 3562.90, 0.000, 0.000, 0.000, 15:39:38.219
192, -975.27, -226.76, -1400.91, 3327.83, 0.000, 0.000, 0.000, 15:39:38.220
193, -434.49, -256.55, -1228.72, 2651.65, 0.000, 0.000, 0.000, 15:39:38.249
194, -607.51, -104.99, -954.59, 2971.06, 0.000, 0.000, 0.000, 15:39:38.249
195, -1032.49, -187.17, -1313.16, 3695.88, 0.000, 0.000, 0.000, 15:39:38.250
196, -617.29, -277.48, -1345.40, 3109.50, 0.000, 0.000, 0.000, 15:39:38.250
197, -407.49, -141.56, -962.17, 3196.55, 0.000, 0.000, 0.000, 15:39:38.251
198, -979.76, -149.03, -1181.84, 3812.28, 0.000, 0.000, 0.000, 15:39:38.251
199, -808.52, -250.98, -1425.08, 3753.77, 0.000, 0.000, 0.000, 15:39:38.251
200, -343.22, -200.27, -1085.38, 3658.39, 0.000, 0.000, 0.000, 15:39:38.252
1, -454.36, -298.55, -1451.57, 3449.14, 0.000, 0.000, 0.000, 15:39:38.278
2, 80.39, -336.16, -1278.27, 2750.44, 0.000, 0.000, 0.000, 15:39:38.279
3, -99.86, -196.32, -997.08, 3049.45, 0.000, 0.000, 0.000, 15:39:38.308
4, -522.54, -267.78, -1372.05, 3827.94, 0.000, 0.000, 0.000, 15:39:38.309
7, -1098.05, -274.90, -1596.86, 4474.01, 0.000, 0.000, 0.000, 15:39:38.309
8, -949.46, -393.13, -1848.97, 4447.15, 0.000, 0.000, 0.000, 15:39:38.310
9, -434.14, -326.41, -1489.64, 4219.30, 0.000, 0.000, 0.000, 15:39:38.338
10, -930.10, -250.52, -1432.14, 5192.94, 0.000, 0.000, 0.000, 15:39:38.339
11, -1084.88, -354.31, -1831.16, 5073.37, 0.000, 0.000, 0.000, 15:39:38.339
12, -555.16, -387.42, -1657.10, 4234.10, 0.000, 0.000, 0.000, 15:39:38.340
13, -702.52, -246.64, -1349.33, 4522.76, 0.000, 0.000, 0.000, 15:39:38.340
14, -1133.98, -311.89, -1734.83, 5446.14, 0.000, 0.000, 0.000, 15:39:38.341
15, -746.95, -405.78, -1798.59, 4749.20, 0.000, 0.000, 0.000, 15:39:38.341
16, -507.35, -279.59, -1377.54, 4710.22, 0.000, 0.000, 0.000, 15:39:38.341
19, 10.05, -208.60, -1015.85, 4438.81, 0.000, 0.000, 0.000, 15:39:38.368
20, -480.00, -127.00, -967.36, 4453.91, 0.000, 0.000, 0.000, 15:39:38.369
21, -660.70, -242.55, -1360.87, 4335.74, 0.000, 0.000, 0.000, 15:39:38.398
22, -101.74, -240.84, -1186.92, 3481.41, 0.000, 0.000, 0.000, 15:39:38.399
25, 286.33, -344.82, -1237.85, 2777.73, 0.000, 0.000, 0.000, 15:39:38.399
26, 526.93, -212.44, -815.83, 2717.99, 0.000, 0.000, 0.000, 15:39:38.400
27, -32.67, -195.46, -1033.80, 3555.07, 0.000, 0.000, 0.000, 15:39:38.428
28, 66.01, -340.68, -1300.93, 3480.95, 0.000, 0.000, 0.000, 15:39:38.429
29, 596.42, -262.99, -935.56, 3196.93, 0.000, 0.000, 0.000, 15:39:38.430
30, 116.45, -179.15, -873.19, 3232.53, 0.000, 0.000, 0.000, 15:39:38.430
31, -72.74, -303.43, -1272.31, 3105.15, 0.000, 0.000, 0.000, 15:39:38.431
32, 506.83, -316.92, -1106.54, 2263.76, 0.000, 0.000, 0.000, 15:39:38.431
33, 346.22, -176.06, -783.38, 2534.29, 0.000, 0.000, 0.000, 15:39:38.431
34, -94.04, -242.13, -1167.08, 3482.02, 0.000, 0.000, 0.000, 15:39:38.432
37, -656.99, -217.60, -1373.00, 4325.87, 0.000, 0.000, 0.000, 15:39:38.458
38, -550.02, -352.48, -1654.45, 4262.60, 0.000, 0.000, 0.000, 15:39:38.459
39, -30.99, -297.08, -1298.70, 3958.96, 0.000, 0.000, 0.000, 15:39:38.489
40, -501.65, -188.87, -1225.20, 3995.35, 0.000, 0.000, 0.000, 15:39:38.490
43, -658.92, -48.87, -892.86, 4248.01, 0.000, 0.000, 0.000, 15:39:38.490
44, -1106.81, -111.65, -1273.70, 5199.41, 0.000, 0.000, 0.000, 15:39:38.491
45, -712.57, -201.60, -1349.40, 4534.80, 0.000, 0.000, 0.000, 15:39:38.518
46, -471.70, -88.91, -916.04, 4439.64, 0.000, 0.000, 0.000, 15:39:38.519
47, -1035.79, -65.90, -1132.97, 5267.76, 0.000, 0.000, 0.000, 15:39:38.519
48, -925.45, -191.56, -1407.24, 5235.55, 0.000, 0.000, 0.000, 15:39:38.520
49, -407.18, -143.00, -1047.04, 4919.09, 0.000, 0.000, 0.000, 15:39:38.520
50, -867.24, -40.86, -974.47, 4951.45, 0.000, 0.000, 0.000, 15:39:38.520
51, -1069.90, -164.03, -1381.57, 4831.85, 0.000, 0.000, 0.000, 15:39:38.521
52, -508.35, -191.11, -1216.75, 4025.56, 0.000, 0.000, 0.000, 15:39:38.521
55, -118.09, -278.59, -1285.78, 3389.31, 0.000, 0.000, 0.000, 15:39:38.549
56, 125.85, -163.49, -860.22, 3329.13, 0.000, 0.000, 0.000, 15:39:38.549
57, -441.27, -151.18, -1081.63, 4065.80, 0.000, 0.000, 0.000, 15:39:38.578
58, -314.78, -257.54, -1339.43, 4064.18, 0.000, 0.000, 0.000, 15:39:38.579
61, -496.37, -367.99, -1719.48, 3926.29, 0.000, 0.000, 0.000, 15:39:38.580
62, 30.67, -413.08, -1544.93, 3192.52, 0.000, 0.000, 0.000, 15:39:38.580
63, -87.82, -261.62, -1259.21, 3418.73, 0.000, 0.000, 0.000, 15:39:38.608
64, -533.67, -328.04, -1622.95, 4253.22, 0.000, 0.000, 0.000, 15:39:38.609
65, -135.55, -416.58, -1690.47, 3690.59, 0.000, 0.000, 0.000, 15:39:38.610
66, 78.78, -321.87, -1277.64, 3633.60, 0.000, 0.000, 0.000, 15:39:38.610
67, -466.34, -286.42, -1501.76, 4342.09, 0.000, 0.000, 0.000, 15:39:38.610
68, -350.98, -405.88, -1747.53, 4329.09, 0.000, 0.000, 0.000, 15:39:38.610
69, 140.62, -370.80, -1404.53, 4139.58, 0.000, 0.000, 0.000, 15:39:38.611
70, -307.57, -243.45, -1344.61, 5054.07, 0.000, 0.000, 0.000, 15:39:38.611
73, -478.25, -126.38, -1037.59, 5255.00, 0.000, 0.000, 0.000, 15:39:38.641
74, -891.48, -169.47, -1412.35, 6118.49, 0.000, 0.000, 0.000, 15:39:38.642
75, -531.31, -270.39, -1462.09, 5520.60, 0.000, 0.000, 0.000, 15:39:38.668
76, -271.17, -147.88, -1062.55, 5489.88, 0.000, 0.000, 0.000, 15:39:38.668
79, 245.20, -88.20, -713.60, 5318.05, 0.000, 0.000, 0.000, 15:39:38.669
80, -233.90, -17.41, -649.83, 6178.57, 0.000, 0.000, 0.000, 15:39:38.669
81, -395.26, -83.26, -1056.60, 6058.74, 0.000, 0.000, 0.000, 15:39:38.698
82, 128.72, -136.96, -881.53, 5327.31, 0.000, 0.000, 0.000, 15:39:38.699
83, -0.48, -3.41, -577.51, 5545.40, 0.000, 0.000, 0.000, 15:39:38.699
84, -432.02, -59.78, -948.79, 6395.23, 0.000, 0.000, 0.000, 15:39:38.700
85, -55.33, -147.21, -1008.84, 5831.96, 0.000, 0.000, 0.000, 15:39:38.700
86, 183.71, -28.75, -608.44, 5768.87, 0.000, 0.000, 0.000, 15:39:38.701
87, -375.31, -14.65, -807.39, 6475.99, 0.000, 0.000, 0.000, 15:39:38.701
88, -251.66, -135.51, -1063.11, 5510.18, 0.000, 0.000, 0.000, 15:39:38.701
91, -447.48, -261.55, -1433.00, 5348.35, 0.000, 0.000, 0.000, 15:39:38.729
92, 117.24, -283.65, -1283.09, 4675.71, 0.000, 0.000, 0.000, 15:39:38.729
93, -38.07, -156.39, -988.45, 4841.88, 0.000, 0.000, 0.000, 15:39:38.758
94, -465.91, -205.87, -1354.15, 5707.39, 0.000, 0.000, 0.000, 15:39:38.759
97, -1014.16, -161.89, -1553.80, 6420.58, 0.000, 0.000, 0.000, 15:39:38.759
98, -919.92, -300.74, -1810.47, 6415.20, 0.000, 0.000, 0.000, 15:39:38.760
99, -393.95, -239.95, -1467.39, 6238.45, 0.000, 0.000, 0.000, 15:39:38.788
100, -868.57, -153.85, -1419.64, 7088.16, 0.000, 0.000, 0.000, 15:39:38.789
101, -1032.49, -252.89, -1787.72, 6981.20, 0.000, 0.000, 0.000, 15:39:38.790
102, -510.32, -298.22, -1623.39, 6287.07, 0.000, 0.000, 0.000, 15:39:38.790
103, -653.52, -167.18, -1323.93, 6432.33, 0.000, 0.000, 0.000, 15:39:38.790
104, -1064.86, -199.43, -1691.46, 7338.07, 0.000, 0.000, 0.000, 15:39:38.791
105, -713.00, -323.44, -1744.70, 6771.74, 0.000, 0.000, 0.000, 15:39:38.792
106, -454.49, -182.96, -1364.50, 6689.88, 0.000, 0.000, 0.000, 15:39:38.792
109, 20.71, -172.24, -1012.63, 6450.88, 0.000, 0.000, 0.000, 15:39:38.819
110, -408.95, -37.70, -966.34, 7332.29, 0.000, 0.000, 0.000, 15:39:38.819
111, -606.35, -162.87, -1334.33, 7212.40, 0.000, 0.000, 0.000, 15:39:38.849
112, -47.26, -187.79, -1185.64, 6540.21, 0.000, 0.000, 0.000, 15:39:38.849
115, 308.14, -301.99, -1246.04, 5983.31, 0.000, 0.000, 0.000, 15:39:38.850
116, 569.95, -178.75, -864.50, 5902.25, 0.000, 0.000, 0.000, 15:39:38.850
117, 15.05, -165.98, -1047.25, 6589.18, 0.000, 0.000, 0.000, 15:39:38.878
118, 122.68, -271.92, -1299.66, 5666.44, 0.000, 0.000, 0.000, 15:39:38.879
119, 614.68, -249.82, -962.00, 5436.31, 0.000, 0.000, 0.000, 15:39:38.879
120, 178.83, -130.71, -907.06, 6293.93, 0.000, 0.000, 0.000, 15:39:38.880
121, -16.50, -249.40, -1269.98, 6192.66, 0.000, 0.000, 0.000, 15:39:38.880
122, 533.12, -272.40, -1133.93, 5520.12, 0.000, 0.000, 0.000, 15:39:38.881
123, 382.64, -153.30, -826.11, 5628.50, 0.000, 0.000, 0.000, 15:39:38.881
124, -35.76, -186.31, -1202.60, 6540.22, 0.000, 0.000, 0.000, 15:39:38.882
127, -596.66, -171.33, -1389.60, 7227.24, 0.000, 0.000, 0.000, 15:39:38.909
128, -495.71, -277.56, -1640.40, 6310.20, 0.000, 0.000, 0.000, 15:39:38.909
129, -1.17, -248.48, -1325.75, 6081.90, 0.000, 0.000, 0.000, 15:39:38.938
130, -431.41, -132.86, -1246.84, 6944.90, 0.000, 0.000, 0.000, 15:39:38.939
133, -563.24, -8.32, -933.09, 7043.04, 0.000, 0.000, 0.000, 15:39:38.939
134, -994.90, -51.17, -1302.98, 7957.49, 0.000, 0.000, 0.000, 15:39:38.940
135, -639.82, -160.17, -1367.29, 7427.20, 0.000, 0.000, 0.000, 15:39:38.968
136, -376.80, -50.64, -968.92, 7301.53, 0.000, 0.000, 0.000, 15:39:38.969
137, -939.21, -14.97, -1150.26, 8015.32, 0.000, 0.000, 0.000, 15:39:38.970
138, -839.29, -135.85, -1407.57, 7100.67, 0.000, 0.000, 0.000, 15:39:38.970
139, -331.80, -95.21, -1067.62, 6872.11, 0.000, 0.000, 0.000, 15:39:38.971
140, -786.95, 2.66, -1011.29, 7693.14, 0.000, 0.000, 0.000, 15:39:38.971
141, -975.95, -96.94, -1383.77, 7640.16, 0.000, 0.000, 0.000, 15:39:38.971
142, -442.97, -138.70, -1246.99, 6929.46, 0.000, 0.000, 0.000, 15:39:38.972
145, -68.50, -233.43, -1314.28, 6417.25, 0.000, 0.000, 0.000, 15:39:38.998
146, 186.99, -127.01, -909.74, 6257.08, 0.000, 0.000, 0.000, 15:39:38.999
147, -366.41, -92.30, -1093.10, 6993.35, 0.000, 0.000, 0.000, 15:39:39.028
148, -283.66, -227.19, -1351.53, 6070.60, 0.000, 0.000, 0.000, 15:39:39.029
151, -467.52, -318.29, -1715.80, 6049.74, 0.000, 0.000, 0.000, 15:39:39.029
152, 53.81, -375.76, -1579.52, 5310.91, 0.000, 0.000, 0.000, 15:39:39.030
153, -40.54, -227.74, -1276.28, 5428.69, 0.000, 0.000, 0.000, 15:39:39.058
154, -496.27, -297.48, -1641.31, 6364.09, 0.000, 0.000, 0.000, 15:39:39.059
155, -91.46, -373.28, -1727.37, 5921.09, 0.000, 0.000, 0.000, 15:39:39.059
156, 167.25, -277.93, -1345.67, 5747.84, 0.000, 0.000, 0.000, 15:39:39.060
157, -360.22, -213.71, -1552.87, 6468.45, 0.000, 0.000, 0.000, 15:39:39.060
158, -298.62, -359.96, -1801.43, 6394.27, 0.000, 0.000, 0.000, 15:39:39.061
159, 220.02, -303.91, -1442.62, 6092.53, 0.000, 0.000, 0.000, 15:39:39.061
160, -252.85, -222.10, -1314.91, 6911.85, 0.000, 0.000, 0.000, 15:39:39.061
163, -352.47, -71.36, -999.57, 7030.31, 0.000, 0.000, 0.000, 15:39:39.089
164, -833.14, -140.80, -1362.17, 7966.05, 0.000, 0.000, 0.000, 15:39:39.089
165, -456.37, -227.98, -1445.31, 7479.41, 0.000, 0.000, 0.000, 15:39:39.118
166, -190.73, -140.57, -1039.42, 7280.94, 0.000, 0.000, 0.000, 15:39:39.119
169, 362.86, -72.17, -722.85, 7030.86, 0.000, 0.000, 0.000, 15:39:39.119
170, -99.79, 5.88, -639.95, 7844.27, 0.000, 0.000, 0.000, 15:39:39.120
171, -286.13, -75.42, -1021.57, 7834.78, 0.000, 0.000, 0.000, 15:39:39.148
172, 229.99, -136.39, -882.32, 7081.92, 0.000, 0.000, 0.000, 15:39:39.149
173, 141.31, 15.50, -568.23, 7178.38, 0.000, 0.000, 0.000, 15:39:39.149
174, -325.98, -47.71, -922.52, 8129.08, 0.000, 0.000, 0.000, 15:39:39.150
175, 67.59, -139.47, -1004.83, 7634.23, 0.000, 0.000, 0.000, 15:39:39.150
176, 330.46, -40.04, -583.80, 7377.23, 0.000, 0.000, 0.000, 15:39:39.150
177, -225.62, 10.42, -776.27, 8216.91, 0.000, 0.000, 0.000, 15:39:39.151
178, -175.85, -132.20, -1046.33, 7310.13, 0.000, 0.000, 0.000, 15:39:39.151
181, -384.60, -226.55, -1453.98, 7341.81, 0.000, 0.000, 0.000, 15:39:39.178
182, 150.00, -286.79, -1303.08, 6518.39, 0.000, 0.000, 0.000, 15:39:39.179
183, 53.03, -143.22, -972.62, 6601.61, 0.000, 0.000, 0.000, 15:39:39.208
184, -425.86, -186.05, -1328.02, 6694.03, 0.000, 0.000, 0.000, 15:39:39.209
187, -993.60, -146.93, -1506.12, 7593.30, 0.000, 0.000, 0.000, 15:39:39.209
188, -943.38, -286.50, -1811.84, 6683.52, 0.000, 0.000, 0.000, 15:39:39.209
189, -385.27, -234.08, -1468.39, 6232.07, 0.000, 0.000, 0.000, 15:39:39.238
190, -819.89, -128.68, -1339.37, 7210.40, 0.000, 0.000, 0.000, 15:39:39.239
191, -1067.34, -244.34, -1778.97, 7328.13, 0.000, 0.000, 0.000, 15:39:39.239
192, -517.33, -284.20, -1667.56, 6363.67, 0.000, 0.000, 0.000, 15:39:39.239
193, -580.59, -137.69, -1273.96, 6393.82, 0.000, 0.000, 0.000, 15:39:39.240
194, -1081.83, -191.89, -1662.80, 6705.46, 0.000, 0.000, 0.000, 15:39:39.240
195, -754.22, -309.81, -1785.22, 5999.96, 0.000, 0.000, 0.000, 15:39:39.240
196, -405.08, -184.56, -1321.55, 5560.15, 0.000, 0.000, 0.000, 15:39:39.241
199, 181.02, -144.62, -968.52, 4834.61, 0.000, 0.000, 0.000, 15:39:39.269
200, -229.45, -19.29, -805.81, 4995.58, 0.000, 0.000, 0.000, 15:39:39.269
0, -492.47, -234.34, -1131.53, 422.09, 0.000, 0.000, 0.000, 15:39:39.299
5, -71.17, -86.62, -624.67, -257.44, 0.000, 0.000, 0.000, 15:39:39.300
6, -693.98, -71.74, -748.73, 189.42, 0.000, 0.000, 0.000, 15:39:39.300
7, -700.65, -206.63, -1160.23, -666.83, 0.000, 0.000, 0.000, 15:39:39.329
8, -84.24, -168.36, -792.92, -688.73, 0.000, 0.000, 0.000, 15:39:39.329
9, -467.14, -26.28, -589.23, -367.02, 0.000, 0.000, 0.000, 15:39:39.330
10, -828.42, -176.98, -1095.23, -28.23, 0.000, 0.000, 0.000, 15:39:39.330
11, -231.59, -206.46, -1012.00, -393.33, 0.000, 0.000, 0.000, 15:39:39.331
12, -234.55, -55.89, -531.02, -383.41, 0.000, 0.000, 0.000, 15:39:39.331
13, -798.43, -104.58, -945.59, 325.09, 0.000, 0.000, 0.000, 15:39:39.331
14, -514.16, -243.86, -1143.25, -615.32, 0.000, 0.000, 0.000, 15:39:39.332
17, -494.72, -371.27, -1564.98, -1486.30, 0.000, 0.000, 0.000, 15:39:39.359
18, 119.76, -336.65, -1183.64, -1579.48, 0.000, 0.000, 0.000, 15:39:39.359
19, -288.19, -194.06, -969.33, -1186.31, 0.000, 0.000, 0.000, 15:39:39.388
20, -646.29, -347.07, -1480.28, -822.84, 0.000, 0.000, 0.000, 15:39:39.388
23, -1227.92, -399.55, -1901.85, -31.37, 0.000, 0.000, 0.000, 15:39:39.389
24, -916.63, -532.02, -2087.58, -1011.48, 0.000, 0.000, 0.000, 15:39:39.389
25, -459.01, -384.93, -1552.89, -1740.45, 0.000, 0.000, 0.000, 15:39:39.419
26, -1121.28, -367.91, -1684.22, -1121.76, 0.000, 0.000, 0.000, 15:39:39.419
27, -1124.86, -504.99, -2134.56, -2038.91, 0.000, 0.000, 0.000, 15:39:39.420
28, -473.65, -465.56, -1751.75, -2171.89, 0.000, 0.000, 0.000, 15:39:39.420
29, -879.69, -325.86, -1513.23, -1727.13, 0.000, 0.000, 0.000, 15:39:39.420
30, -1255.54, -473.51, -2049.76, -1355.29, 0.000, 0.000, 0.000, 15:39:39.421
31, -645.35, -490.18, -1958.51, -1843.78, 0.000, 0.000, 0.000, 15:39:39.421
32, -603.94, -342.66, -1454.31, -1763.00, 0.000, 0.000, 0.000, 15:39:39.421
35, -133.43, -204.92, -889.81, -2500.95, 0.000, 0.000, 0.000, 15:39:39.448
36, -798.62, -175.04, -1029.29, -1818.14, 0.000, 0.000, 0.000, 15:39:39.449
37, -815.71, -318.22, -1483.23, -2766.59, 0.000, 0.000, 0.000, 15:39:39.478
38, -141.48, -266.05, -1101.29, -2956.69, 0.000, 0.000, 0.000, 15:39:39.479
41, 475.10, -299.52, -1020.67, -3547.96, 0.000, 0.000, 0.000, 15:39:39.479
42, 488.42, -136.73, -494.68, -3432.16, 0.000, 0.000, 0.000, 15:39:39.480
43, -134.83, -206.25, -933.95, -2593.88, 0.000, 0.000, 0.000, 15:39:39.508
44, 210.00, -313.99, -1167.24, -2674.83, 0.000, 0.000, 0.000, 15:39:39.509
45, 665.25, -189.03, -590.66, -3461.08, 0.000, 0.000, 0.000, 15:39:39.509
46, 7.17, -156.90, -747.96, -2691.50, 0.000, 0.000, 0.000, 15:39:39.510
47, -23.62, -303.66, -1191.88, -2706.64, 0.000, 0.000, 0.000, 15:39:39.510
48, 666.53, -227.90, -799.70, -2919.59, 0.000, 0.000, 0.000, 15:39:39.510
49, 237.30, -120.35, -561.92, -2358.37, 0.000, 0.000, 0.000, 15:39:39.511
50, -128.97, -250.58, -1113.79, -1946.90, 0.000, 0.000, 0.000, 15:39:39.511
53, -770.09, -323.10, -1552.29, -1074.05, 0.000, 0.000, 0.000, 15:39:39.538
54, -442.21, -437.95, -1787.13, -1192.14, 0.000, 0.000, 0.000, 15:39:39.539
55, 28.43, -309.29, -1210.99, -2009.19, 0.000, 0.000, 0.000, 15:39:39.572
56, -631.36, -271.53, -1350.46, -1167.17, 0.000, 0.000, 0.000, 15:39:39.573
59, -1068.33, -170.18, -1113.97, -585.16, 0.000, 0.000, 0.000, 15:39:39.573
60, -1439.03, -289.23, -1678.30, -156.02, 0.000, 0.000, 0.000, 15:39:39.573
61, -850.27, -329.02, -1592.41, -836.09, 0.000, 0.000, 0.000, 15:39:39.598
62, -800.30, -155.15, -1053.87, -680.20, 0.000, 0.000, 0.000, 15:39:39.599
63, -1461.05, -255.52, -1499.85, 190.88, 0.000, 0.000, 0.000, 15:39:39.599
64, -1097.26, -341.62, -1735.76, 80.31, 0.000, 0.000, 0.000, 15:39:39.600
65, -637.24, -228.95, -1149.85, -773.24, 0.000, 0.000, 0.000, 15:39:39.600
66, -1297.46, -178.59, -1278.14, 117.50, 0.000, 0.000, 0.000, 15:39:39.600
67, -1365.63, -365.53, -1752.40, 51.62, 0.000, 0.000, 0.000, 15:39:39.601
68, -629.07, -275.49, -1363.08, -210.36, 0.000, 0.000, 0.000, 15:39:39.601
71, -26.30, -331.54, -1279.64, -920.28, 0.000, 0.000, 0.000, 15:39:39.628
72, 42.55, -148.79, -728.48, -773.42, 0.000, 0.000, 0.000, 15:39:39.629
73, -623.06, -233.76, -1194.13, 141.55, 0.000, 0.000, 0.000, 15:39:39.658
74, -275.57, -334.75, -1420.53, 15.49, 0.000, 0.000, 0.000, 15:39:39.659
77, -335.12, -506.20, -1903.08, -18.66, 0.000, 0.000, 0.000, 15:39:39.659
78, 390.49, -419.84, -1499.93, -316.45, 0.000, 0.000, 0.000, 15:39:39.659
79, -59.06, -316.81, -1235.66, 274.18, 0.000, 0.000, 0.000, 15:39:39.688
80, -426.80, -434.43, -1822.37, 757.24, 0.000, 0.000, 0.000, 15:39:39.689
81, 157.85, -505.75, -1736.15, 20.50, 0.000, 0.000, 0.000, 15:39:39.690
82, 224.84, -312.70, -1196.79, 152.67, 0.000, 0.000, 0.000, 15:39:39.690
83, -428.49, -405.62, -1644.19, 1089.41, 0.000, 0.000, 0.000, 15:39:39.690
84, -86.54, -500.75, -1890.28, 963.14, 0.000, 0.000, 0.000, 15:39:39.690
85, 381.77, -380.67, -1299.47, 68.26, 0.000, 0.000, 0.000, 15:39:39.691
86, -277.42, -324.87, -1418.28, 985.59, 0.000, 0.000, 0.000, 15:39:39.691
89, -714.50, -215.71, -1137.11, 1576.16, 0.000, 0.000, 0.000, 15:39:39.718
90, -1106.18, -340.76, -1715.13, 2079.40, 0.000, 0.000, 0.000, 15:39:39.719
91, -506.36, -399.68, -1636.07, 1352.62, 0.000, 0.000, 0.000, 15:39:39.749
92, -437.43, -222.74, -1069.71, 1447.05, 0.000, 0.000, 0.000, 15:39:39.749
95, 72.18, -89.06, -461.24, 553.85, 0.000, 0.000, 0.000, 15:39:39.750
96, -585.86, -58.52, -593.70, 1431.35, 0.000, 0.000, 0.000, 15:39:39.750
97, -654.83, -218.94, -1085.14, 467.60, 0.000, 0.000, 0.000, 15:39:39.778
98, 55.06, -153.06, -695.55, 129.88, 0.000, 0.000, 0.000, 15:39:39.779
99, -354.05, -21.50, -423.46, 730.72, 0.000, 0.000, 0.000, 15:39:39.779
100, -762.86, -167.22, -1004.67, 1207.75, 0.000, 0.000, 0.000, 15:39:39.780
101, -151.80, -219.50, -918.53, 524.73, 0.000, 0.000, 0.000, 15:39:39.780
102, -86.48, -42.58, -353.83, 586.93, 0.000, 0.000, 0.000, 15:39:39.781
103, -730.08, -101.07, -822.67, 593.71, 0.000, 0.000, 0.000, 15:39:39.781
104, -442.35, -230.54, -1068.04, 469.41, 0.000, 0.000, 0.000, 15:39:39.781
107, -483.05, -376.88, -1563.61, -465.19, 0.000, 0.000, 0.000, 15:39:39.809
108, 192.61, -335.93, -1172.19, -831.25, 0.000, 0.000, 0.000, 15:39:39.809
109, -196.03, -196.75, -900.38, -230.34, 0.000, 0.000, 0.000, 15:39:39.838
110, -618.65, -347.89, -1476.22, 249.10, 0.000, 0.000, 0.000, 15:39:39.839
113, -1239.60, -387.51, -1935.53, 290.78, 0.000, 0.000, 0.000, 15:39:39.839
114, -965.44, -539.64, -2176.75, 168.67, 0.000, 0.000, 0.000, 15:39:39.839
115, -433.59, -377.71, -1600.95, -738.28, 0.000, 0.000, 0.000, 15:39:39.868
116, -1126.37, -367.30, -1701.84, 123.16, 0.000, 0.000, 0.000, 15:39:39.869
117, -1168.40, -505.25, -2213.83, -788.68, 0.000, 0.000, 0.000, 15:39:39.870
118, -489.16, -464.74, -1817.15, -1169.61, 0.000, 0.000, 0.000, 15:39:39.870
119, -858.44, -307.66, -1546.81, -573.58, 0.000, 0.000, 0.000, 15:39:39.872
120, -1295.62, -478.69, -2106.64, -87.26, 0.000, 0.000, 0.000, 15:39:39.873
121, -661.59, -489.27, -2052.39, -722.04, 0.000, 0.000, 0.000, 15:39:39.873
122, -619.31, -347.79, -1483.60, 222.77, 0.000, 0.000, 0.000, 15:39:39.873
125, -66.78, -188.12, -928.87, -716.67, 0.000, 0.000, 0.000, 15:39:39.899
126, -738.32, -171.18, -1031.45, 152.71, 0.000, 0.000, 0.000, 15:39:39.899
127, -790.60, -306.58, -1517.78, -739.81, 0.000, 0.000, 0.000, 15:39:39.928
128, -122.94, -283.58, -1143.03, -1135.89, 0.000, 0.000, 0.000, 15:39:39.929
131, 462.90, -331.40, -1071.86, -1792.74, 0.000, 0.000, 0.000, 15:39:39.929
132, 546.48, -165.46, -503.53, -837.35, 0.000, 0.000, 0.000, 15:39:39.929
133, -102.46, -223.66, -956.49, -787.91, 0.000, 0.000, 0.000, 15:39:39.958
134, 185.34, -359.87, -1215.56, -870.39, 0.000, 0.000, 0.000, 15:39:39.959
135, 705.42, -217.92, -625.10, -1839.13, 0.000, 0.000, 0.000, 15:39:39.959
136, 31.54, -174.82, -728.26, -966.43, 0.000, 0.000, 0.000, 15:39:39.959
137, -35.47, -331.76, -1227.56, -1849.25, 0.000, 0.000, 0.000, 15:39:39.960
138, 669.26, -287.98, -848.95, -2226.55, 0.000, 0.000, 0.000, 15:39:39.960
139, 284.20, -146.84, -548.29, -1679.49, 0.000, 0.000, 0.000, 15:39:39.960
140, -144.94, -290.04, -1117.22, -1130.84, 0.000, 0.000, 0.000, 15:39:39.961
143, -779.09, -346.75, -1551.46, -1060.71, 0.000, 0.000, 0.000, 15:39:39.988
144, -493.17, -477.16, -1817.53, -1128.75, 0.000, 0.000, 0.000, 15:39:39.989
145, 24.81, -336.14, -1229.95, -1147.37, 0.000, 0.000, 0.000, 15:39:40.018
146, -639.52, -300.01, -1343.38, -266.76, 0.000, 0.000, 0.000, 15:39:40.019
149, -1013.73, -168.23, -1032.48, 242.48, 0.000, 0.000, 0.000, 15:39:40.019
150, -1442.28, -294.55, -1610.16, 855.60, 0.000, 0.000, 0.000, 15:39:40.020
151, -855.12, -349.66, -1562.88, 185.87, 0.000, 0.000, 0.000, 15:39:40.048
152, -756.41, -185.22, -1004.34, 1095.33, 0.000, 0.000, 0.000, 15:39:40.049
153, -1431.84, -242.91, -1417.66, 1172.22, 0.000, 0.000, 0.000, 15:39:40.049
154, -1117.61, -369.52, -1700.05, 1124.48, 0.000, 0.000, 0.000, 15:39:40.049
155, -574.63, -243.33, -1127.10, 1105.69, 0.000, 0.000, 0.000, 15:39:40.050
156, -1210.13, -187.14, -1230.23, 2051.28, 0.000, 0.000, 0.000, 15:39:40.050
157, -1287.32, -350.04, -1745.04, 1211.33, 0.000, 0.000, 0.000, 15:39:40.078
158, -587.44, -288.58, -1391.66, 768.43, 0.000, 0.000, 0.000, 15:39:40.079
161, -26.77, -346.37, -1325.42, 113.79, 0.000, 0.000, 0.000, 15:39:40.108
162, 64.43, -167.83, -750.09, 1054.96, 0.000, 0.000, 0.000, 15:39:40.109
163, -623.26, -233.75, -1156.63, 1199.42, 0.000, 0.000, 0.000, 15:39:40.109
164, -332.26, -358.15, -1434.95, 1171.62, 0.000, 0.000, 0.000, 15:39:40.110
167, -436.34, -522.26, -1940.02, 318.82, 0.000, 0.000, 0.000, 15:39:40.138
168, 287.40, -458.65, -1583.65, -43.08, 0.000, 0.000, 0.000, 15:39:40.138
169, -104.65, -349.73, -1283.67, 414.48, 0.000, 0.000, 0.000, 15:39:40.139
170, -508.04, -456.38, -1867.38, 1068.26, 0.000, 0.000, 0.000, 15:39:40.139
171, 68.49, -531.55, -1823.03, 375.47, 0.000, 0.000, 0.000, 15:39:40.140
172, 193.40, -339.28, -1279.23, 1242.65, 0.000, 0.000, 0.000, 15:39:40.140
173, -472.86, -416.24, -1691.97, 1340.72, 0.000, 0.000, 0.000, 15:39:40.140
174, -181.44, -523.26, -1963.32, 366.94, 0.000, 0.000, 0.000, 15:39:40.141
179, -545.62, -393.52, -1628.06, 833.09, 0.000, 0.000, 0.000, 15:39:40.168
180, -976.61, -511.12, -2206.17, 1489.43, 0.000, 0.000, 0.000, 15:39:40.169
181, -404.85, -575.28, -2169.65, 824.77, 0.000, 0.000, 0.000, 15:39:40.198
182, -279.61, -403.44, -1610.14, 1657.33, 0.000, 0.000, 0.000, 15:39:40.198
185, 257.17, -287.38, -1037.59, 1536.21, 0.000, 0.000, 0.000, 15:39:40.199
186, -387.17, -229.78, -1107.03, 2447.36, 0.000, 0.000, 0.000, 15:39:40.199
187, -502.83, -394.72, -1611.24, 1641.94, 0.000, 0.000, 0.000, 15:39:40.228
188, 214.41, -338.68, -1270.86, 1230.98, 0.000, 0.000, 0.000, 15:39:40.229
189, -168.13, -214.30, -938.81, 1664.12, 0.000, 0.000, 0.000, 15:39:40.229
190, -587.45, -332.04, -1521.44, 2346.11, 0.000, 0.000, 0.000, 15:39:40.230
191, -4.15, -407.05, -1477.67, 1686.15, 0.000, 0.000, 0.000, 15:39:40.231
192, 125.54, -222.75, -928.20, 2482.64, 0.000, 0.000, 0.000, 15:39:40.231
193, -553.48, -285.97, -1330.25, 2643.90, 0.000, 0.000, 0.000, 15:39:40.231
194, -275.40, -405.06, -1625.90, 1666.41, 0.000, 0.000, 0.000, 15:39:40.232
197, -391.44, -563.40, -2137.21, 876.79, 0.000, 0.000, 0.000, 15:39:40.258
198, 326.38, -518.26, -1782.53, 444.89, 0.000, 0.000, 0.000, 15:39:40.259
199, -25.91, -385.40, -1452.03, 882.57, 0.000, 0.000, 0.000, 15:39:40.288
200, -474.14, -521.60, -2021.37, 1572.63, 0.000, 0.000, 0.000, 15:39:40.289
1, -345.01, -355.89, -1444.41, 2354.24, 0.000, 0.000, 0.000, 15:39:40.289
2, -1011.32, -404.60, -1844.76, 2526.19, 0.000, 0.000, 0.000, 15:39:40.290
3, -755.93, -537.78, -2137.69, 1552.22, 0.000, 0.000, 0.000, 15:39:40.318
4, -204.72, -403.88, -1567.74, 1394.07, 0.000, 0.000, 0.000, 15:39:40.319
5, -866.14, -363.65, -1628.40, 2305.92, 0.000, 0.000, 0.000, 15:39:40.319
6, -953.85, -514.74, -2136.15, 1556.14, 0.000, 0.000, 0.000, 15:39:40.319
7, -262.68, -483.24, -1785.44, 1083.79, 0.000, 0.000, 0.000, 15:39:40.320
8, -595.22, -341.43, -1465.81, 1520.99, 0.000, 0.000, 0.000, 15:39:40.320
9, -1063.56, -490.90, -2039.69, 2218.08, 0.000, 0.000, 0.000, 15:39:40.321
10, -475.98, -512.60, -2002.01, 1579.13, 0.000, 0.000, 0.000, 15:39:40.321
13, -232.63, -653.69, -2284.48, 624.09, 0.000, 0.000, 0.000, 15:39:40.349
14, 328.11, -513.85, -1718.74, 409.14, 0.000, 0.000, 0.000, 15:39:40.350
15, -341.33, -473.85, -1764.06, 1334.07, 0.000, 0.000, 0.000, 15:39:40.379
16, -449.89, -619.85, -2284.68, 601.96, 0.000, 0.000, 0.000, 15:39:40.380
19, -927.44, -757.14, -2850.64, 1321.68, 0.000, 0.000, 0.000, 15:39:40.381
20, -342.20, -808.08, -2831.40, 686.24, 0.000, 0.000, 0.000, 15:39:40.382
21, -196.32, -650.09, -2256.88, 1406.02, 0.000, 0.000, 0.000, 15:39:40.408
22, -869.22, -685.17, -2654.62, 1619.90, 0.000, 0.000, 0.000, 15:39:40.409
23, -637.07, -819.60, -2946.77, 677.30, 0.000, 0.000, 0.000, 15:39:40.411
24, -66.82, -687.20, -2393.66, 465.69, 0.000, 0.000, 0.000, 15:39:40.411
25, -727.33, -650.14, -2431.59, 1386.38, 0.000, 0.000, 0.000, 15:39:40.411
26, -833.46, -791.19, -2946.17, 681.05, 0.000, 0.000, 0.000, 15:39:40.412
27, -129.68, -769.13, -2615.22, 195.44, 0.000, 0.000, 0.000, 15:39:40.414
28, -457.83, -619.36, -2293.98, 608.85, 0.000, 0.000, 0.000, 15:39:40.414
31, -318.67, -474.29, -1709.76, 1298.33, 0.000, 0.000, 0.000, 15:39:40.438
32, -980.95, -501.35, -2130.95, 1527.06, 0.000, 0.000, 0.000, 15:39:40.438
33, -739.24, -639.08, -2417.23, 595.01, 0.000, 0.000, 0.000, 15:39:40.468
34, -175.04, -510.31, -1854.59, 366.18, 0.000, 0.000, 0.000, 15:39:40.468
37, 520.52, -480.91, -1505.90, -115.56, 0.000, 0.000, 0.000, 15:39:40.469
38, 185.20, -338.00, -1176.97, 275.08, 0.000, 0.000, 0.000, 15:39:40.469
39, -275.82, -459.74, -1749.20, 1035.87, 0.000, 0.000, 0.000, 15:39:40.498
40, 299.37, -520.67, -1729.35, 402.15, 0.000, 0.000, 0.000, 15:39:40.499
41, 467.27, -357.31, -1155.18, 1086.48, 0.000, 0.000, 0.000, 15:39:40.499
42, -214.44, -404.87, -1560.63, 1312.13, 0.000, 0.000, 0.000, 15:39:40.500
43, 32.90, -538.15, -1866.17, 400.93, 0.000, 0.000, 0.000, 15:39:40.500
44, 600.11, -413.11, -1295.94, 140.73, 0.000, 0.000, 0.000, 15:39:40.501
45, -46.85, -356.40, -1355.88, 1068.32, 0.000, 0.000, 0.000, 15:39:40.501
46, -181.29, -516.20, -1872.34, 369.12, 0.000, 0.000, 0.000, 15:39:40.502
49, -645.48, -637.09, -2438.55, 1165.78, 0.000, 0.000, 0.000, 15:39:40.528
50, -82.09, -695.02, -2429.97, 528.67, 0.000, 0.000, 0.000, 15:39:40.529
51, 71.34, -535.29, -1859.20, 1171.10, 0.000, 0.000, 0.000, 15:39:40.558
52, -593.86, -575.80, -2246.58, 1434.24, 0.000, 0.000, 0.000, 15:39:40.559
55, -1238.52, -536.24, -2270.53, 2359.70, 0.000, 0.000, 0.000, 15:39:40.559
56, -1353.59, -682.23, -2801.11, 1697.35, 0.000, 0.000, 0.000, 15:39:40.560
57, -665.33, -648.70, -2469.33, 1181.45, 0.000, 0.000, 0.000, 15:39:40.589
58, -974.98, -507.97, -2119.49, 1549.60, 0.000, 0.000, 0.000, 15:39:40.589
59, -1451.48, -643.54, -2693.33, 2340.85, 0.000, 0.000, 0.000, 15:39:40.589
60, -900.85, -707.11, -2666.22, 1713.48, 0.000, 0.000, 0.000, 15:39:40.590
61, -713.18, -524.76, -2104.30, 2363.91, 0.000, 0.000, 0.000, 15:39:40.590
62, -1407.57, -593.05, -2498.24, 2611.68, 0.000, 0.000, 0.000, 15:39:40.590
63, -1158.76, -701.59, -2799.53, 1737.89, 0.000, 0.000, 0.000, 15:39:40.591
64, -613.81, -607.83, -2237.08, 1390.30, 0.000, 0.000, 0.000, 15:39:40.591
67, 111.54, -557.91, -1901.06, 919.53, 0.000, 0.000, 0.000, 15:39:40.618
68, -218.11, -423.97, -1559.51, 1229.74, 0.000, 0.000, 0.000, 15:39:40.619
69, -676.64, -541.09, -2127.01, 2074.92, 0.000, 0.000, 0.000, 15:39:40.648
70, -132.96, -610.90, -2119.32, 1445.62, 0.000, 0.000, 0.000, 15:39:40.649
73, 90.23, -751.11, -2435.41, 554.63, 0.000, 0.000, 0.000, 15:39:40.649
74, 699.02, -612.10, -1883.61, 247.97, 0.000, 0.000, 0.000, 15:39:40.649
75, 40.24, -578.07, -1895.54, 1158.91, 0.000, 0.000, 0.000, 15:39:40.678
76, -90.87, -699.57, -2438.05, 541.36, 0.000, 0.000, 0.000, 15:39:40.679
77, 583.16, -696.03, -2116.08, -3.97, 0.000, 0.000, 0.000, 15:39:40.679
78, 306.48, -535.71, -1761.22, 341.70, 0.000, 0.000, 0.000, 15:39:40.680
79, -184.26, -680.86, -2319.77, 1180.66, 0.000, 0.000, 0.000, 15:39:40.680
80, 378.80, -732.13, -2324.68, 578.76, 0.000, 0.000, 0.000, 15:39:40.680
81, 559.62, -573.83, -1727.88, 1143.30, 0.000, 0.000, 0.000, 15:39:40.681
82, -126.43, -612.66, -2121.25, 1444.42, 0.000, 0.000, 0.000, 15:39:40.681
85, -736.35, -526.06, -2145.06, 2416.70, 0.000, 0.000, 0.000, 15:39:40.708
86, -908.43, -706.13, -2674.68, 1758.86, 0.000, 0.000, 0.000, 15:39:40.709
87, -183.41, -650.34, -2353.94, 1264.18, 0.000, 0.000, 0.000, 15:39:40.738
88, -498.17, -530.20, -1996.58, 1555.07, 0.000, 0.000, 0.000, 15:39:40.739
91, -293.66, -360.92, -1420.50, 2107.38, 0.000, 0.000, 0.000, 15:39:40.739
92, -967.64, -403.25, -1806.90, 2415.68, 0.000, 0.000, 0.000, 15:39:40.739
93, -769.36, -547.69, -2108.20, 1571.05, 0.000, 0.000, 0.000, 15:39:40.768
94, -163.97, -410.52, -1550.35, 1213.71, 0.000, 0.000, 0.000, 15:39:40.768
95, -812.14, -367.61, -1573.91, 2126.02, 0.000, 0.000, 0.000, 15:39:40.769
96, -945.21, -509.72, -2117.50, 1545.04, 0.000, 0.000, 0.000, 15:39:40.769
97, -272.67, -498.86, -1794.42, 983.27, 0.000, 0.000, 0.000, 15:39:40.771
98, -543.42, -325.46, -1435.28, 1304.02, 0.000, 0.000, 0.000, 15:39:40.772
99, -1042.25, -470.59, -1996.89, 2169.88, 0.000, 0.000, 0.000, 15:39:40.772
100, -486.68, -523.51, -1991.11, 1574.05, 0.000, 0.000, 0.000, 15:39:40.773
103, -258.57, -645.90, -2319.60, 738.69, 0.000, 0.000, 0.000, 15:39:40.798
104, 321.84, -547.41, -1773.01, 319.71, 0.000, 0.000, 0.000, 15:39:40.799
105, -291.33, -461.18, -1791.77, 1286.00, 0.000, 0.000, 0.000, 15:39:40.828
106, -474.04, -638.60, -2299.61, 674.25, 0.000, 0.000, 0.000, 15:39:40.829
109, -942.22, -749.25, -2864.68, 1609.32, 0.000, 0.000, 0.000, 15:39:40.829
110, -416.19, -828.42, -2893.37, 974.45, 0.000, 0.000, 0.000, 15:39:40.829
111, -195.14, -640.71, -2301.82, 1496.38, 0.000, 0.000, 0.000, 15:39:40.858
112, -894.16, -691.17, -2673.00, 1832.07, 0.000, 0.000, 0.000, 15:39:40.859
113, -687.20, -830.03, -3013.14, 1008.26, 0.000, 0.000, 0.000, 15:39:40.860
114, -91.23, -705.04, -2445.68, 596.94, 0.000, 0.000, 0.000, 15:39:40.860
115, -721.49, -656.59, -2451.58, 1524.90, 0.000, 0.000, 0.000, 15:39:40.861
116, -870.35, -796.26, -3009.27, 974.83, 0.000, 0.000, 0.000, 15:39:40.861
117, -178.83, -784.61, -2687.10, 402.75, 0.000, 0.000, 0.000, 15:39:40.861
118, -439.78, -620.49, -2319.81, 677.38, 0.000, 0.000, 0.000, 15:39:40.861
121, -237.35, -468.07, -1733.37, 1117.50, 0.000, 0.000, 0.000, 15:39:40.888
122, -916.09, -493.56, -2097.72, 1485.56, 0.000, 0.000, 0.000, 15:39:40.889
123, -705.13, -629.65, -2413.70, 664.30, 0.000, 0.000, 0.000, 15:39:40.918
124, -110.47, -516.31, -1876.44, 227.82, 0.000, 0.000, 0.000, 15:39:40.919
127, 606.09, -473.16, -1578.30, -313.61, 0.000, 0.000, 0.000, 15:39:40.919
128, 314.80, -346.79, -1202.26, -111.88, 0.000, 0.000, 0.000, 15:39:40.919
129, -161.25, -444.31, -1766.55, -100.27, 0.000, 0.000, 0.000, 15:39:40.948
130, 349.25, -539.76, -1792.38, -736.45, 0.000, 0.000, 0.000, 15:39:40.949
131, 580.55, -356.11, -1194.21, -266.67, 0.000, 0.000, 0.000, 15:39:40.949
132, -117.77, -404.03, -1560.95, 100.45, 0.000, 0.000, 0.000, 15:39:40.950
133, 90.80, -535.60, -1903.83, -698.16, 0.000, 0.000, 0.000, 15:39:40.950
134, 694.31, -421.47, -1360.54, -1155.58, 0.000, 0.000, 0.000, 15:39:40.951
135, 67.97, -353.82, -1348.50, -212.78, 0.000, 0.000, 0.000, 15:39:40.951
136, -97.75, -506.27, -1888.26, -736.16, 0.000, 0.000, 0.000, 15:39:40.951
139, -605.99, -640.60, -2450.15, 223.28, 0.000, 0.000, 0.000, 15:39:40.978
140, -74.66, -697.75, -2488.56, -367.30, 0.000, 0.000, 0.000, 15:39:40.979
141, 116.83, -548.83, -1894.86, 40.40, 0.000, 0.000, 0.000, 15:39:41.008
142, -546.49, -575.70, -2265.24, 464.24, 0.000, 0.000, 0.000, 15:39:41.009
145, -1177.37, -512.44, -2264.75, 1406.59, 0.000, 0.000, 0.000, 15:39:41.009
146, -1348.86, -670.26, -2808.78, 885.89, 0.000, 0.000, 0.000, 15:39:41.009
147, -640.01, -641.55, -2508.87, 321.83, 0.000, 0.000, 0.000, 15:39:41.038
148, -905.90, -505.89, -2110.37, 521.06, 0.000, 0.000, 0.000, 15:39:41.039
149, -1410.08, -625.99, -2674.60, 535.93, 0.000, 0.000, 0.000, 15:39:41.039
150, -894.08, -702.59, -2709.30, -58.30, 0.000, 0.000, 0.000, 15:39:41.039
151, -658.44, -530.34, -2120.90, 343.01, 0.000, 0.000, 0.000, 15:39:41.040
152, -1360.00, -568.36, -2485.24, 746.59, 0.000, 0.000, 0.000, 15:39:41.040
153, -1162.58, -695.40, -2833.55, -12.35, 0.000, 0.000, 0.000, 15:39:41.040
154, -556.47, -599.35, -2303.77, -529.55, 0.000, 0.000, 0.000, 15:39:41.040
157, 163.37, -574.58, -2015.09, -1066.05, 0.000, 0.000, 0.000, 15:39:41.070
158, -80.74, -427.97, -1644.15, -843.13, 0.000, 0.000, 0.000, 15:39:41.071
159, -589.94, -540.10, -2225.57, -798.63, 0.000, 0.000, 0.000, 15:39:41.099
160, -63.85, -611.21, -2279.50, -1470.73, 0.000, 0.000, 0.000, 15:39:41.099
163, 78.02, -755.91, -2586.44, -2200.20, 0.000, 0.000, 0.000, 15:39:41.099
164, 682.58, -642.29, -2015.22, -2671.16, 0.000, 0.000, 0.000, 15:39:41.099
165, 56.22, -575.44, -2003.27, -1699.89, 0.000, 0.000, 0.000, 15:39:41.128
166, -129.64, -721.76, -2549.68, -2143.96, 0.000, 0.000, 0.000, 15:39:41.129
167, 563.93, -716.99, -2280.29, -2747.04, 0.000, 0.000, 0.000, 15:39:41.129
168, 316.94, -562.03, -1894.23, -2551.42, 0.000, 0.000, 0.000, 15:39:41.129
169, -198.26, -672.87, -2454.92, -2477.66, 0.000, 0.000, 0.000, 15:39:41.129
170, 331.12, -757.40, -2513.20, -3050.23, 0.000, 0.000, 0.000, 15:39:41.130
171, 581.34, -591.41, -1924.78, -2727.80, 0.000, 0.000, 0.000, 15:39:41.130
172, -114.34, -622.72, -2281.09, -2299.09, 0.000, 0.000, 0.000, 15:39:41.130
175, -713.99, -542.64, -2263.97, -1327.52, 0.000, 0.000, 0.000, 15:39:41.158
176, -922.18, -710.12, -2820.99, -1819.41, 0.000, 0.000, 0.000, 15:39:41.159
177, -216.55, -682.28, -2515.61, -2397.98, 0.000, 0.000, 0.000, 15:39:41.188
178, -454.46, -541.52, -2121.90, -2254.07, 0.000, 0.000, 0.000, 15:39:41.189
181, -209.96, -382.68, -1503.25, -1933.80, 0.000, 0.000, 0.000, 15:39:41.189
182, -903.93, -409.15, -1840.34, -1490.62, 0.000, 0.000, 0.000, 15:39:41.189
183, -731.01, -544.49, -2204.40, -2214.81, 0.000, 0.000, 0.000, 15:39:41.218
184, -114.90, -433.94, -1660.40, -2790.82, 0.000, 0.000, 0.000, 15:39:41.218
185, -725.21, -368.24, -1643.28, -1846.79, 0.000, 0.000, 0.000, 15:39:41.219
186, -917.93, -511.05, -2186.39, -2273.29, 0.000, 0.000, 0.000, 15:39:41.219
187, -209.16, -506.45, -1901.23, -2898.22, 0.000, 0.000, 0.000, 15:39:41.219
188, -446.95, -351.26, -1488.47, -2751.51, 0.000, 0.000, 0.000, 15:39:41.220
189, -970.84, -467.87, -2055.76, -2647.03, 0.000, 0.000, 0.000, 15:39:41.220
190, -461.49, -537.55, -2111.65, -3232.63, 0.000, 0.000, 0.000, 15:39:41.220
193, -304.54, -683.64, -2463.66, -3956.22, 0.000, 0.000, 0.000, 15:39:41.250
194, 319.97, -573.67, -1942.06, -4565.71, 0.000, 0.000, 0.000, 15:39:41.250
195, -275.54, -496.03, -1903.48, -3605.26, 0.000, 0.000, 0.000, 15:39:41.280
196, -483.56, -654.88, -2448.50, -4011.59, 0.000, 0.000, 0.000, 15:39:41.280
199, -1011.53, -767.20, -3029.80, -3904.89, 0.000, 0.000, 0.000, 15:39:41.281
200, -505.38, -844.78, -3068.69, -4451.35, 0.000, 0.000, 0.000, 15:39:41.282
0, 215.99, -111.31, -542.62, -1357.67, 0.000, 0.000, 0.000, 15:39:41.308
1, -480.47, -136.91, -874.32, -864.81, 0.000, 0.000, 0.000, 15:39:41.309
2, -320.05, -280.10, -1245.86, -1575.25, 0.000, 0.000, 0.000, 15:39:41.309
3, 305.65, -176.04, -718.66, -2185.65, 0.000, 0.000, 0.000, 15:39:41.310
4, -288.06, -93.11, -677.69, -1245.70, 0.000, 0.000, 0.000, 15:39:41.310
5, -499.31, -250.65, -1221.36, -1638.08, 0.000, 0.000, 0.000, 15:39:41.310
6, 206.27, -228.43, -949.74, -2265.08, 0.000, 0.000, 0.000, 15:39:41.310
11, -480.35, -259.70, -1302.35, -1771.72, 0.000, 0.000, 0.000, 15:39:41.338
12, -342.08, -400.03, -1643.22, -2443.64, 0.000, 0.000, 0.000, 15:39:41.339
13, 287.30, -287.63, -1112.57, -3098.06, 0.000, 0.000, 0.000, 15:39:41.368
14, -300.89, -224.65, -1062.21, -2167.79, 0.000, 0.000, 0.000, 15:39:41.369
17, -520.00, -68.93, -624.64, -2095.42, 0.000, 0.000, 0.000, 15:39:41.369
18, -1057.65, -186.81, -1193.83, -1936.94, 0.000, 0.000, 0.000, 15:39:41.369
19, -561.97, -263.38, -1238.71, -2471.32, 0.000, 0.000, 0.000, 15:39:41.398
20, -283.94, -100.78, -630.78, -2270.91, 0.000, 0.000, 0.000, 15:39:41.399
21, -995.85, -135.86, -982.51, -1778.52, 0.000, 0.000, 0.000, 15:39:41.399
22, -842.12, -261.92, -1334.94, -2432.93, 0.000, 0.000, 0.000, 15:39:41.400
23, -223.13, -167.65, -787.19, -3100.84, 0.000, 0.000, 0.000, 15:39:41.401
24, -793.60, -87.36, -739.16, -2137.02, 0.000, 0.000, 0.000, 15:39:41.401
25, -1025.90, -253.46, -1299.95, -2506.12, 0.000, 0.000, 0.000, 15:39:41.401
26, -330.49, -229.28, -1043.44, -3134.15, 0.000, 0.000, 0.000, 15:39:41.401
29, 167.03, -317.19, -1102.08, -3665.82, 0.000, 0.000, 0.000, 15:39:41.428
30, 442.37, -159.60, -527.15, -3515.90, 0.000, 0.000, 0.000, 15:39:41.429
31, -241.88, -179.63, -851.41, -2972.01, 0.000, 0.000, 0.000, 15:39:41.458
32, -92.88, -313.88, -1225.39, -3637.77, 0.000, 0.000, 0.000, 15:39:41.458
35, -305.81, -458.70, -1768.69, -3962.73, 0.000, 0.000, 0.000, 15:39:41.459
36, 372.74, -455.65, -1519.89, -4623.34, 0.000, 0.000, 0.000, 15:39:41.459
37, 179.14, -291.44, -1089.25, -4577.99, 0.000, 0.000, 0.000, 15:39:41.488
38, -363.65, -406.21, -1636.42, -4372.68, 0.000, 0.000, 0.000, 15:39:41.488
39, 146.04, -484.90, -1718.01, -4897.30, 0.000, 0.000, 0.000, 15:39:41.489
40, 429.00, -333.55, -1119.40, -4766.45, 0.000, 0.000, 0.000, 15:39:41.489
41, -269.15, -354.46, -1451.03, -4222.27, 0.000, 0.000, 0.000, 15:39:41.489
42, -143.16, -494.61, -1815.87, -4859.45, 0.000, 0.000, 0.000, 15:39:41.490
43, 501.84, -388.27, -1294.58, -5559.77, 0.000, 0.000, 0.000, 15:39:41.490
44, -70.19, -308.37, -1229.70, -4624.55, 0.000, 0.000, 0.000, 15:39:41.490
47, -269.76, -170.79, -803.83, -3659.78, 0.000, 0.000, 0.000, 15:39:41.518
48, -813.26, -266.30, -1360.57, -3413.34, 0.000, 0.000, 0.000, 15:39:41.519
49, -343.72, -353.03, -1441.24, -3946.30, 0.000, 0.000, 0.000, 15:39:41.549
50, -28.17, -189.20, -843.34, -3829.01, 0.000, 0.000, 0.000, 15:39:41.549
53, 616.70, -81.86, -332.09, -4552.18, 0.000, 0.000, 0.000, 15:39:41.550
54, 26.16, -6.88, -269.18, -3620.29, 0.000, 0.000, 0.000, 15:39:41.550
55, -197.15, -151.82, -831.70, -3912.82, 0.000, 0.000, 0.000, 15:39:41.579
56, 505.76, -147.30, -564.53, -4567.19, 0.000, 0.000, 0.000, 15:39:41.580
57, 310.75, 9.18, -136.70, -3594.82, 0.000, 0.000, 0.000, 15:39:41.580
58, -243.94, -108.69, -685.54, -3353.41, 0.000, 0.000, 0.000, 15:39:41.580
59, 237.08, -183.39, -779.31, -3851.86, 0.000, 0.000, 0.000, 15:39:41.582
60, 528.46, -31.21, -174.75, -3791.75, 0.000, 0.000, 0.000, 15:39:41.582
61, -156.16, -41.95, -484.68, -3212.11, 0.000, 0.000, 0.000, 15:39:41.585
62, -29.46, -185.89, -847.18, -3815.66, 0.000, 0.000, 0.000, 15:39:41.585
65, -281.43, -337.51, -1404.99, -4083.08, 0.000, 0.000, 0.000, 15:39:41.610
66, 418.43, -326.73, -1154.22, -4729.15, 0.000, 0.000, 0.000, 15:39:41.610
67, 238.69, -178.10, -713.11, -3803.17, 0.000, 0.000, 0.000, 15:39:41.638
68, -310.50, -284.34, -1260.78, -3526.78, 0.000, 0.000, 0.000, 15:39:41.638
71, -1015.43, -311.41, -1593.33, -2955.25, 0.000, 0.000, 0.000, 15:39:41.639
72, -889.45, -448.49, -1959.93, -3537.36, 0.000, 0.000, 0.000, 15:39:41.639
73, -256.28, -357.01, -1451.04, -4312.37, 0.000, 0.000, 0.000, 15:39:41.668
74, -823.98, -266.07, -1369.79, -3384.44, 0.000, 0.000, 0.000, 15:39:41.669
75, -1041.54, -419.69, -1928.88, -3632.65, 0.000, 0.000, 0.000, 15:39:41.669
76, -360.31, -417.00, -1693.05, -4295.97, 0.000, 0.000, 0.000, 15:39:41.669
77, -530.10, -256.50, -1239.32, -3362.46, 0.000, 0.000, 0.000, 15:39:41.669
78, -1092.59, -363.22, -1797.17, -3076.07, 0.000, 0.000, 0.000, 15:39:41.670
79, -617.74, -447.94, -1885.67, -3578.30, 0.000, 0.000, 0.000, 15:39:41.670
80, -317.20, -291.23, -1272.91, -3540.81, 0.000, 0.000, 0.000, 15:39:41.670
83, 326.51, -189.99, -758.54, -4327.51, 0.000, 0.000, 0.000, 15:39:41.699
84, -233.76, -94.61, -686.54, -3405.30, 0.000, 0.000, 0.000, 15:39:41.699
85, -485.31, -257.47, -1248.10, -3651.36, 0.000, 0.000, 0.000, 15:39:41.728
86, 199.85, -250.42, -988.61, -4303.14, 0.000, 0.000, 0.000, 15:39:41.728
89, 653.72, -337.19, -1088.21, -4795.26, 0.000, 0.000, 0.000, 15:39:41.729
90, 964.31, -183.23, -487.33, -4789.58, 0.000, 0.000, 0.000, 15:39:41.729
91, 275.47, -197.74, -796.13, -4190.10, 0.000, 0.000, 0.000, 15:39:41.758
92, 404.95, -333.83, -1172.21, -4749.07, 0.000, 0.000, 0.000, 15:39:41.758
93, 1052.16, -232.54, -658.62, -5544.34, 0.000, 0.000, 0.000, 15:39:41.759
94, 484.58, -156.60, -571.46, -4634.72, 0.000, 0.000, 0.000, 15:39:41.759
95, 228.87, -293.89, -1123.71, -4851.75, 0.000, 0.000, 0.000, 15:39:41.759
96, 908.68, -295.86, -892.11, -5509.58, 0.000, 0.000, 0.000, 15:39:41.759
97, 753.85, -148.10, -442.45, -4627.55, 0.000, 0.000, 0.000, 15:39:41.760
98, 199.25, -248.25, -1000.60, -4308.17, 0.000, 0.000, 0.000, 15:39:41.760
101, -502.68, -273.11, -1297.32, -3703.53, 0.000, 0.000, 0.000, 15:39:41.788
102, -403.06, -419.77, -1688.89, -4241.87, 0.000, 0.000, 0.000, 15:39:41.789
103, 257.13, -316.12, -1171.54, -5058.01, 0.000, 0.000, 0.000, 15:39:41.819
104, -281.40, -229.16, -1089.77, -4147.19, 0.000, 0.000, 0.000, 15:39:41.820
107, -435.98, -71.51, -625.90, -3294.33, 0.000, 0.000, 0.000, 15:39:41.820
108, -995.90, -170.69, -1169.51, -2933.85, 0.000, 0.000, 0.000, 15:39:41.820
109, -541.00, -260.02, -1272.89, -3401.55, 0.000, 0.000, 0.000, 15:39:41.851
110, -215.23, -108.55, -667.95, -3455.52, 0.000, 0.000, 0.000, 15:39:41.852
111, -907.96, -120.42, -962.40, -2833.61, 0.000, 0.000, 0.000, 15:39:41.852
112, -813.03, -263.88, -1351.82, -3368.35, 0.000, 0.000, 0.000, 15:39:41.852
113, -160.31, -172.33, -837.77, -4198.90, 0.000, 0.000, 0.000, 15:39:41.852
114, -700.59, -89.21, -756.42, -3296.16, 0.000, 0.000, 0.000, 15:39:41.853
115, -969.86, -230.60, -1327.70, -3470.71, 0.000, 0.000, 0.000, 15:39:41.853
116, -284.65, -225.67, -1088.13, -4132.63, 0.000, 0.000, 0.000, 15:39:41.853
119, 171.44, -315.16, -1189.08, -4597.71, 0.000, 0.000, 0.000, 15:39:41.882
120, 510.23, -156.32, -597.88, -4670.37, 0.000, 0.000, 0.000, 15:39:41.882
121, -182.81, -169.68, -882.82, -4043.50, 0.000, 0.000, 0.000, 15:39:41.909
122, -81.07, -311.52, -1277.12, -4543.53, 0.000, 0.000, 0.000, 15:39:41.909
125, -355.26, -473.78, -1840.04, -4697.90, 0.000, 0.000, 0.000, 15:39:41.909
126, 329.00, -464.02, -1611.64, -5369.66, 0.000, 0.000, 0.000, 15:39:41.909
127, 186.37, -307.22, -1146.51, -4551.61, 0.000, 0.000, 0.000, 15:39:41.938
128, -385.66, -417.97, -1687.12, -4156.57, 0.000, 0.000, 0.000, 15:39:41.939
129, 60.44, -509.51, -1810.98, -4621.07, 0.000, 0.000, 0.000, 15:39:41.939
130, 403.18, -354.48, -1200.12, -4724.54, 0.000, 0.000, 0.000, 15:39:41.939
131, -287.29, -364.00, -1484.70, -4090.18, 0.000, 0.000, 0.000, 15:39:41.939
132, -183.59, -499.78, -1890.86, -4562.23, 0.000, 0.000, 0.000, 15:39:41.940
133, 465.64, -408.21, -1380.58, -5444.11, 0.000, 0.000, 0.000, 15:39:41.940
134, -84.99, -318.74, -1264.12, -4544.32, 0.000, 0.000, 0.000, 15:39:41.940
137, -210.53, -155.45, -806.61, -3758.54, 0.000, 0.000, 0.000, 15:39:41.968
138, -787.88, -258.00, -1324.07, -3331.98, 0.000, 0.000, 0.000, 15:39:41.968
139, -343.59, -351.54, -1446.49, -3773.62, 0.000, 0.000, 0.000, 15:39:41.999
140, 3.30, -189.86, -841.54, -3922.37, 0.000, 0.000, 0.000, 15:39:41.999
143, 676.53, -101.69, -334.87, -4799.85, 0.000, 0.000, 0.000, 15:39:42.028
144, 134.00, -17.10, -224.66, -3917.35, 0.000, 0.000, 0.000, 15:39:42.029
145, -141.59, -157.44, -801.43, -4038.08, 0.000, 0.000, 0.000, 15:39:42.058
146, 526.41, -166.30, -584.93, -4709.24, 0.000, 0.000, 0.000, 15:39:42.058
147, 395.09, -11.06, -122.04, -3962.02, 0.000, 0.000, 0.000, 15:39:42.088
148, -158.35, -98.71, -643.76, -3511.18, 0.000, 0.000, 0.000, 15:39:42.089
149, 272.31, -191.77, -769.91, -3938.28, 0.000, 0.000, 0.000, 15:39:42.089
150, 618.29, -45.48, -173.47, -4111.29, 0.000, 0.000, 0.000, 15:39:42.089
151, -75.98, -51.71, -434.59, -3436.52, 0.000, 0.000, 0.000, 15:39:42.118
152, 17.19, -189.23, -831.02, -3889.06, 0.000, 0.000, 0.000, 15:39:42.118
153, 677.79, -95.92, -355.89, -4812.86, 0.000, 0.000, 0.000, 15:39:42.119
154, 125.63, -12.19, -238.38, -3940.69, 0.000, 0.000, 0.000, 15:39:42.119
159, 562.55, -105.70, -370.01, -4369.84, 0.000, 0.000, 0.000, 15:39:42.119
160, 925.50, 55.38, 246.42, -4555.78, 0.000, 0.000, 0.000, 15:39:42.119
165, 621.46, -99.63, -315.84, -4620.49, 0.000, 0.000, 0.000, 15:39:42.120
166, 1294.55, -112.37, -110.03, -5315.00, 0.000, 0.000, 0.000, 15:39:42.120
173, 1953.99, -17.44, 398.97, -6252.77, 0.000, 0.000, 0.000, 15:39:42.149
174, 1427.52, 66.80, 510.55, -5386.56, 0.000, 0.000, 0.000, 15:39:42.149
175, 1140.42, -76.14, -66.94, -5426.78, 0.000, 0.000, 0.000, 15:39:42.179
176, 1800.75, -88.49, 144.32, -6134.88, 0.000, 0.000, 0.000, 15:39:42.179
179, 2214.90, -193.03, 9.93, -6555.57, 0.000, 0.000, 0.000, 15:39:42.179
180, 2598.24, -31.27, 621.67, -6784.97, 0.000, 0.000, 0.000, 15:39:42.179
181, 1891.77, -44.08, 346.33, -6093.92, 0.000, 0.000, 0.000, 15:39:42.208
182, 1966.64, -182.40, -64.06, -6505.12, 0.000, 0.000, 0.000, 15:39:42.209
183, 2654.87, -97.50, 411.15, -7470.92, 0.000, 0.000, 0.000, 15:39:42.209
184, 2110.71, -0.14, 563.14, -6599.59, 0.000, 0.000, 0.000, 15:39:42.209
185, 1810.96, -143.29, -18.86, -6610.32, 0.000, 0.000, 0.000, 15:39:42.211
186, 2479.48, -152.51, 173.36, -7308.66, 0.000, 0.000, 0.000, 15:39:42.211
187, 2386.91, 7.21, 661.83, -6655.19, 0.000, 0.000, 0.000, 15:39:42.212
188, 1799.01, -92.84, 131.12, -6130.02, 0.000, 0.000, 0.000, 15:39:42.212
191, 1125.49, -84.09, -133.99, -5369.10, 0.000, 0.000, 0.000, 15:39:42.238
192, 1189.78, -225.44, -582.88, -5762.09, 0.000, 0.000, 0.000, 15:39:42.238
193, 1868.62, -134.53, -96.83, -5893.41, 0.000, 0.000, 0.000, 15:39:42.269
194, 1341.76, -40.05, 66.28, -5120.83, 0.000, 0.000, 0.000, 15:39:42.269
197, 1220.77, 110.68, 557.31, -4424.16, 0.000, 0.000, 0.000, 15:39:42.270
198, 631.07, 23.82, 44.63, -3851.25, 0.000, 0.000, 0.000, 15:39:42.270
199, 1040.63, -93.15, -109.15, -4233.61, 0.000, 0.000, 0.000, 15:39:42.299
200, 1446.34, 81.90, 489.67, -4526.82, 0.000, 0.000, 0.000, 15:39:42.299
0, -469.20, -127.82, -779.84, 1052.86, 0.000, 0.000, 0.000, 15:39:42.300
1, -423.37, -269.85, -1228.35, 695.85, 0.000, 0.000, 0.000, 15:39:42.301
2, 261.93, -197.77, -755.82, 672.62, 0.000, 0.000, 0.000, 15:39:42.301
3, -231.28, -87.12, -619.62, 1510.30, 0.000, 0.000, 0.000, 15:39:42.301
4, -546.69, -234.55, -1199.38, 1523.72, 0.000, 0.000, 0.000, 15:39:42.302
7, -1147.41, -332.93, -1715.13, 2087.20, 0.000, 0.000, 0.000, 15:39:42.329
8, -737.46, -421.63, -1860.85, 1719.29, 0.000, 0.000, 0.000, 15:39:42.330
9, -348.74, -276.71, -1249.82, 1372.75, 0.000, 0.000, 0.000, 15:39:42.358
10, -1034.93, -272.00, -1491.24, 2122.38, 0.000, 0.000, 0.000, 15:39:42.359
13, -1556.28, -183.87, -1345.21, 2952.30, 0.000, 0.000, 0.000, 15:39:42.359
14, -1872.05, -329.95, -1915.43, 2987.59, 0.000, 0.000, 0.000, 15:39:42.360
15, -1196.75, -329.91, -1740.38, 2294.06, 0.000, 0.000, 0.000, 15:39:42.388
16, -1280.59, -179.90, -1241.24, 2870.41, 0.000, 0.000, 0.000, 15:39:42.388
17, -1878.29, -271.83, -1764.40, 3471.20, 0.000, 0.000, 0.000, 15:39:42.389
18, -1476.57, -374.14, -1923.89, 3089.59, 0.000, 0.000, 0.000, 15:39:42.389
19, -1071.13, -203.65, -1298.99, 2750.02, 0.000, 0.000, 0.000, 15:39:42.390
20, -1784.61, -221.55, -1549.41, 3483.78, 0.000, 0.000, 0.000, 15:39:42.390
21, -1719.77, -366.64, -1965.95, 3145.16, 0.000, 0.000, 0.000, 15:39:42.390
22, -1032.10, -272.50, -1483.89, 3105.09, 0.000, 0.000, 0.000, 15:39:42.390
25, -368.72, -294.51, -1315.96, 2397.15, 0.000, 0.000, 0.000, 15:39:42.418
26, -440.74, -130.11, -814.35, 2973.22, 0.000, 0.000, 0.000, 15:39:42.419
27, -1057.84, -231.42, -1327.98, 3569.30, 0.000, 0.000, 0.000, 15:39:42.448
28, -639.04, -321.49, -1478.99, 3225.59, 0.000, 0.000, 0.000, 15:39:42.448
31, -588.62, -465.20, -1907.07, 2912.63, 0.000, 0.000, 0.000, 15:39:42.449
32, 105.23, -379.51, -1430.42, 2847.53, 0.000, 0.000, 0.000, 15:39:42.449
33, -407.73, -287.15, -1261.46, 3660.77, 0.000, 0.000, 0.000, 15:39:42.478
34, -732.17, -434.19, -1844.00, 3740.98, 0.000, 0.000, 0.000, 15:39:42.479
35, -62.98, -438.88, -1676.09, 3041.21, 0.000, 0.000, 0.000, 15:39:42.479
36, -136.92, -289.54, -1170.65, 3585.44, 0.000, 0.000, 0.000, 15:39:42.480
37, -750.97, -383.99, -1684.60, 4200.28, 0.000, 0.000, 0.000, 15:39:42.480
38, -326.60, -467.87, -1858.80, 3863.69, 0.000, 0.000, 0.000, 15:39:42.481
39, 91.57, -325.08, -1245.06, 3444.04, 0.000, 0.000, 0.000, 15:39:42.508
40, -634.96, -326.96, -1472.85, 4195.81, 0.000, 0.000, 0.000, 15:39:42.508
43, -1128.90, -237.48, -1316.37, 4982.35, 0.000, 0.000, 0.000, 15:39:42.542
44, -1450.35, -369.48, -1899.73, 5094.78, 0.000, 0.000, 0.000, 15:39:42.542
45, -787.56, -379.92, -1738.16, 4389.27, 0.000, 0.000, 0.000, 15:39:42.542
46, -850.19, -224.51, -1231.38, 4888.20, 0.000, 0.000, 0.000, 15:39:42.542
49, -453.37, -93.25, -608.84, 4433.07, 0.000, 0.000, 0.000, 15:39:42.568
50, -1146.64, -85.08, -827.70, 5208.39, 0.000, 0.000, 0.000, 15:39:42.569
51, -1110.89, -220.64, -1257.95, 4931.07, 0.000, 0.000, 0.000, 15:39:42.569
52, -434.23, -144.55, -786.88, 4823.38, 0.000, 0.000, 0.000, 15:39:42.569
53, -935.57, -52.00, -605.32, 5606.59, 0.000, 0.000, 0.000, 15:39:42.570
54, -1258.99, -184.90, -1173.63, 5756.14, 0.000, 0.000, 0.000, 15:39:42.570
55, -608.85, -201.08, -1012.06, 5044.65, 0.000, 0.000, 0.000, 15:39:42.570
56, -661.92, -58.76, -495.63, 5519.18, 0.000, 0.000, 0.000, 15:39:42.570
61, -622.12, -196.17, -945.66, 5256.29, 0.000, 0.000, 0.000, 15:39:42.599
62, 53.53, -122.26, -478.15, 5122.12, 0.000, 0.000, 0.000, 15:39:42.599
63, -444.66, -17.99, -291.69, 5919.18, 0.000, 0.000, 0.000, 15:39:42.629
64, -772.88, -152.84, -880.19, 6077.07, 0.000, 0.000, 0.000, 15:39:42.629
67, -1377.45, -233.12, -1388.35, 6779.40, 0.000, 0.000, 0.000, 15:39:42.629
68, -1006.54, -339.34, -1562.67, 6456.50, 0.000, 0.000, 0.000, 15:39:42.630
69, -574.50, -192.83, -956.96, 5959.28, 0.000, 0.000, 0.000, 15:39:42.658
70, -1262.58, -187.08, -1190.26, 6749.14, 0.000, 0.000, 0.000, 15:39:42.658
71, -1246.87, -330.19, -1618.25, 6496.07, 0.000, 0.000, 0.000, 15:39:42.659
72, -549.44, -262.33, -1173.68, 6359.23, 0.000, 0.000, 0.000, 15:39:42.659
73, -1019.00, -152.75, -987.86, 7153.80, 0.000, 0.000, 0.000, 15:39:42.688
74, -1365.90, -287.89, -1575.85, 7319.31, 0.000, 0.000, 0.000, 15:39:42.688
75, -723.62, -307.03, -1418.77, 6603.83, 0.000, 0.000, 0.000, 15:39:42.718
76, -758.22, -150.20, -906.63, 7050.32, 0.000, 0.000, 0.000, 15:39:42.718
79, -327.93, -8.38, -295.09, 6517.58, 0.000, 0.000, 0.000, 15:39:42.719
80, -1004.94, 6.96, -507.49, 7331.54, 0.000, 0.000, 0.000, 15:39:42.719
81, -993.77, -140.41, -977.42, 7084.68, 0.000, 0.000, 0.000, 15:39:42.748
82, -290.20, -66.72, -504.39, 6932.06, 0.000, 0.000, 0.000, 15:39:42.749
85, 349.16, -96.45, -357.21, 6223.64, 0.000, 0.000, 0.000, 15:39:42.749
86, 318.82, 69.01, 164.70, 6645.54, 0.000, 0.000, 0.000, 15:39:42.750
87, -291.56, -13.87, -334.32, 7375.91, 0.000, 0.000, 0.000, 15:39:42.750
88, 75.62, -125.48, -510.82, 7093.98, 0.000, 0.000, 0.000, 15:39:42.750
91, 74.42, -282.32, -973.29, 6873.56, 0.000, 0.000, 0.000, 15:39:42.751
92, 776.22, -208.83, -530.04, 6707.84, 0.000, 0.000, 0.000, 15:39:42.751
97, 151.78, -285.20, -1024.23, 7455.67, 0.000, 0.000, 0.000, 15:39:42.778
98, 508.10, -398.85, -1209.81, 7167.31, 0.000, 0.000, 0.000, 15:39:42.778
99, 956.89, -248.56, -593.59, 6590.00, 0.000, 0.000, 0.000, 15:39:42.808
100, 276.55, -236.98, -817.63, 7412.98, 0.000, 0.000, 0.000, 15:39:42.808
103, -186.41, -125.14, -604.66, 8180.46, 0.000, 0.000, 0.000, 15:39:42.809
104, -562.04, -274.93, -1191.29, 8392.93, 0.000, 0.000, 0.000, 15:39:42.809
105, 90.43, -286.01, -1054.52, 7695.70, 0.000, 0.000, 0.000, 15:39:42.839
106, 71.29, -125.43, -510.59, 8054.39, 0.000, 0.000, 0.000, 15:39:42.839
107, -540.93, -204.50, -1020.99, 8831.12, 0.000, 0.000, 0.000, 15:39:42.839
108, -198.37, -321.66, -1213.53, 8551.74, 0.000, 0.000, 0.000, 15:39:42.840
109, 263.99, -171.41, -596.39, 7961.95, 0.000, 0.000, 0.000, 15:39:42.840
110, -421.14, -152.80, -794.43, 8787.74, 0.000, 0.000, 0.000, 15:39:42.840
111, -425.56, -308.71, -1259.15, 8597.43, 0.000, 0.000, 0.000, 15:39:42.840
112, 274.28, -232.96, -810.62, 8408.75, 0.000, 0.000, 0.000, 15:39:42.840
115, 902.09, -266.36, -658.83, 7706.31, 0.000, 0.000, 0.000, 15:39:42.868
116, 896.75, -93.39, -147.15, 8039.46, 0.000, 0.000, 0.000, 15:39:42.868
117, 270.96, -177.65, -623.08, 8842.83, 0.000, 0.000, 0.000, 15:39:42.898
118, 632.04, -288.88, -812.88, 8587.00, 0.000, 0.000, 0.000, 15:39:42.899
121, 623.61, -439.52, -1287.37, 8414.09, 0.000, 0.000, 0.000, 15:39:42.899
122, 1329.74, -359.10, -844.58, 8213.31, 0.000, 0.000, 0.000, 15:39:42.899
123, 865.31, -252.11, -634.99, 8932.09, 0.000, 0.000, 0.000, 15:39:42.929
124, 489.90, -402.55, -1200.88, 9200.89, 0.000, 0.000, 0.000, 15:39:42.929
125, 1127.93, -428.76, -1090.00, 8492.63, 0.000, 0.000, 0.000, 15:39:42.930
126, 1136.54, -252.35, -560.12, 8818.42, 0.000, 0.000, 0.000, 15:39:42.930
127, 508.60, -325.75, -1024.98, 9640.06, 0.000, 0.000, 0.000, 15:39:42.930
128, 863.31, -437.52, -1239.45, 9388.32, 0.000, 0.000, 0.000, 15:39:42.930
129, 1322.89, -293.72, -648.08, 8733.93, 0.000, 0.000, 0.000, 15:39:42.931
130, 625.52, -281.77, -810.95, 9563.75, 0.000, 0.000, 0.000, 15:39:42.931
133, 173.29, -173.41, -596.79, 10269.62, 0.000, 0.000, 0.000, 15:39:42.958
134, -201.94, -326.67, -1188.91, 10554.33, 0.000, 0.000, 0.000, 15:39:42.958
135, 427.35, -344.09, -1060.33, 9862.82, 0.000, 0.000, 0.000, 15:39:42.988
136, 446.99, -176.55, -517.30, 10157.44, 0.000, 0.000, 0.000, 15:39:42.988
139, 918.44, -21.01, 87.12, 9470.98, 0.000, 0.000, 0.000, 15:39:42.989
140, 226.23, -17.94, -87.70, 10302.80, 0.000, 0.000, 0.000, 15:39:42.989
141, 209.54, -163.39, -558.37, 10182.75, 0.000, 0.000, 0.000, 15:39:43.018
142, 923.18, -90.80, -132.55, 9934.16, 0.000, 0.000, 0.000, 15:39:43.019
143, 475.39, 25.22, 97.99, 10650.78, 0.000, 0.000, 0.000, 15:39:43.019
144, 90.20, -119.54, -477.11, 10961.17, 0.000, 0.000, 0.000, 15:39:43.019
145, 734.60, -142.74, -360.77, 10257.98, 0.000, 0.000, 0.000, 15:39:43.020
146, 734.02, 15.97, 174.23, 10500.11, 0.000, 0.000, 0.000, 15:39:43.020
147, 75.33, -74.29, -306.57, 11356.39, 0.000, 0.000, 0.000, 15:39:43.020
148, 443.49, -174.71, -511.54, 11153.78, 0.000, 0.000, 0.000, 15:39:43.020
151, 425.84, -323.59, -974.68, 11055.23, 0.000, 0.000, 0.000, 15:39:43.048
152, 1122.87, -261.78, -573.98, 10789.29, 0.000, 0.000, 0.000, 15:39:43.048
153, 683.52, -141.99, -314.71, 11492.61, 0.000, 0.000, 0.000, 15:39:43.079
154, 294.09, -293.26, -903.63, 11814.95, 0.000, 0.000, 0.000, 15:39:43.079
157, -340.67, -372.99, -1404.02, 12675.36, 0.000, 0.000, 0.000, 15:39:43.079
158, -0.72, -483.21, -1613.25, 12472.61, 0.000, 0.000, 0.000, 15:39:43.080
159, 475.76, -342.93, -1020.93, 11726.21, 0.000, 0.000, 0.000, 15:39:43.108
160, -199.01, -317.32, -1187.71, 12588.45, 0.000, 0.000, 0.000, 15:39:43.109
161, -220.23, -466.22, -1642.15, 12511.16, 0.000, 0.000, 0.000, 15:39:43.109
162, 471.32, -400.38, -1218.06, 12246.87, 0.000, 0.000, 0.000, 15:39:43.109
163, 28.42, -298.98, -992.90, 12907.51, 0.000, 0.000, 0.000, 15:39:43.110
164, -356.82, -425.69, -1570.27, 13273.03, 0.000, 0.000, 0.000, 15:39:43.110
165, 266.36, -462.57, -1466.07, 12571.12, 0.000, 0.000, 0.000, 15:39:43.111
166, 298.80, -292.70, -932.73, 12775.37, 0.000, 0.000, 0.000, 15:39:43.111
169, 769.21, -159.13, -337.83, 11999.59, 0.000, 0.000, 0.000, 15:39:43.138
170, 80.63, -138.76, -497.06, 12856.84, 0.000, 0.000, 0.000, 15:39:43.138
171, 58.72, -276.68, -970.02, 12786.30, 0.000, 0.000, 0.000, 15:39:43.168
172, 755.27, -213.82, -551.50, 12504.17, 0.000, 0.000, 0.000, 15:39:43.168
175, 1395.30, -247.05, -452.28, 11815.29, 0.000, 0.000, 0.000, 15:39:43.169
176, 1422.75, -87.03, 76.02, 11985.57, 0.000, 0.000, 0.000, 15:39:43.169
177, 774.36, -149.97, -376.08, 12893.51, 0.000, 0.000, 0.000, 15:39:43.199
178, 1108.96, -263.17, -599.84, 12717.59, 0.000, 0.000, 0.000, 15:39:43.200
179, 1595.53, -143.28, -15.94, 11906.28, 0.000, 0.000, 0.000, 15:39:43.200
180, 915.94, -114.78, -165.89, 12770.29, 0.000, 0.000, 0.000, 15:39:43.200
181, 875.93, -252.28, -628.72, 12747.54, 0.000, 0.000, 0.000, 15:39:43.200
182, 1588.79, -188.75, -213.41, 12442.53, 0.000, 0.000, 0.000, 15:39:43.201
183, 1158.69, -77.87, 26.23, 13085.26, 0.000, 0.000, 0.000, 15:39:43.202
184, 765.38, -211.77, -559.50, 13501.89, 0.000, 0.000, 0.000, 15:39:43.202
187, 126.63, -276.77, -1023.53, 14434.35, 0.000, 0.000, 0.000, 15:39:43.229
188, 459.01, -402.26, -1258.79, 14262.51, 0.000, 0.000, 0.000, 15:39:43.229
189, 936.51, -262.34, -671.80, 13432.34, 0.000, 0.000, 0.000, 15:39:43.258
190, 259.54, -226.70, -812.28, 14302.80, 0.000, 0.000, 0.000, 15:39:43.259
193, -159.54, -107.87, -550.38, 14945.20, 0.000, 0.000, 0.000, 15:39:43.259
194, -552.37, -241.45, -1128.86, 15383.80, 0.000, 0.000, 0.000, 15:39:43.259
195, 48.27, -292.45, -1025.54, 14660.68, 0.000, 0.000, 0.000, 15:39:43.288
196, 89.91, -128.73, -478.88, 14775.67, 0.000, 0.000, 0.000, 15:39:43.288
197, -546.02, -189.30, -958.33, 15750.26, 0.000, 0.000, 0.000, 15:39:43.289
198, -225.78, -303.02, -1200.29, 15599.76, 0.000, 0.000, 0.000, 15:39:43.289
199, 266.39, -166.94, -602.18, 14740.11, 0.000, 0.000, 0.000, 15:39:43.289
200, -410.98, -129.88, -726.68, 15618.99, 0.000, 0.000, 0.000, 15:39:43.289
0, -451.66, -261.95, -1230.11, -60.87, 0.000, 0.000, 0.000, 15:39:43.290
5, -385.08, -102.17, -676.24, 44.91, 0.000, 0.000, 0.000, 15:39:43.319
6, -1030.47, -162.09, -1158.53, 1006.01, 0.000, 0.000, 0.000, 15:39:43.319
7, -711.57, -275.66, -1384.16, 860.37, 0.000, 0.000, 0.000, 15:39:43.349
8, -202.67, -137.62, -789.75, 6.69, 0.000, 0.000, 0.000, 15:39:43.349
11, 493.19, -84.70, -417.95, -314.71, 0.000, 0.000, 0.000, 15:39:43.349
12, 91.06, 41.41, -148.01, 303.69, 0.000, 0.000, 0.000, 15:39:43.350
13, -301.42, -84.40, -734.31, 762.77, 0.000, 0.000, 0.000, 15:39:43.379
14, 309.13, -129.25, -644.89, 75.56, 0.000, 0.000, 0.000, 15:39:43.379
15, 392.89, 34.81, -100.35, 185.84, 0.000, 0.000, 0.000, 15:39:43.380
16, -224.76, -25.48, -556.89, 231.39, 0.000, 0.000, 0.000, 15:39:43.380
17, 88.66, -147.31, -830.83, 117.22, 0.000, 0.000, 0.000, 15:39:43.380
18, 593.65, -8.96, -242.69, -845.50, 0.000, 0.000, 0.000, 15:39:43.380
19, -69.34, 35.30, -374.06, -72.28, 0.000, 0.000, 0.000, 15:39:43.381
20, -160.94, -125.08, -811.92, -103.19, 0.000, 0.000, 0.000, 15:39:43.381
23, -580.67, -260.84, -1388.63, 434.75, 0.000, 0.000, 0.000, 15:39:43.409
24, 13.75, -324.56, -1308.55, -252.83, 0.000, 0.000, 0.000, 15:39:43.409
25, 95.77, -146.18, -771.63, -205.46, 0.000, 0.000, 0.000, 15:39:43.438
26, -563.59, -217.35, -1214.38, -182.73, 0.000, 0.000, 0.000, 15:39:43.438
29, -1232.64, -177.71, -1346.55, 723.83, 0.000, 0.000, 0.000, 15:39:43.439
30, -1292.89, -328.31, -1841.72, -219.59, 0.000, 0.000, 0.000, 15:39:43.439
31, -587.12, -274.32, -1450.29, -582.48, 0.000, 0.000, 0.000, 15:39:43.469
32, -982.72, -156.47, -1188.37, -14.63, 0.000, 0.000, 0.000, 15:39:43.469
33, -1399.55, -298.25, -1770.74, 481.62, 0.000, 0.000, 0.000, 15:39:43.469
34, -794.88, -340.01, -1681.80, -203.02, 0.000, 0.000, 0.000, 15:39:43.470
35, -708.97, -169.52, -1128.13, -172.45, 0.000, 0.000, 0.000, 15:39:43.470
36, -1353.32, -222.65, -1579.29, -129.86, 0.000, 0.000, 0.000, 15:39:43.470
37, -1082.84, -362.90, -1818.39, -248.20, 0.000, 0.000, 0.000, 15:39:43.470
38, -550.32, -209.67, -1230.14, -1187.96, 0.000, 0.000, 0.000, 15:39:43.470
41, 160.77, -149.92, -842.81, -1544.25, 0.000, 0.000, 0.000, 15:39:43.498
42, -249.72, -32.07, -559.86, -990.74, 0.000, 0.000, 0.000, 15:39:43.499
43, -668.54, -160.19, -1137.04, -465.51, 0.000, 0.000, 0.000, 15:39:43.528
44, -64.96, -211.44, -1058.79, -1146.29, 0.000, 0.000, 0.000, 15:39:43.528
47, 224.83, -320.45, -1299.90, -1238.73, 0.000, 0.000, 0.000, 15:39:43.529
48, 751.50, -188.89, -715.60, -2209.63, 0.000, 0.000, 0.000, 15:39:43.529
49, 93.25, -155.29, -834.87, -1310.11, 0.000, 0.000, 0.000, 15:39:43.558
50, 7.86, -314.85, -1333.75, -2213.52, 0.000, 0.000, 0.000, 15:39:43.559
51, 715.54, -261.47, -951.00, -2586.42, 0.000, 0.000, 0.000, 15:39:43.559
52, 328.95, -127.78, -658.29, -2032.32, 0.000, 0.000, 0.000, 15:39:43.560
53, -94.71, -264.78, -1237.13, -1482.44, 0.000, 0.000, 0.000, 15:39:43.560
54, 511.18, -309.50, -1164.87, -2150.66, 0.000, 0.000, 0.000, 15:39:43.560
55, 599.41, -139.59, -611.83, -1209.21, 0.000, 0.000, 0.000, 15:39:43.561
56, -59.31, -216.81, -1060.25, -1151.16, 0.000, 0.000, 0.000, 15:39:43.561
59, -749.81, -184.76, -1155.24, -255.24, 0.000, 0.000, 0.000, 15:39:43.588
60, -817.14, -334.49, -1651.28, -1133.73, 0.000, 0.000, 0.000, 15:39:43.588
61, -88.20, -286.05, -1270.10, -1506.74, 0.000, 0.000, 0.000, 15:39:43.618
62, -459.23, -149.97, -994.60, -983.19, 0.000, 0.000, 0.000, 15:39:43.618
65, -363.99, 12.44, -419.20, -67.51, 0.000, 0.000, 0.000, 15:39:43.618
66, -1038.39, -56.31, -869.88, 12.08, 0.000, 0.000, 0.000, 15:39:43.619
67, -738.06, -163.92, -1123.63, -44.54, 0.000, 0.000, 0.000, 15:39:43.648
68, -198.81, -32.53, -536.39, -78.21, 0.000, 0.000, 0.000, 15:39:43.649
69, -868.11, 9.11, -625.34, 823.26, 0.000, 0.000, 0.000, 15:39:43.650
70, -964.49, -146.61, -1120.69, -35.37, 0.000, 0.000, 0.000, 15:39:43.650
71, -264.17, -95.78, -761.69, -452.99, 0.000, 0.000, 0.000, 15:39:43.650
72, -630.30, 20.74, -456.97, 68.98, 0.000, 0.000, 0.000, 15:39:43.651
73, -1065.54, -109.82, -1032.09, 663.99, 0.000, 0.000, 0.000, 15:39:43.651
74, -468.35, -142.09, -967.31, -4.52, 0.000, 0.000, 0.000, 15:39:43.651
77, -190.53, -264.35, -1227.91, -47.04, 0.000, 0.000, 0.000, 15:39:43.678
78, 329.30, -143.87, -666.38, -127.04, 0.000, 0.000, 0.000, 15:39:43.678
79, -343.60, -93.38, -739.01, 786.55, 0.000, 0.000, 0.000, 15:39:43.709
80, -430.59, -240.87, -1237.70, -55.95, 0.000, 0.000, 0.000, 15:39:43.710
83, -862.56, -373.16, -1811.25, 564.77, 0.000, 0.000, 0.000, 15:39:43.710
84, -282.02, -419.42, -1760.76, -94.08, 0.000, 0.000, 0.000, 15:39:43.710
85, -180.36, -261.06, -1187.60, 768.14, 0.000, 0.000, 0.000, 15:39:43.738
86, -831.23, -303.27, -1603.12, 903.89, 0.000, 0.000, 0.000, 15:39:43.738
87, -558.18, -438.48, -1883.76, 870.13, 0.000, 0.000, 0.000, 15:39:43.739
88, -21.49, -316.95, -1327.51, 771.97, 0.000, 0.000, 0.000, 15:39:43.739
89, -690.18, -267.96, -1400.10, 1685.35, 0.000, 0.000, 0.000, 15:39:43.739
90, -783.90, -417.82, -1922.38, 870.91, 0.000, 0.000, 0.000, 15:39:43.740
91, -60.46, -371.49, -1547.09, 449.16, 0.000, 0.000, 0.000, 15:39:43.740
92, -434.88, -241.29, -1239.98, 926.51, 0.000, 0.000, 0.000, 15:39:43.740
95, -316.18, -73.74, -695.32, 1771.49, 0.000, 0.000, 0.000, 15:39:43.769
96, -983.81, -131.23, -1128.34, 1907.97, 0.000, 0.000, 0.000, 15:39:43.769
97, -698.75, -247.26, -1400.19, 1893.46, 0.000, 0.000, 0.000, 15:39:43.800
98, -168.45, -130.45, -823.02, 1762.32, 0.000, 0.000, 0.000, 15:39:43.800
101, 535.75, -91.10, -471.77, 1319.00, 0.000, 0.000, 0.000, 15:39:43.800
102, 185.13, 42.91, -158.65, 1790.04, 0.000, 0.000, 0.000, 15:39:43.801
103, -257.25, -82.12, -743.20, 2454.53, 0.000, 0.000, 0.000, 15:39:43.833
104, 312.15, -139.76, -693.38, 1780.25, 0.000, 0.000, 0.000, 15:39:43.833
105, 437.73, 17.32, -121.64, 2584.86, 0.000, 0.000, 0.000, 15:39:43.834
106, -223.72, -29.74, -546.82, 2756.06, 0.000, 0.000, 0.000, 15:39:43.834
107, 42.94, -139.91, -817.31, 1778.14, 0.000, 0.000, 0.000, 15:39:43.834
108, 603.67, -17.81, -248.28, 1634.18, 0.000, 0.000, 0.000, 15:39:43.834
109, -57.59, 24.94, -312.57, 2555.68, 0.000, 0.000, 0.000, 15:39:43.835
110, -171.43, -128.54, -827.02, 1767.17, 0.000, 0.000, 0.000, 15:39:43.835
113, -591.47, -248.81, -1408.52, 2457.85, 0.000, 0.000, 0.000, 15:39:43.859
114, -30.28, -308.10, -1367.38, 1792.28, 0.000, 0.000, 0.000, 15:39:43.859
115, 100.58, -145.95, -786.52, 2580.81, 0.000, 0.000, 0.000, 15:39:43.892
116, -585.20, -210.22, -1220.48, 2746.86, 0.000, 0.000, 0.000, 15:39:43.892
119, -1232.00, -170.47, -1290.25, 3683.15, 0.000, 0.000, 0.000, 15:39:43.893
120, -1353.27, -335.97, -1803.84, 2896.70, 0.000, 0.000, 0.000, 15:39:43.893
121, -654.54, -295.79, -1440.96, 2442.37, 0.000, 0.000, 0.000, 15:39:43.920
122, -982.13, -152.02, -1122.81, 2884.97, 0.000, 0.000, 0.000, 15:39:43.920
123, -1439.62, -276.22, -1671.18, 3603.62, 0.000, 0.000, 0.000, 15:39:43.920
124, -861.10, -336.42, -1661.62, 2942.89, 0.000, 0.000, 0.000, 15:39:43.921
125, -731.35, -175.20, -1091.79, 3694.05, 0.000, 0.000, 0.000, 15:39:43.921
126, -1405.06, -227.24, -1507.99, 3882.64, 0.000, 0.000, 0.000, 15:39:43.921
127, -1155.64, -349.11, -1781.69, 2933.89, 0.000, 0.000, 0.000, 15:39:43.921
128, -592.01, -220.07, -1218.88, 2730.95, 0.000, 0.000, 0.000, 15:39:43.921
131, 124.35, -172.73, -878.13, 2268.40, 0.000, 0.000, 0.000, 15:39:43.949
132, -216.41, -41.31, -541.52, 2688.16, 0.000, 0.000, 0.000, 15:39:43.949
133, -682.29, -176.80, -1103.90, 3408.13, 0.000, 0.000, 0.000, 15:39:43.978
134, -103.86, -219.53, -1097.57, 2769.31, 0.000, 0.000, 0.000, 15:39:43.979
137, 130.29, -363.27, -1388.16, 1806.64, 0.000, 0.000, 0.000, 15:39:43.979
138, 710.24, -231.57, -828.28, 1588.26, 0.000, 0.000, 0.000, 15:39:43.980
139, 63.98, -177.58, -885.70, 2533.58, 0.000, 0.000, 0.000, 15:39:44.008
140, -68.31, -339.54, -1413.56, 1801.12, 0.000, 0.000, 0.000, 15:39:44.008
141, 647.92, -287.02, -1055.16, 1324.66, 0.000, 0.000, 0.000, 15:39:44.009
142, 316.30, -163.76, -726.13, 1718.56, 0.000, 0.000, 0.000, 15:39:44.009
143, -139.63, -272.45, -1292.73, 2482.73, 0.000, 0.000, 0.000, 15:39:44.009
144, 399.93, -350.09, -1271.64, 1815.45, 0.000, 0.000, 0.000, 15:39:44.010
145, 556.62, -178.81, -709.25, 2519.79, 0.000, 0.000, 0.000, 15:39:44.010
146, -97.38, -225.79, -1110.93, 2758.32, 0.000, 0.000, 0.000, 15:39:44.010
149, -754.96, -176.56, -1150.30, 3689.54, 0.000, 0.000, 0.000, 15:39:44.038
150, -861.73, -316.52, -1664.20, 3006.20, 0.000, 0.000, 0.000, 15:39:44.038
151, -166.40, -287.99, -1318.59, 2495.98, 0.000, 0.000, 0.000, 15:39:44.068
152, -474.01, -138.29, -983.07, 2914.92, 0.000, 0.000, 0.000, 15:39:44.069
155, -334.42, 22.78, -398.03, 3575.61, 0.000, 0.000, 0.000, 15:39:44.069
156, -999.39, -24.44, -810.06, 3826.45, 0.000, 0.000, 0.000, 15:39:44.069
157, -748.05, -151.52, -1103.86, 2919.97, 0.000, 0.000, 0.000, 15:39:44.098
158, -184.18, -37.75, -547.25, 2629.94, 0.000, 0.000, 0.000, 15:39:44.099
159, -823.02, 20.36, -583.44, 3589.34, 0.000, 0.000, 0.000, 15:39:44.099
160, -978.24, -144.26, -1101.57, 2868.79, 0.000, 0.000, 0.000, 15:39:44.100
161, -251.10, -98.70, -764.04, 2393.21, 0.000, 0.000, 0.000, 15:39:44.100
162, -574.89, 38.39, -429.84, 2764.04, 0.000, 0.000, 0.000, 15:39:44.100
163, -1037.40, -75.27, -1002.61, 3565.52, 0.000, 0.000, 0.000, 15:39:44.101
164, -476.50, -154.60, -986.30, 2918.52, 0.000, 0.000, 0.000, 15:39:44.101
167, -245.22, -288.84, -1294.82, 2007.37, 0.000, 0.000, 0.000, 15:39:44.128
168, 325.78, -168.83, -726.40, 1709.92, 0.000, 0.000, 0.000, 15:39:44.129
169, -318.36, -119.62, -758.62, 2652.34, 0.000, 0.000, 0.000, 15:39:44.159
170, -455.68, -274.63, -1274.62, 1987.75, 0.000, 0.000, 0.000, 15:39:44.159
173, -938.20, -393.92, -1820.59, 2807.75, 0.000, 0.000, 0.000, 15:39:44.159
174, -391.62, -456.97, -1836.78, 2175.90, 0.000, 0.000, 0.000, 15:39:44.160
175, -208.34, -292.94, -1263.67, 2791.89, 0.000, 0.000, 0.000, 15:39:44.188
176, -891.11, -341.74, -1650.54, 3070.04, 0.000, 0.000, 0.000, 15:39:44.189
177, -673.88, -483.54, -1950.28, 2171.08, 0.000, 0.000, 0.000, 15:39:44.189
178, -74.21, -336.88, -1394.71, 1875.19, 0.000, 0.000, 0.000, 15:39:44.189
179, -733.78, -309.69, -1423.93, 2801.15, 0.000, 0.000, 0.000, 15:39:44.189
180, -856.93, -434.23, -1961.26, 2157.03, 0.000, 0.000, 0.000, 15:39:44.190
181, -155.94, -413.82, -1615.92, 1637.61, 0.000, 0.000, 0.000, 15:39:44.191
182, -452.49, -269.90, -1272.08, 1974.22, 0.000, 0.000, 0.000, 15:39:44.191
185, -252.82, -87.00, -697.40, 2574.54, 0.000, 0.000, 0.000, 15:39:44.218
186, -949.87, -146.25, -1090.57, 2858.33, 0.000, 0.000, 0.000, 15:39:44.219
187, -719.70, -269.04, -1379.64, 2002.96, 0.000, 0.000, 0.000, 15:39:44.249
188, -134.01, -142.36, -839.18, 1654.58, 0.000, 0.000, 0.000, 15:39:44.249
191, 577.62, -104.30, -502.79, 1122.68, 0.000, 0.000, 0.000, 15:39:44.250
192, 266.34, 31.62, -142.27, 1427.76, 0.000, 0.000, 0.000, 15:39:44.251
193, -206.29, -70.80, -733.20, 2303.11, 0.000, 0.000, 0.000, 15:39:44.278
194, 329.86, -148.66, -723.31, 1669.72, 0.000, 0.000, 0.000, 15:39:44.278
195, 514.67, 12.90, -141.33, 2231.35, 0.000, 0.000, 0.000, 15:39:44.279
196, -161.20, -25.73, -534.33, 2557.98, 0.000, 0.000, 0.000, 15:39:44.279
197, 49.03, -171.06, -847.25, 1679.60, 0.000, 0.000, 0.000, 15:39:44.280
198, 650.70, -24.08, -298.26, 1334.43, 0.000, 0.000, 0.000, 15:39:44.280
199, -9.73, 13.82, -319.14, 2258.88, 0.000, 0.000, 0.000, 15:39:44.280
200, -152.03, -141.95, -833.46, 1630.23, 0.000, 0.000, 0.000, 15:39:44.281
1, -465.64, -21.08, -473.52, 1909.43, 0.000, 0.000, 0.000, 15:39:44.308
2, -944.52, -122.49, -1030.39, 2805.23, 0.000, 0.000, 0.000, 15:39:44.308
3, -393.94, -190.55, -1039.68, 2192.27, 0.000, 0.000, 0.000, 15:39:44.338
4, -212.77, -39.80, -455.55, 2722.63, 0.000, 0.000, 0.000, 15:39:44.338
7, 387.93, 83.79, 98.55, 2336.82, 0.000, 0.000, 0.000, 15:39:44.338
8, -234.53, 146.32, 52.86, 3290.71, 0.000, 0.000, 0.000, 15:39:44.339
9, -413.22, -15.34, -458.09, 2684.86, 0.000, 0.000, 0.000, 15:39:44.369
10, 315.42, 33.02, -132.10, 2162.36, 0.000, 0.000, 0.000, 15:39:44.369
11, 23.28, 166.13, 220.68, 2418.90, 0.000, 0.000, 0.000, 15:39:44.370
12, -472.93, 39.04, -337.24, 3336.45, 0.000, 0.000, 0.000, 15:39:44.370
13, 76.03, -9.95, -366.37, 2741.47, 0.000, 0.000, 0.000, 15:39:44.370
14, 257.46, 135.98, 244.21, 3229.83, 0.000, 0.000, 0.000, 15:39:44.370
15, -416.62, 103.31, -150.02, 3588.85, 0.000, 0.000, 0.000, 15:39:44.370
16, -207.32, -27.75, -479.63, 2759.93, 0.000, 0.000, 0.000, 15:39:44.370
19, -388.01, -203.15, -1000.04, 2207.65, 0.000, 0.000, 0.000, 15:39:44.399
20, 339.73, -159.85, -703.18, 1703.29, 0.000, 0.000, 0.000, 15:39:44.399
21, 76.65, 1.06, -357.99, 1970.55, 0.000, 0.000, 0.000, 15:39:44.428
22, -438.68, -139.76, -926.91, 2743.97, 0.000, 0.000, 0.000, 15:39:44.428
25, -1156.17, -190.64, -1279.02, 3133.10, 0.000, 0.000, 0.000, 15:39:44.429
26, -951.13, -297.99, -1591.61, 2405.27, 0.000, 0.000, 0.000, 15:39:44.429
27, -378.72, -212.31, -1057.57, 1964.42, 0.000, 0.000, 0.000, 15:39:44.459
28, -1001.29, -138.16, -1078.49, 2924.34, 0.000, 0.000, 0.000, 15:39:44.459
29, -1163.52, -289.69, -1607.96, 2376.24, 0.000, 0.000, 0.000, 15:39:44.459
30, -460.99, -280.22, -1302.83, 1826.64, 0.000, 0.000, 0.000, 15:39:44.459
31, -722.63, -109.19, -944.72, 2109.74, 0.000, 0.000, 0.000, 15:39:44.460
32, -1237.16, -248.35, -1518.94, 3047.25, 0.000, 0.000, 0.000, 15:39:44.460
33, -692.19, -310.74, -1537.90, 2449.35, 0.000, 0.000, 0.000, 15:39:44.460
34, -461.88, -136.37, -950.40, 2897.27, 0.000, 0.000, 0.000, 15:39:44.461
37, 142.39, -27.67, -403.69, 2425.30, 0.000, 0.000, 0.000, 15:39:44.488
38, -480.41, 33.24, -399.43, 3365.14, 0.000, 0.000, 0.000, 15:39:44.489
39, -638.84, -101.65, -930.90, 2845.48, 0.000, 0.000, 0.000, 15:39:44.518
40, 43.37, -105.08, -628.67, 2267.23, 0.000, 0.000, 0.000, 15:39:44.519
43, 559.24, -189.31, -649.84, 1665.10, 0.000, 0.000, 0.000, 15:39:44.519
44, 799.96, 2.68, -61.10, 2122.03, 0.000, 0.000, 0.000, 15:39:44.519
45, 96.26, -55.40, -420.13, 2482.74, 0.000, 0.000, 0.000, 15:39:44.549
46, 300.60, -187.54, -761.61, 1700.19, 0.000, 0.000, 0.000, 15:39:44.549
47, 903.34, -60.65, -215.26, 1230.62, 0.000, 0.000, 0.000, 15:39:44.549
48, 272.27, -23.40, -205.08, 2147.69, 0.000, 0.000, 0.000, 15:39:44.550
49, 114.62, -146.64, -744.78, 1668.60, 0.000, 0.000, 0.000, 15:39:44.550
50, 812.25, -129.20, -439.37, 1089.72, 0.000, 0.000, 0.000, 15:39:44.550
51, 550.15, 3.81, -66.43, 1274.77, 0.000, 0.000, 0.000, 15:39:44.550
52, 52.81, -98.07, -628.58, 1307.14, 0.000, 0.000, 0.000, 15:39:44.551
55, -642.36, -123.43, -978.27, 1714.73, 0.000, 0.000, 0.000, 15:39:44.578
56, -455.99, -273.89, -1315.84, 933.77, 0.000, 0.000, 0.000, 15:39:44.578
57, 169.32, -145.02, -765.77, 452.86, 0.000, 0.000, 0.000, 15:39:44.609
58, -462.04, -99.55, -767.91, 1362.33, 0.000, 0.000, 0.000, 15:39:44.609
61, -726.63, 30.70, -373.32, 1528.30, 0.000, 0.000, 0.000, 15:39:44.609
62, -1217.01, -70.96, -925.57, 1586.01, 0.000, 0.000, 0.000, 15:39:44.609
63, -702.25, -144.03, -974.32, 1008.56, 0.000, 0.000, 0.000, 15:39:44.639
64, -463.69, 10.39, -376.60, 1367.84, 0.000, 0.000, 0.000, 15:39:44.639
65, -1147.26, -7.21, -735.27, 1790.47, 0.000, 0.000, 0.000, 15:39:44.639
66, -980.44, -150.54, -1078.56, 1030.19, 0.000, 0.000, 0.000, 15:39:44.640
67, -363.45, -33.44, -542.15, 509.91, 0.000, 0.000, 0.000, 15:39:44.640
68, -972.84, 30.03, -525.04, 1450.53, 0.000, 0.000, 0.000, 15:39:44.640
69, -1163.92, -121.08, -1063.81, 974.74, 0.000, 0.000, 0.000, 15:39:44.641
70, -458.91, -98.36, -769.54, 384.67, 0.000, 0.000, 0.000, 15:39:44.641
73, 63.77, -170.26, -821.80, -188.24, 0.000, 0.000, 0.000, 15:39:44.668
74, 296.99, -11.82, -214.40, 127.96, 0.000, 0.000, 0.000, 15:39:44.668
75, -388.36, -39.50, -577.45, 570.64, 0.000, 0.000, 0.000, 15:39:44.699
76, -222.74, -177.62, -934.65, -182.18, 0.000, 0.000, 0.000, 15:39:44.699
79, -427.95, -346.08, -1479.15, -650.54, 0.000, 0.000, 0.000, 15:39:44.700
80, 280.27, -312.94, -1191.10, -1254.62, 0.000, 0.000, 0.000, 15:39:44.700
81, 30.65, -159.43, -790.94, -1105.54, 0.000, 0.000, 0.000, 15:39:44.734
82, -494.76, -290.32, -1339.32, -1030.46, 0.000, 0.000, 0.000, 15:39:44.735
83, 18.88, -354.33, -1375.77, -1587.87, 0.000, 0.000, 0.000, 15:39:44.735
84, 261.44, -195.21, -772.38, -1293.78, 0.000, 0.000, 0.000, 15:39:44.735
85, -437.92, -231.53, -1132.25, -839.82, 0.000, 0.000, 0.000, 15:39:44.735
86, -266.71, -365.93, -1474.55, -1552.70, 0.000, 0.000, 0.000, 15:39:44.735
87, 343.90, -263.90, -935.27, -2136.76, 0.000, 0.000, 0.000, 15:39:44.736
88, -242.53, -187.82, -917.26, -1182.21, 0.000, 0.000, 0.000, 15:39:44.736
91, -456.61, -31.35, -516.79, -1053.60, 0.000, 0.000, 0.000, 15:39:44.758
92, -987.60, -155.42, -1081.34, -970.38, 0.000, 0.000, 0.000, 15:39:44.759
93, -471.52, -217.91, -1119.01, -1498.81, 0.000, 0.000, 0.000, 15:39:44.788
94, -220.87, -68.68, -538.89, -1235.10, 0.000, 0.000, 0.000, 15:39:44.789
97, 386.57, 19.73, -4.25, -1850.07, 0.000, 0.000, 0.000, 15:39:44.789
98, -215.87, 95.81, 22.76, -904.85, 0.000, 0.000, 0.000, 15:39:44.789
99, -411.00, -41.66, -514.45, -1305.26, 0.000, 0.000, 0.000, 15:39:44.818
100, 281.39, -52.89, -232.73, -1925.51, 0.000, 0.000, 0.000, 15:39:44.819
101, 74.73, 108.14, 169.76, -1807.85, 0.000, 0.000, 0.000, 15:39:44.819
102, -457.22, 3.81, -393.69, -1695.79, 0.000, 0.000, 0.000, 15:39:44.819
103, 41.76, -77.93, -457.58, -2244.28, 0.000, 0.000, 0.000, 15:39:44.820
104, 318.60, 86.48, 148.05, -1996.89, 0.000, 0.000, 0.000, 15:39:44.820
105, -388.72, 53.41, -195.87, -1520.39, 0.000, 0.000, 0.000, 15:39:44.821
106, -227.43, -74.03, -548.79, -2207.38, 0.000, 0.000, 0.000, 15:39:44.821
109, -426.52, -209.11, -1097.67, -2579.64, 0.000, 0.000, 0.000, 15:39:44.848
110, 260.12, -204.41, -818.49, -3212.28, 0.000, 0.000, 0.000, 15:39:44.849
111, 40.55, -57.49, -411.15, -3126.33, 0.000, 0.000, 0.000, 15:39:44.878
112, -486.30, -161.13, -967.70, -2974.52, 0.000, 0.000, 0.000, 15:39:44.878
115, -1186.41, -178.03, -1302.11, -2488.89, 0.000, 0.000, 0.000, 15:39:44.879
116, -1035.56, -317.05, -1645.66, -3159.57, 0.000, 0.000, 0.000, 15:39:44.879
117, -376.71, -209.77, -1137.34, -3792.96, 0.000, 0.000, 0.000, 15:39:44.908
118, -995.24, -147.59, -1076.26, -2862.38, 0.000, 0.000, 0.000, 15:39:44.909
119, -1208.60, -296.16, -1634.99, -3232.55, 0.000, 0.000, 0.000, 15:39:44.909
120, -505.67, -271.40, -1365.24, -3860.07, 0.000, 0.000, 0.000, 15:39:44.909
121, -726.21, -128.57, -949.55, -3798.30, 0.000, 0.000, 0.000, 15:39:44.909
122, -1240.90, -227.20, -1502.37, -3619.19, 0.000, 0.000, 0.000, 15:39:44.910
123, -757.35, -319.48, -1562.43, -4155.00, 0.000, 0.000, 0.000, 15:39:44.910
124, -489.45, -162.91, -962.36, -3973.76, 0.000, 0.000, 0.000, 15:39:44.910
127, 160.42, -48.38, -417.44, -4619.15, 0.000, 0.000, 0.000, 15:39:44.938
128, -438.21, 22.66, -385.85, -3697.03, 0.000, 0.000, 0.000, 15:39:44.939
129, -663.77, -134.88, -929.80, -4052.60, 0.000, 0.000, 0.000, 15:39:44.968
130, 47.10, -108.79, -681.55, -4669.47, 0.000, 0.000, 0.000, 15:39:44.969
133, 536.85, -190.65, -750.20, -5191.60, 0.000, 0.000, 0.000, 15:39:44.969
134, 809.91, -41.31, -136.98, -5036.20, 0.000, 0.000, 0.000, 15:39:44.969
135, 113.39, -50.13, -471.47, -4503.61, 0.000, 0.000, 0.000, 15:39:44.998
136, 251.48, -198.48, -843.81, -5165.27, 0.000, 0.000, 0.000, 15:39:44.999
137, 890.27, -99.96, -300.27, -5845.81, 0.000, 0.000, 0.000, 15:39:44.999
138, 320.26, -9.14, -263.25, -4898.32, 0.000, 0.000, 0.000, 15:39:44.999
139, 73.43, -179.13, -808.04, -5252.32, 0.000, 0.000, 0.000, 15:39:45.000
140, 787.01, -155.54, -561.62, -5871.87, 0.000, 0.000, 0.000, 15:39:45.000
141, 587.16, -1.25, -118.21, -5845.35, 0.000, 0.000, 0.000, 15:39:45.000
142, 33.59, -117.17, -658.76, -5654.78, 0.000, 0.000, 0.000, 15:39:45.000
145, -650.58, -127.94, -992.39, -5117.05, 0.000, 0.000, 0.000, 15:39:45.028
146, -509.85, -259.41, -1355.72, -5729.64, 0.000, 0.000, 0.000, 15:39:45.029
147, 111.52, -179.06, -837.60, -6462.03, 0.000, 0.000, 0.000, 15:39:45.058
148, -455.86, -81.43, -781.70, -5508.79, 0.000, 0.000, 0.000, 15:39:45.058
151, -623.11, 94.05, -334.52, -5486.48, 0.000, 0.000, 0.000, 15:39:45.059
152, -1191.49, -29.18, -888.65, -5276.11, 0.000, 0.000, 0.000, 15:39:45.059
153, -705.46, -105.33, -964.13, -5782.13, 0.000, 0.000, 0.000, 15:39:45.089
154, -406.83, 54.10, -353.34, -5664.26, 0.000, 0.000, 0.000, 15:39:45.089
155, -1108.58, 25.20, -688.92, -5132.26, 0.000, 0.000, 0.000, 15:39:45.089
156, -965.05, -89.84, -1053.61, -5726.19, 0.000, 0.000, 0.000, 15:39:45.090
157, -333.77, -0.87, -531.35, -6462.02, 0.000, 0.000, 0.000, 15:39:45.090
158, -903.63, 73.34, -461.77, -5536.09, 0.000, 0.000, 0.000, 15:39:45.090
159, -1140.08, -68.75, -1024.44, -5818.98, 0.000, 0.000, 0.000, 15:39:45.091
160, -456.04, -69.57, -758.81, -6465.66, 0.000, 0.000, 0.000, 15:39:45.091
163, 8.70, -152.53, -835.63, -6958.57, 0.000, 0.000, 0.000, 15:39:45.118
164, 331.06, 10.60, -239.67, -6874.84, 0.000, 0.000, 0.000, 15:39:45.118
165, -376.59, -18.22, -550.26, -6337.25, 0.000, 0.000, 0.000, 15:39:45.148
166, -240.02, -150.48, -910.88, -6923.96, 0.000, 0.000, 0.000, 15:39:45.148
169, -472.61, -290.75, -1468.81, -7183.79, 0.000, 0.000, 0.000, 15:39:45.149
170, 210.91, -292.68, -1213.01, -7842.84, 0.000, 0.000, 0.000, 15:39:45.149
171, 32.07, -144.44, -782.50, -6912.83, 0.000, 0.000, 0.000, 15:39:45.178
172, -510.53, -231.88, -1332.72, -6632.00, 0.000, 0.000, 0.000, 15:39:45.179
173, -44.47, -323.54, -1400.15, -7134.27, 0.000, 0.000, 0.000, 15:39:45.179
174, 272.25, -153.10, -794.87, -7063.77, 0.000, 0.000, 0.000, 15:39:45.179
175, -436.39, -187.43, -1115.25, -6506.82, 0.000, 0.000, 0.000, 15:39:45.180
176, -316.41, -327.77, -1489.76, -7092.70, 0.000, 0.000, 0.000, 15:39:45.180
177, 339.05, -214.61, -982.82, -7841.92, 0.000, 0.000, 0.000, 15:39:45.180
178, -235.83, -153.53, -894.46, -6933.82, 0.000, 0.000, 0.000, 15:39:45.181
181, -416.97, -6.66, -458.46, -6035.64, 0.000, 0.000, 0.000, 15:39:45.208
182, -958.47, -105.44, -1004.62, -5720.36, 0.000, 0.000, 0.000, 15:39:45.208
183, -503.05, -202.16, -1092.24, -6226.50, 0.000, 0.000, 0.000, 15:39:45.238
184, -180.16, -33.77, -492.43, -6199.54, 0.000, 0.000, 0.000, 15:39:45.238
187, 490.20, 81.27, 9.89, -6959.12, 0.000, 0.000, 0.000, 15:39:45.239
188, -91.98, 163.37, 101.71, -6061.01, 0.000, 0.000, 0.000, 15:39:45.239
189, -357.53, 4.12, -453.66, -6296.55, 0.000, 0.000, 0.000, 15:39:45.268
190, 371.77, 18.96, -225.07, -6926.93, 0.000, 0.000, 0.000, 15:39:45.268
191, 182.76, 154.09, 223.87, -6057.37, 0.000, 0.000, 0.000, 15:39:45.269
192, -361.76, 64.61, -309.86, -5728.26, 0.000, 0.000, 0.000, 15:39:45.269
193, 96.77, -29.52, -421.01, -6219.09, 0.000, 0.000, 0.000, 15:39:45.269
194, 416.65, 128.14, 187.18, -6228.04, 0.000, 0.000, 0.000, 15:39:45.269
195, -277.92, 120.54, -118.13, -5621.63, 0.000, 0.000, 0.000, 15:39:45.271
196, -174.53, -26.35, -501.68, -6179.98, 0.000, 0.000, 0.000, 15:39:45.271
199, -439.61, -186.90, -1075.08, -6398.18, 0.000, 0.000, 0.000, 15:39:45.298
200, 252.51, -172.90, -851.09, -7049.05, 0.000, 0.000, 0.000, 15:39:45.299
0, 1.67, -86.04, -522.22, -370.55, 0.000, 0.000, 0.000, 15:39:45.328
5, 104.47, -228.26, -914.04, -904.04, 0.000, 0.000, 0.000, 15:39:45.329
6, 762.77, -140.87, -402.63, -1724.42, 0.000, 0.000, 0.000, 15:39:45.329
7, 218.61, -41.45, -303.41, -807.53, 0.000, 0.000, 0.000, 15:39:45.358
8, -61.06, -196.73, -871.23, -1003.28, 0.000, 0.000, 0.000, 15:39:45.358
9, 637.90, -195.55, -649.91, -1667.46, 0.000, 0.000, 0.000, 15:39:45.359
10, 480.13, -40.30, -191.84, -819.63, 0.000, 0.000, 0.000, 15:39:45.359
11, -117.48, -149.32, -727.92, -485.81, 0.000, 0.000, 0.000, 15:39:45.360
12, 358.98, -227.95, -835.94, -932.05, 0.000, 0.000, 0.000, 15:39:45.360
13, 686.44, -78.38, -220.49, -997.33, 0.000, 0.000, 0.000, 15:39:45.360
14, -18.34, -89.68, -505.74, -377.69, 0.000, 0.000, 0.000, 15:39:45.361
17, -567.30, 11.39, -418.39, 525.05, 0.000, 0.000, 0.000, 15:39:45.388
18, -833.50, -142.22, -978.09, 357.16, 0.000, 0.000, 0.000, 15:39:45.389
19, -163.77, -148.49, -752.65, -327.03, 0.000, 0.000, 0.000, 15:39:45.418
20, -300.35, 18.03, -305.77, 517.57, 0.000, 0.000, 0.000, 15:39:45.418
23, 44.02, 175.08, 281.60, 425.17, 0.000, 0.000, 0.000, 15:39:45.419
24, -669.39, 150.43, 16.04, 1063.52, 0.000, 0.000, 0.000, 15:39:45.419
25, -561.82, 25.88, -376.47, 590.37, 0.000, 0.000, 0.000, 15:39:45.450
26, 94.32, 112.27, 97.79, -287.70, 0.000, 0.000, 0.000, 15:39:45.450
27, -473.68, 196.53, 203.80, 603.54, 0.000, 0.000, 0.000, 15:39:45.450
28, -728.81, 58.41, -365.02, 474.47, 0.000, 0.000, 0.000, 15:39:45.450
29, -37.23, 44.82, -128.07, -218.39, 0.000, 0.000, 0.000, 15:39:45.451
30, -157.66, 205.12, 322.52, 599.83, 0.000, 0.000, 0.000, 15:39:45.451
31, -699.60, 105.10, -223.02, 1030.86, 0.000, 0.000, 0.000, 15:39:45.451
32, -264.84, 10.07, -354.00, 628.94, 0.000, 0.000, 0.000, 15:39:45.451
35, -180.07, -130.87, -719.39, 49.60, 0.000, 0.000, 0.000, 15:39:45.478
36, 467.63, -33.47, -193.15, -855.90, 0.000, 0.000, 0.000, 15:39:45.478
37, -104.58, 40.94, -40.93, 30.04, 0.000, 0.000, 0.000, 15:39:45.508
38, -380.72, -96.15, -591.92, -26.39, 0.000, 0.000, 0.000, 15:39:45.508
41, -948.78, -179.01, -1126.41, 410.43, 0.000, 0.000, 0.000, 15:39:45.509
42, -512.81, -291.87, -1253.19, -24.08, 0.000, 0.000, 0.000, 15:39:45.510
43, -137.19, -125.31, -668.16, -140.37, 0.000, 0.000, 0.000, 15:39:45.539
44, -830.21, -130.11, -952.56, 531.97, 0.000, 0.000, 0.000, 15:39:45.540
45, -758.48, -287.50, -1353.57, 34.89, 0.000, 0.000, 0.000, 15:39:45.540
46, -72.67, -179.55, -857.34, -848.55, 0.000, 0.000, 0.000, 15:39:45.540
47, -624.91, -108.89, -750.75, 15.65, 0.000, 0.000, 0.000, 15:39:45.540
48, -914.47, -248.06, -1321.25, -106.39, 0.000, 0.000, 0.000, 15:39:45.541
49, -228.98, -238.69, -1103.46, -765.74, 0.000, 0.000, 0.000, 15:39:45.541
50, -334.94, -92.57, -633.74, -29.50, 0.000, 0.000, 0.000, 15:39:45.541
53, 29.09, 66.40, -8.18, -201.35, 0.000, 0.000, 0.000, 15:39:45.568
54, -656.39, 77.14, -307.04, 472.56, 0.000, 0.000, 0.000, 15:39:45.569
55, -587.15, -83.24, -708.44, -0.27, 0.000, 0.000, 0.000, 15:39:45.599
56, 96.49, 16.40, -209.95, -900.54, 0.000, 0.000, 0.000, 15:39:45.600
59, 777.93, 14.12, -7.22, -1576.59, 0.000, 0.000, 0.000, 15:39:45.600
60, 654.96, 172.76, 469.58, -867.17, 0.000, 0.000, 0.000, 15:39:45.600
61, 57.17, 71.52, -73.54, -396.57, 0.000, 0.000, 0.000, 15:39:45.628
62, 497.42, -12.73, -199.09, -809.08, 0.000, 0.000, 0.000, 15:39:45.628
63, 869.14, 121.74, 415.92, -1022.20, 0.000, 0.000, 0.000, 15:39:45.629
64, 183.59, 131.85, 131.75, -324.77, 0.000, 0.000, 0.000, 15:39:45.629
65, 228.55, -24.18, -269.82, -774.34, 0.000, 0.000, 0.000, 15:39:45.630
66, 888.20, 70.06, 226.94, -1704.83, 0.000, 0.000, 0.000, 15:39:45.630
67, 404.90, 171.91, 355.49, -818.24, 0.000, 0.000, 0.000, 15:39:45.630
68, 121.04, 10.32, -205.53, -892.48, 0.000, 0.000, 0.000, 15:39:45.630
71, -448.87, -92.30, -738.55, -426.49, 0.000, 0.000, 0.000, 15:39:45.659
72, 30.31, -169.31, -878.68, -806.98, 0.000, 0.000, 0.000, 15:39:45.659
73, 397.80, -28.12, -283.30, -1039.65, 0.000, 0.000, 0.000, 15:39:45.689
74, -321.24, -29.37, -544.05, -365.03, 0.000, 0.000, 0.000, 15:39:45.689
77, -836.85, 75.36, -393.07, 507.60, 0.000, 0.000, 0.000, 15:39:45.690
78, -1148.26, -78.56, -962.99, 458.92, 0.000, 0.000, 0.000, 15:39:45.690
79, -481.41, -87.67, -761.85, -235.64, 0.000, 0.000, 0.000, 15:39:45.723
80, -574.55, 81.72, -288.31, 460.55, 0.000, 0.000, 0.000, 15:39:45.723
81, -1160.98, -33.59, -809.00, 945.06, 0.000, 0.000, 0.000, 15:39:45.723
82, -719.12, -107.78, -951.85, 581.36, 0.000, 0.000, 0.000, 15:39:45.723
83, -352.77, 51.84, -342.83, 310.22, 0.000, 0.000, 0.000, 15:39:45.724
84, -1067.73, 32.40, -606.25, 997.27, 0.000, 0.000, 0.000, 15:39:45.724
85, -997.32, -105.31, -1011.80, 609.59, 0.000, 0.000, 0.000, 15:39:45.724
86, -315.18, -20.46, -523.80, -363.79, 0.000, 0.000, 0.000, 15:39:45.724
89, 346.74, -29.95, -308.04, -1069.03, 0.000, 0.000, 0.000, 15:39:45.748
90, 246.63, 134.25, 155.07, -416.05, 0.000, 0.000, 0.000, 15:39:45.749
91, -366.43, 29.40, -370.50, 89.61, 0.000, 0.000, 0.000, 15:39:45.778
92, 40.97, -65.03, -508.80, -288.83, 0.000, 0.000, 0.000, 15:39:45.778
95, 128.31, -192.02, -926.68, -660.27, 0.000, 0.000, 0.000, 15:39:45.779
96, 817.35, -114.77, -446.43, -671.33, 0.000, 0.000, 0.000, 15:39:45.779
97, 292.47, -19.44, -299.12, 171.78, 0.000, 0.000, 0.000, 15:39:45.808
98, -64.01, -162.48, -863.39, 177.05, 0.000, 0.000, 0.000, 15:39:45.808
99, 592.86, -185.67, -678.90, -527.80, 0.000, 0.000, 0.000, 15:39:45.808
100, 564.06, -9.56, -178.35, 127.59, 0.000, 0.000, 0.000, 15:39:45.809
101, -44.63, -123.69, -701.67, 662.41, 0.000, 0.000, 0.000, 15:39:45.838
102, 394.69, -201.89, -850.67, 316.42, 0.000, 0.000, 0.000, 15:39:45.838
103, 744.89, -67.04, -235.28, -17.31, 0.000, 0.000, 0.000, 15:39:45.872
104, 60.52, -52.66, -491.23, 714.97, 0.000, 0.000, 0.000, 15:39:45.873
107, -416.96, 54.01, -349.68, 1558.87, 0.000, 0.000, 0.000, 15:39:45.873
108, -725.88, -106.52, -894.50, 1582.28, 0.000, 0.000, 0.000, 15:39:45.874
109, -58.17, -101.92, -742.07, 894.14, 0.000, 0.000, 0.000, 15:39:45.899
110, -173.63, 48.10, -223.65, 1489.15, 0.000, 0.000, 0.000, 15:39:45.899
113, 255.99, 224.56, 388.28, 1172.05, 0.000, 0.000, 0.000, 15:39:45.899
114, -459.13, 210.71, 147.47, 1887.59, 0.000, 0.000, 0.000, 15:39:45.900
115, -401.07, 70.67, -290.25, 1545.60, 0.000, 0.000, 0.000, 15:39:45.900
116, 279.02, 149.90, 179.63, 1496.67, 0.000, 0.000, 0.000, 15:39:45.900
117, -236.17, 244.71, 342.72, 2326.21, 0.000, 0.000, 0.000, 15:39:45.901
118, -550.79, 116.35, -220.70, 2378.34, 0.000, 0.000, 0.000, 15:39:45.901
125, -526.83, -34.90, -651.17, 2033.37, 0.000, 0.000, 0.000, 15:39:45.928
126, 139.26, 53.87, -180.83, 1969.48, 0.000, 0.000, 0.000, 15:39:45.928
127, -401.45, 157.88, -12.70, 2788.45, 0.000, 0.000, 0.000, 15:39:45.958
128, -741.67, 5.91, -578.42, 2847.46, 0.000, 0.000, 0.000, 15:39:45.959
131, -1347.74, -75.27, -1099.56, 3482.20, 0.000, 0.000, 0.000, 15:39:45.959
132, -959.20, -178.42, -1275.60, 3109.23, 0.000, 0.000, 0.000, 15:39:45.959
133, -565.25, -20.17, -660.30, 2704.33, 0.000, 0.000, 0.000, 15:39:45.988
134, -1290.65, -28.77, -872.92, 3472.97, 0.000, 0.000, 0.000, 15:39:45.988
135, -1216.19, -166.96, -1313.86, 3164.80, 0.000, 0.000, 0.000, 15:39:46.019
136, -509.88, -87.92, -854.52, 3082.95, 0.000, 0.000, 0.000, 15:39:46.019
137, -1021.59, 4.91, -673.30, 3899.34, 0.000, 0.000, 0.000, 15:39:46.048
138, -1371.65, -123.97, -1260.31, 4000.10, 0.000, 0.000, 0.000, 15:39:46.048
139, -726.88, -150.40, -1095.43, 3257.73, 0.000, 0.000, 0.000, 15:39:46.049
140, -743.43, 18.36, -580.73, 3825.32, 0.000, 0.000, 0.000, 15:39:46.049
143, -343.50, 153.15, 32.11, 3360.93, 0.000, 0.000, 0.000, 15:39:46.078
144, -1027.42, 171.77, -175.90, 4166.85, 0.000, 0.000, 0.000, 15:39:46.079
145, -1014.63, 7.80, -636.77, 3841.18, 0.000, 0.000, 0.000, 15:39:46.079
146, -304.95, 109.86, -173.87, 3748.43, 0.000, 0.000, 0.000, 15:39:46.079
147, -831.75, 194.09, 33.34, 4559.04, 0.000, 0.000, 0.000, 15:39:46.080
148, -1148.73, 70.13, -575.05, 4691.58, 0.000, 0.000, 0.000, 15:39:46.080
153, -751.60, 198.08, 41.70, 4191.97, 0.000, 0.000, 0.000, 15:39:46.080
154, -1444.66, 229.96, -159.62, 5029.29, 0.000, 0.000, 0.000, 15:39:46.081
161, -2129.82, 113.91, -661.55, 5681.49, 0.000, 0.000, 0.000, 15:39:46.108
162, -1717.30, 37.11, -866.02, 5374.94, 0.000, 0.000, 0.000, 15:39:46.108
163, -1265.31, 171.42, -218.66, 4862.50, 0.000, 0.000, 0.000, 15:39:46.139
164, -1916.59, 194.05, -427.43, 5716.28, 0.000, 0.000, 0.000, 15:39:46.139
167, -2448.35, 258.15, -209.13, 6495.00, 0.000, 0.000, 0.000, 15:39:46.139
168, -2765.43, 156.37, -809.11, 6697.65, 0.000, 0.000, 0.000, 15:39:46.139
169, -2130.97, 104.59, -670.95, 5924.62, 0.000, 0.000, 0.000, 15:39:46.172
170, -2169.52, 288.19, -133.36, 6417.21, 0.000, 0.000, 0.000, 15:39:46.172
171, -2791.76, 172.68, -628.77, 7108.92, 0.000, 0.000, 0.000, 15:39:46.173
172, -2357.63, 101.70, -820.09, 6820.26, 0.000, 0.000, 0.000, 15:39:46.173
173, -1949.35, 227.33, -215.15, 6275.02, 0.000, 0.000, 0.000, 15:39:46.173
174, -2635.23, 258.28, -419.43, 7126.04, 0.000, 0.000, 0.000, 15:39:46.173
175, -2657.22, 81.78, -887.59, 6833.94, 0.000, 0.000, 0.000, 15:39:46.173
176, -1933.95, 183.97, -437.96, 6691.18, 0.000, 0.000, 0.000, 15:39:46.173
179, -1308.61, 152.68, -317.54, 5936.42, 0.000, 0.000, 0.000, 15:39:46.198
180, -1328.83, 318.60, 257.11, 6400.05, 0.000, 0.000, 0.000, 15:39:46.200
181, -1973.30, 228.68, -255.23, 7132.49, 0.000, 0.000, 0.000, 15:39:46.228
182, -1550.82, 138.24, -470.50, 6820.93, 0.000, 0.000, 0.000, 15:39:46.229
185, -1528.41, -29.10, -945.65, 6572.17, 0.000, 0.000, 0.000, 15:39:46.229
186, -796.53, 71.43, -487.22, 6407.29, 0.000, 0.000, 0.000, 15:39:46.229
187, -1326.92, 159.49, -263.32, 7179.39, 0.000, 0.000, 0.000, 15:39:46.258
188, -1663.95, 23.55, -881.86, 7396.54, 0.000, 0.000, 0.000, 15:39:46.258
189, -976.21, -10.14, -749.27, 6646.27, 0.000, 0.000, 0.000, 15:39:46.259
190, -992.55, 172.91, -198.77, 7079.63, 0.000, 0.000, 0.000, 15:39:46.259
191, -1642.25, 73.25, -692.22, 7840.42, 0.000, 0.000, 0.000, 15:39:46.259
192, -1270.69, -21.40, -899.27, 7531.99, 0.000, 0.000, 0.000, 15:39:46.260
193, -835.23, 114.61, -266.53, 6947.36, 0.000, 0.000, 0.000, 15:39:46.260
194, -1556.97, 131.02, -459.18, 7804.58, 0.000, 0.000, 0.000, 15:39:46.260
197, -2051.77, 231.00, -236.04, 8589.01, 0.000, 0.000, 0.000, 15:39:46.314
198, -2406.07, 91.99, -839.18, 8821.12, 0.000, 0.000, 0.000, 15:39:46.314
199, -1769.93, 66.53, -726.48, 8060.74, 0.000, 0.000, 0.000, 15:39:46.319
200, -1798.33, 224.45, -136.32, 8470.08, 0.000, 0.000, 0.000, 15:39:46.319
1, -1427.44, 116.98, -359.53, 8168.72, 0.000, 0.000, 0.000, 15:39:46.319
2, -887.93, 272.02, 270.73, 7572.53, 0.000, 0.000, 0.000, 15:39:46.320
3, -1601.83, 274.98, 83.85, 8441.00, 0.000, 0.000, 0.000, 15:39:46.348
4, -1614.64, 131.70, -423.66, 8233.29, 0.000, 0.000, 0.000, 15:39:46.349
5, -924.64, 196.44, 34.16, 7989.37, 0.000, 0.000, 0.000, 15:39:46.349
6, -1391.10, 316.52, 280.36, 8789.72, 0.000, 0.000, 0.000, 15:39:46.350
7, -1775.17, 162.78, -335.32, 9033.73, 0.000, 0.000, 0.000, 15:39:46.350
8, -1116.84, 145.89, -210.63, 8284.73, 0.000, 0.000, 0.000, 15:39:46.351
9, -1125.28, 310.31, 369.30, 8642.92, 0.000, 0.000, 0.000, 15:39:46.352
10, -1736.23, 237.11, -136.86, 9478.03, 0.000, 0.000, 0.000, 15:39:46.352
13, -2457.11, 235.00, -297.08, 10339.67, 0.000, 0.000, 0.000, 15:39:46.378
14, -2472.37, 105.71, -814.82, 10159.03, 0.000, 0.000, 0.000, 15:39:46.378
15, -1754.42, 162.86, -354.39, 9895.86, 0.000, 0.000, 0.000, 15:39:46.408
16, -2178.78, 285.94, -102.30, 10703.24, 0.000, 0.000, 0.000, 15:39:46.408
19, -2198.36, 425.72, 462.31, 11014.73, 0.000, 0.000, 0.000, 15:39:46.409
20, -2841.47, 370.03, -32.81, 11874.36, 0.000, 0.000, 0.000, 15:39:46.409
21, -2502.14, 240.61, -260.76, 11581.36, 0.000, 0.000, 0.000, 15:39:46.438
22, -2001.92, 411.21, 353.94, 10922.93, 0.000, 0.000, 0.000, 15:39:46.439
23, -2706.98, 399.99, 214.86, 11793.13, 0.000, 0.000, 0.000, 15:39:46.439
24, -2698.07, 271.27, -314.20, 11632.90, 0.000, 0.000, 0.000, 15:39:46.439
25, -2018.41, 322.24, 134.13, 11350.69, 0.000, 0.000, 0.000, 15:39:46.439
26, -2466.20, 452.61, 384.05, 12136.33, 0.000, 0.000, 0.000, 15:39:46.439
27, -2887.31, 287.00, -210.45, 12416.18, 0.000, 0.000, 0.000, 15:39:46.440
28, -2173.77, 285.18, -120.91, 11689.35, 0.000, 0.000, 0.000, 15:39:46.440
31, -1854.47, 155.58, -364.29, 11406.64, 0.000, 0.000, 0.000, 15:39:46.469
32, -1361.13, 315.03, 265.62, 10719.89, 0.000, 0.000, 0.000, 15:39:46.469
33, -2079.03, 314.21, 101.67, 11599.74, 0.000, 0.000, 0.000, 15:39:46.498
34, -2094.34, 191.67, -408.05, 11450.20, 0.000, 0.000, 0.000, 15:39:46.499
37, -2493.26, 20.57, -1009.81, 11743.02, 0.000, 0.000, 0.000, 15:39:46.499
38, -1789.75, 30.02, -915.29, 11014.14, 0.000, 0.000, 0.000, 15:39:46.499
39, -1814.80, 159.76, -336.83, 11269.66, 0.000, 0.000, 0.000, 15:39:46.528
40, -2445.36, 110.37, -830.24, 12183.46, 0.000, 0.000, 0.000, 15:39:46.529
41, -2130.31, -24.32, -1085.94, 11879.98, 0.000, 0.000, 0.000, 15:39:46.529
42, -1642.95, 144.28, -450.66, 11186.15, 0.000, 0.000, 0.000, 15:39:46.529
43, -2313.25, 135.51, -599.16, 12072.19, 0.000, 0.000, 0.000, 15:39:46.529
44, -2323.55, 5.78, -1113.07, 11964.23, 0.000, 0.000, 0.000, 15:39:46.530
45, -1643.42, 52.79, -683.62, 11656.61, 0.000, 0.000, 0.000, 15:39:46.530
46, -2064.69, 193.31, -402.97, 12433.96, 0.000, 0.000, 0.000, 15:39:46.530
49, -2044.06, 345.35, 174.18, 12691.86, 0.000, 0.000, 0.000, 15:39:46.558
50, -2689.83, 285.62, -303.09, 13639.51, 0.000, 0.000, 0.000, 15:39:46.558
51, -2366.88, 148.05, -576.63, 13420.28, 0.000, 0.000, 0.000, 15:39:46.588
52, -1756.51, 319.81, 22.45, 12700.62, 0.000, 0.000, 0.000, 15:39:46.589
55, -1080.52, 370.61, 488.59, 12352.88, 0.000, 0.000, 0.000, 15:39:46.589
56, -1543.17, 506.98, 802.22, 13121.84, 0.000, 0.000, 0.000, 15:39:46.589
57, -2000.08, 348.59, 199.45, 13535.10, 0.000, 0.000, 0.000, 15:39:46.619
58, -1370.41, 322.01, 294.77, 12814.55, 0.000, 0.000, 0.000, 15:39:46.619
59, -1274.63, 478.14, 849.63, 13051.97, 0.000, 0.000, 0.000, 15:39:46.620
60, -1941.88, 395.85, 356.43, 13970.17, 0.000, 0.000, 0.000, 15:39:46.620
61, -1604.15, 287.18, 105.29, 13763.79, 0.000, 0.000, 0.000, 15:39:46.621
62, -1111.97, 426.46, 699.66, 12975.40, 0.000, 0.000, 0.000, 15:39:46.621
63, -1796.19, 460.45, 574.06, 13920.94, 0.000, 0.000, 0.000, 15:39:46.621
64, -1845.43, 296.00, 58.62, 13816.19, 0.000, 0.000, 0.000, 15:39:46.622
67, -2228.52, 177.96, -556.03, 14229.25, 0.000, 0.000, 0.000, 15:39:46.648
68, -1600.96, 127.23, -472.54, 13459.74, 0.000, 0.000, 0.000, 15:39:46.649
69, -1549.31, 308.54, 102.19, 13674.26, 0.000, 0.000, 0.000, 15:39:46.678
70, -2227.75, 221.62, -369.60, 14593.67, 0.000, 0.000, 0.000, 15:39:46.678
73, -2885.85, 255.51, -503.49, 15515.41, 0.000, 0.000, 0.000, 15:39:46.678
74, -2955.61, 97.13, -1009.20, 15440.54, 0.000, 0.000, 0.000, 15:39:46.679
75, -2231.17, 172.91, -597.35, 15113.34, 0.000, 0.000, 0.000, 15:39:46.708
76, -2667.59, 283.24, -311.83, 15803.33, 0.000, 0.000, 0.000, 15:39:46.709
77, -3069.76, 158.13, -911.10, 16221.28, 0.000, 0.000, 0.000, 15:39:46.709
78, -2447.84, 114.13, -849.79, 15460.63, 0.000, 0.000, 0.000, 15:39:46.709
79, -2382.37, 277.61, -244.49, 15659.46, 0.000, 0.000, 0.000, 15:39:46.710
80, -3053.43, 204.69, -732.83, 16590.41, 0.000, 0.000, 0.000, 15:39:46.710
81, -2716.17, 96.64, -974.67, 16415.40, 0.000, 0.000, 0.000, 15:39:46.710
82, -2224.91, 220.46, -375.15, 15554.03, 0.000, 0.000, 0.000, 15:39:46.710
85, -1470.38, 295.36, 17.34, 15214.23, 0.000, 0.000, 0.000, 15:39:46.738
86, -1910.77, 390.67, 302.41, 15873.57, 0.000, 0.000, 0.000, 15:39:46.738
87, -2309.75, 271.14, -294.23, 16334.40, 0.000, 0.000, 0.000, 15:39:46.769
88, -1700.37, 213.80, -219.43, 15570.38, 0.000, 0.000, 0.000, 15:39:46.769
91, -1337.65, 118.91, -491.92, 15393.62, 0.000, 0.000, 0.000, 15:39:46.769
92, -862.78, 235.77, 136.53, 14526.86, 0.000, 0.000, 0.000, 15:39:46.769
93, -1522.94, 276.94, 16.49, 15464.48, 0.000, 0.000, 0.000, 15:39:46.798
94, -1601.01, 107.17, -508.49, 15412.48, 0.000, 0.000, 0.000, 15:39:46.799
95, -864.86, 184.41, -112.19, 15072.01, 0.000, 0.000, 0.000, 15:39:46.799
96, -1295.71, 281.99, 191.28, 15718.80, 0.000, 0.000, 0.000, 15:39:46.799
97, -1694.16, 174.27, -420.13, 16194.85, 0.000, 0.000, 0.000, 15:39:46.800
98, -1095.81, 122.22, -337.90, 15457.55, 0.000, 0.000, 0.000, 15:39:46.800
99, -1009.67, 299.00, 245.62, 15567.47, 0.000, 0.000, 0.000, 15:39:46.802
100, -1660.95, 212.89, -215.41, 15578.41, 0.000, 0.000, 0.000, 15:39:46.802
103, -2337.55, 251.64, -297.03, 16538.54, 0.000, 0.000, 0.000, 15:39:46.828
104, -2434.81, 84.61, -847.94, 16485.30, 0.000, 0.000, 0.000, 15:39:46.829
105, -1668.75, 152.62, -432.31, 16148.43, 0.000, 0.000, 0.000, 15:39:46.858
106, -2071.17, 271.57, -143.61, 16782.45, 0.000, 0.000, 0.000, 15:39:46.858
109, -2003.56, 443.85, 455.69, 16864.99, 0.000, 0.000, 0.000, 15:39:46.859
110, -2675.99, 364.86, -11.40, 16888.75, 0.000, 0.000, 0.000, 15:39:46.859
111, -2365.01, 245.54, -289.02, 16727.51, 0.000, 0.000, 0.000, 15:39:46.889
112, -1835.71, 384.38, 347.48, 15816.74, 0.000, 0.000, 0.000, 15:39:46.889
113, -2519.34, 413.34, 223.50, 16742.92, 0.000, 0.000, 0.000, 15:39:46.889
114, -2591.58, 260.06, -288.43, 15779.77, 0.000, 0.000, 0.000, 15:39:46.890
115, -1881.47, 311.72, 109.05, 15389.82, 0.000, 0.000, 0.000, 15:39:46.890
116, -2287.13, 446.67, 423.17, 16035.34, 0.000, 0.000, 0.000, 15:39:46.890
117, -2736.06, 299.48, -177.15, 16511.32, 0.000, 0.000, 0.000, 15:39:46.890
118, -2093.92, 263.95, -130.08, 15802.77, 0.000, 0.000, 0.000, 15:39:46.891
121, -1791.59, 138.61, -410.44, 15651.38, 0.000, 0.000, 0.000, 15:39:46.919
122, -1214.55, 290.06, 204.63, 14729.16, 0.000, 0.000, 0.000, 15:39:46.919
123, -1930.31, 306.46, 100.01, 15647.66, 0.000, 0.000, 0.000, 15:39:46.948
124, -1994.67, 168.94, -419.78, 14717.09, 0.000, 0.000, 0.000, 15:39:46.949
127, -2441.55, 25.34, -1025.84, 15234.99, 0.000, 0.000, 0.000, 15:39:46.949
128, -1810.27, -4.12, -974.57, 14518.42, 0.000, 0.000, 0.000, 15:39:46.949
129, -1728.38, 151.91, -368.17, 14540.10, 0.000, 0.000, 0.000, 15:39:46.978
130, -2408.22, 99.92, -820.17, 14630.92, 0.000, 0.000, 0.000, 15:39:46.978
131, -2121.39, -43.38, -1091.31, 14486.46, 0.000, 0.000, 0.000, 15:39:46.978
132, -1581.69, 127.29, -498.31, 13536.18, 0.000, 0.000, 0.000, 15:39:46.979
133, -2254.87, 135.58, -586.89, 14446.66, 0.000, 0.000, 0.000, 15:39:46.979
134, -2280.90, 1.13, -1120.52, 13550.46, 0.000, 0.000, 0.000, 15:39:46.980
135, -1609.83, 25.22, -738.62, 13110.74, 0.000, 0.000, 0.000, 15:39:46.980
136, -1978.82, 179.62, -408.55, 13739.83, 0.000, 0.000, 0.000, 15:39:46.980
139, -1914.04, 320.41, 197.71, 14698.11, 0.000, 0.000, 0.000, 15:39:47.008
140, -2523.28, 278.07, -252.96, 14820.28, 0.000, 0.000, 0.000, 15:39:47.008
141, -2268.15, 130.14, -539.92, 14670.42, 0.000, 0.000, 0.000, 15:39:47.038
142, -1705.62, 298.45, 64.06, 13709.76, 0.000, 0.000, 0.000, 15:39:47.038
145, -1027.31, 328.94, 450.08, 13276.35, 0.000, 0.000, 0.000, 15:39:47.039
146, -1418.28, 488.06, 779.52, 13869.09, 0.000, 0.000, 0.000, 15:39:47.039
147, -1820.44, 331.43, 180.64, 14431.70, 0.000, 0.000, 0.000, 15:39:47.069
148, -1189.95, 296.54, 210.05, 13725.12, 0.000, 0.000, 0.000, 15:39:47.069
149, -1099.13, 455.25, 811.73, 14670.72, 0.000, 0.000, 0.000, 15:39:47.070
150, -1773.13, 399.55, 378.59, 14796.55, 0.000, 0.000, 0.000, 15:39:47.070
151, -1500.50, 269.84, 83.45, 14683.22, 0.000, 0.000, 0.000, 15:39:47.071
152, -954.72, 407.95, 674.78, 14632.39, 0.000, 0.000, 0.000, 15:39:47.071
153, -1641.49, 446.16, 604.79, 15585.65, 0.000, 0.000, 0.000, 15:39:47.071
154, -1745.91, 291.37, 63.55, 14701.39, 0.000, 0.000, 0.000, 15:39:47.071
157, -2210.25, 159.40, -546.52, 15303.90, 0.000, 0.000, 0.000, 15:39:47.098
158, -1616.19, 109.47, -522.65, 14566.33, 0.000, 0.000, 0.000, 15:39:47.098
159, -1502.96, 273.09, 84.14, 15497.88, 0.000, 0.000, 0.000, 15:39:47.128
160, -2185.79, 212.37, -353.64, 15626.67, 0.000, 0.000, 0.000, 15:39:47.128
163, -2839.77, 255.03, -431.06, 16601.07, 0.000, 0.000, 0.000, 15:39:47.130
164, -2961.67, 107.17, -955.67, 15725.54, 0.000, 0.000, 0.000, 15:39:47.130
165, -2232.06, 163.09, -587.98, 15292.17, 0.000, 0.000, 0.000, 15:39:47.158
166, -2596.30, 285.98, -250.92, 15839.56, 0.000, 0.000, 0.000, 15:39:47.158
167, -3015.84, 161.56, -846.82, 16472.47, 0.000, 0.000, 0.000, 15:39:47.159
168, -2451.23, 99.54, -830.65, 15738.69, 0.000, 0.000, 0.000, 15:39:47.159
169, -2315.06, 275.34, -230.53, 16628.59, 0.000, 0.000, 0.000, 15:39:47.160
170, -3015.43, 206.00, -641.39, 16785.19, 0.000, 0.000, 0.000, 15:39:47.160
171, -2723.88, 89.20, -951.33, 16724.60, 0.000, 0.000, 0.000, 15:39:47.160
172, -2194.62, 197.89, -371.88, 16588.65, 0.000, 0.000, 0.000, 15:39:47.160
175, -1446.01, 255.96, -22.27, 16147.63, 0.000, 0.000, 0.000, 15:39:47.188
176, -1819.58, 369.03, 328.12, 16668.47, 0.000, 0.000, 0.000, 15:39:47.189
177, -2258.56, 249.61, -271.84, 17326.63, 0.000, 0.000, 0.000, 15:39:47.218
178, -1690.39, 177.20, -258.87, 16579.62, 0.000, 0.000, 0.000, 15:39:47.219
181, -1371.16, 72.92, -572.37, 16548.29, 0.000, 0.000, 0.000, 15:39:47.220
182, -810.48, 173.16, 39.33, 16402.48, 0.000, 0.000, 0.000, 15:39:47.220
183, -1461.30, 247.77, -30.69, 16418.68, 0.000, 0.000, 0.000, 15:39:47.249
184, -1611.97, 76.45, -561.83, 15561.18, 0.000, 0.000, 0.000, 15:39:47.250
185, -860.36, 141.09, -211.43, 15110.63, 0.000, 0.000, 0.000, 15:39:47.250
186, -1254.31, 248.46, 146.75, 15614.87, 0.000, 0.000, 0.000, 15:39:47.250
187, -1688.58, 142.35, -455.59, 16308.96, 0.000, 0.000, 0.000, 15:39:47.251
188, -1120.64, 58.09, -438.94, 15560.94, 0.000, 0.000, 0.000, 15:39:47.252
189, -962.36, 255.47, 155.23, 16425.96, 0.000, 0.000, 0.000, 15:39:47.252
190, -1680.33, 173.72, -246.77, 16585.29, 0.000, 0.000, 0.000, 15:39:47.252
193, -2333.61, 232.90, -301.33, 16604.58, 0.000, 0.000, 0.000, 15:39:47.278
194, -2456.55, 57.65, -837.20, 15777.40, 0.000, 0.000, 0.000, 15:39:47.278
195, -1718.32, 117.68, -477.61, 15313.25, 0.000, 0.000, 0.000, 15:39:47.308
196, -2086.06, 244.61, -117.84, 15803.33, 0.000, 0.000, 0.000, 15:39:47.308
199, -1938.52, 420.13, 488.24, 16624.53, 0.000, 0.000, 0.000, 15:39:47.309
200, -2631.13, 351.20, 66.16, 16804.15, 0.000, 0.000, 0.000, 15:39:47.309
0, -284.13, -265.36, -1233.49, -886.14, 0.000, 0.000, 0.000, 15:39:47.339
1, 277.84, -144.79, -635.44, -1085.98, 0.000, 0.000, 0.000, 15:39:47.339
2, -356.72, -90.37, -689.40, -1066.74, 0.000, 0.000, 0.000, 15:39:47.340
3, -481.29, -256.65, -1233.35, -1854.26, 0.000, 0.000, 0.000, 15:39:47.340
4, 234.44, -201.96, -879.89, -2354.41, 0.000, 0.000, 0.000, 15:39:47.340
5, -117.37, -72.32, -514.14, -1875.63, 0.000, 0.000, 0.000, 15:39:47.341
6, -572.69, -201.85, -1124.62, -1165.15, 0.000, 0.000, 0.000, 15:39:47.341
11, 2.16, -63.98, -525.64, -1363.72, 0.000, 0.000, 0.000, 15:39:47.368
12, -632.77, -23.31, -572.87, -391.75, 0.000, 0.000, 0.000, 15:39:47.369
13, -736.89, -171.37, -1110.09, -1140.48, 0.000, 0.000, 0.000, 15:39:47.400
14, -38.34, -133.21, -771.89, -1664.78, 0.000, 0.000, 0.000, 15:39:47.400
17, 561.71, -181.30, -783.85, -2351.88, 0.000, 0.000, 0.000, 15:39:47.400
18, 717.88, -22.70, -147.57, -1612.33, 0.000, 0.000, 0.000, 15:39:47.400
19, 22.79, -76.48, -579.27, -1364.99, 0.000, 0.000, 0.000, 15:39:47.428
20, 260.39, -200.92, -901.11, -2344.60, 0.000, 0.000, 0.000, 15:39:47.428
21, 850.81, -63.24, -311.23, -2577.57, 0.000, 0.000, 0.000, 15:39:47.428
22, 170.25, -34.09, -331.84, -1610.67, 0.000, 0.000, 0.000, 15:39:47.429
23, 74.39, -172.88, -904.00, -2340.41, 0.000, 0.000, 0.000, 15:39:47.429
24, 777.19, -140.39, -559.76, -2877.51, 0.000, 0.000, 0.000, 15:39:47.429
25, 453.20, 2.78, -179.72, -2407.06, 0.000, 0.000, 0.000, 15:39:47.430
26, -51.23, -130.56, -770.02, -1675.52, 0.000, 0.000, 0.000, 15:39:47.430
29, -725.11, -164.20, -1179.99, -1386.67, 0.000, 0.000, 0.000, 15:39:47.458
30, -504.66, -318.95, -1514.77, -1393.79, 0.000, 0.000, 0.000, 15:39:47.458
31, 86.51, -172.41, -928.16, -1644.08, 0.000, 0.000, 0.000, 15:39:47.488
32, -594.06, -138.49, -946.65, -679.06, 0.000, 0.000, 0.000, 15:39:47.488
35, -920.30, -6.62, -553.05, -250.84, 0.000, 0.000, 0.000, 15:39:47.489
36, -1372.27, -133.45, -1139.68, 544.91, 0.000, 0.000, 0.000, 15:39:47.489
37, -804.17, -194.64, -1191.46, -155.46, 0.000, 0.000, 0.000, 15:39:47.518
38, -651.33, -34.62, -544.39, 530.82, 0.000, 0.000, 0.000, 15:39:47.518
39, -1320.96, -65.62, -947.22, 827.41, 0.000, 0.000, 0.000, 15:39:47.519
40, -1096.82, -211.22, -1289.53, -132.03, 0.000, 0.000, 0.000, 15:39:47.519
41, -517.58, -71.19, -707.08, -413.54, 0.000, 0.000, 0.000, 15:39:47.519
42, -1176.15, -40.04, -723.35, 548.76, 0.000, 0.000, 0.000, 15:39:47.520
43, -1299.44, -180.36, -1274.11, -127.12, 0.000, 0.000, 0.000, 15:39:47.520
44, -581.62, -146.99, -932.09, -676.91, 0.000, 0.000, 0.000, 15:39:47.520
47, -0.67, -185.87, -948.12, -1348.05, 0.000, 0.000, 0.000, 15:39:47.549
48, 152.96, -42.47, -350.91, -691.80, 0.000, 0.000, 0.000, 15:39:47.549
49, -525.49, -84.08, -739.94, -375.32, 0.000, 0.000, 0.000, 15:39:47.578
50, -285.91, -211.95, -1078.93, -1334.89, 0.000, 0.000, 0.000, 15:39:47.578
53, -415.87, -365.86, -1640.41, -1972.11, 0.000, 0.000, 0.000, 15:39:47.578
54, 313.55, -330.54, -1339.02, -2504.03, 0.000, 0.000, 0.000, 15:39:47.579
55, 10.48, -176.93, -948.89, -2145.12, 0.000, 0.000, 0.000, 15:39:47.608
56, -492.77, -304.80, -1541.38, -1446.45, 0.000, 0.000, 0.000, 15:39:47.608
57, 64.35, -355.29, -1512.05, -2170.16, 0.000, 0.000, 0.000, 15:39:47.609
58, 213.62, -197.94, -857.17, -1554.06, 0.000, 0.000, 0.000, 15:39:47.609
59, -498.89, -246.53, -1243.19, -1168.05, 0.000, 0.000, 0.000, 15:39:47.609
60, -279.09, -389.14, -1573.45, -2051.63, 0.000, 0.000, 0.000, 15:39:47.609
61, 314.26, -255.33, -1009.30, -2371.87, 0.000, 0.000, 0.000, 15:39:47.610
62, -329.87, -213.58, -1027.12, -1400.56, 0.000, 0.000, 0.000, 15:39:47.610
65, -611.26, -65.15, -654.36, -994.67, 0.000, 0.000, 0.000, 15:39:47.638
66, -1113.59, -187.96, -1250.07, -145.97, 0.000, 0.000, 0.000, 15:39:47.639
67, -549.48, -249.93, -1297.19, -825.38, 0.000, 0.000, 0.000, 15:39:47.668
68, -370.33, -98.13, -673.56, -250.53, 0.000, 0.000, 0.000, 15:39:47.669
71, 229.27, 23.47, -98.71, -633.36, 0.000, 0.000, 0.000, 15:39:47.669
72, -415.16, 79.45, -99.31, -619.18, 0.000, 0.000, 0.000, 15:39:47.669
73, -564.77, -75.52, -656.39, -1257.50, 0.000, 0.000, 0.000, 15:39:47.699
74, 151.81, -41.14, -337.36, -1821.44, 0.000, 0.000, 0.000, 15:39:47.699
75, -159.37, 79.65, 70.73, -1468.48, 0.000, 0.000, 0.000, 15:39:47.700
76, -653.69, -25.35, -519.06, -592.09, 0.000, 0.000, 0.000, 15:39:47.700
77, -101.55, -82.80, -561.04, -1266.09, 0.000, 0.000, 0.000, 15:39:47.700
78, 124.38, 74.11, 67.21, -689.57, 0.000, 0.000, 0.000, 15:39:47.700
79, -569.77, 20.24, -302.52, -340.48, 0.000, 0.000, 0.000, 15:39:47.701
80, -354.47, -102.02, -664.67, -1223.72, 0.000, 0.000, 0.000, 15:39:47.701
83, -527.45, -261.98, -1239.65, -1870.72, 0.000, 0.000, 0.000, 15:39:47.728
84, 191.40, -226.51, -910.35, -2437.51, 0.000, 0.000, 0.000, 15:39:47.728
85, -101.81, -82.65, -513.21, -2089.44, 0.000, 0.000, 0.000, 15:39:47.758
86, -615.74, -221.42, -1110.29, -1218.84, 0.000, 0.000, 0.000, 15:39:47.758
89, -1300.08, -238.04, -1496.04, -824.50, 0.000, 0.000, 0.000, 15:39:47.759
90, -1097.16, -379.73, -1846.25, -1707.70, 0.000, 0.000, 0.000, 15:39:47.759
91, -486.26, -252.39, -1267.34, -2121.72, 0.000, 0.000, 0.000, 15:39:47.788
