%OpenBCI Raw EEG Data
%
%Sample Rate = 200.0 Hz
%First Column = SampleIndex
%Last Column = Timestamp 
%Other Columns = EEG data in microvolts followed by Accel Data (in G) interleaved with Aux Data
0, -455.44, 6.27, 15.63, 14.13, 0.000, 0.000, 0.000, 15:53:43.754
1, 170.83, 7.43, 15.81, 13.71, 0.000, 0.000, 0.000, 15:53:43.758
2, 53.06, 10.06, 5.49, 11.13, 0.000, 0.000, 0.000, 15:53:43.759
3, -529.89, 11.46, 7.67, 9.31, 0.000, 0.000, 0.000, 15:53:43.775
4, -33.31, -1.85, 12.51, 14.12, 0.000, 0.000, 0.000, 15:53:43.776
5, 207.36, 10.02, 10.63, 11.98, 0.000, 0.000, 0.000, 15:53:43.776
6, -425.86, 13.16, 6.47, 7.76, 0.000, 0.000, 0.000, 15:53:43.777
7, -273.27, 2.78, 17.51, 17.74, 0.000, 0.000, 0.000, 15:53:43.797
8, 247.52, 3.92, 10.62, 14.77, 0.000, 0.000, 0.000, 15:53:43.798
9, -204.47, 15.33, 1.33, 4.92, 0.000, 0.000, 0.000, 15:53:43.798
10, -455.54, 3.98, 15.55, 13.42, 0.000, 0.000, 0.000, 15:53:43.799
11, 177.17, 1.30, 12.02, 10.67, 0.000, 0.000, 0.000, 15:53:43.819
12, 51.28, 14.72, 8.78, 7.11, 0.000, 0.000, 0.000, 15:53:43.820
13, -533.91, 6.29, 7.24, 13.47, 0.000, 0.000, 0.000, 15:53:43.820
14, -40.75, 6.18, 11.37, 15.23, 0.000, 0.000, 0.000, 15:53:43.821
15, 205.56, 13.73, 10.90, 8.56, 0.000, 0.000, 0.000, 15:53:43.842
16, -432.77, 15.20, 6.87, 7.51, 0.000, 0.000, 0.000, 15:53:43.843
17, -252.81, 2.08, 16.88, 19.35, 0.000, 0.000, 0.000, 15:53:43.843
18, 262.68, 10.56, 10.49, 13.62, 0.000, 0.000, 0.000, 15:53:43.843
19, -188.85, 13.33, 6.49, 9.88, 0.000, 0.000, 0.000, 15:53:43.844
20, -461.77, 3.67, 13.17, 15.52, 0.000, 0.000, 0.000, 15:53:43.844
21, 173.09, 10.90, 11.20, 12.12, 0.000, 0.000, 0.000, 15:53:43.871
22, 49.78, 6.44, 8.40, 9.63, 0.000, 0.000, 0.000, 15:53:43.872
23, -530.50, 7.93, 11.53, 11.47, 0.000, 0.000, 0.000, 15:53:43.872
24, -32.39, 0.46, 15.61, 15.88, 0.000, 0.000, 0.000, 15:53:43.872
25, 202.65, 10.31, 11.36, 9.93, 0.000, 0.000, 0.000, 15:53:43.894
26, -428.38, 13.93, 8.35, 6.70, 0.000, 0.000, 0.000, 15:53:43.894
27, -264.08, 1.67, 16.90, 10.02, 0.000, 0.000, 0.000, 15:53:43.895
28, 254.08, 6.50, 10.25, 13.38, 0.000, 0.000, 0.000, 15:53:43.895
29, -188.80, 13.37, 6.01, 11.10, 0.000, 0.000, 0.000, 15:53:43.913
30, -463.40, 9.17, 12.47, 10.22, 0.000, 0.000, 0.000, 15:53:43.914
31, 171.74, 1.17, 16.30, 16.45, 0.000, 0.000, 0.000, 15:53:43.914
32, 55.58, 13.39, 6.10, 7.00, 0.000, 0.000, 0.000, 15:53:43.915
33, -531.68, 7.70, 12.48, 11.55, 0.000, 0.000, 0.000, 15:53:43.934
34, -28.89, 3.95, 18.39, 17.27, 0.000, 0.000, 0.000, 15:53:43.934
35, 207.45, 14.26, 7.17, 11.98, 0.000, 0.000, 0.000, 15:53:43.934
36, -431.03, 12.17, 5.54, 9.84, 0.000, 0.000, 0.000, 15:53:43.935
37, -263.46, 6.31, 16.08, 13.95, 0.000, 0.000, 0.000, 15:53:43.937
38, 258.64, 4.62, 10.60, 17.85, 0.000, 0.000, 0.000, 15:53:43.937
39, -195.30, 16.49, 9.70, 6.79, 0.000, 0.000, 0.000, 15:53:43.957
40, -470.75, -0.22, 13.68, 15.06, 0.000, 0.000, 0.000, 15:53:43.958
41, 169.32, 6.83, 13.70, 14.06, 0.000, 0.000, 0.000, 15:53:43.958
42, 50.58, 15.54, 9.98, 7.32, 0.000, 0.000, 0.000, 15:53:43.958
43, -526.79, 10.69, 11.00, 10.70, 0.000, 0.000, 0.000, 15:53:43.978
44, -20.01, 3.88, 12.92, 15.95, 0.000, 0.000, 0.000, 15:53:43.978
45, 205.14, 8.98, 10.97, 11.86, 0.000, 0.000, 0.000, 15:53:43.978
46, -420.96, 12.28, 5.06, 6.94, 0.000, 0.000, 0.000, 15:53:43.979
47, -258.12, 3.42, 16.34, 15.66, 0.000, 0.000, 0.000, 15:53:44.000
48, 246.38, 11.24, 10.14, 15.72, 0.000, 0.000, 0.000, 15:53:44.000
49, -196.17, 11.14, 1.95, 7.75, 0.000, 0.000, 0.000, 15:53:44.001
50, -468.44, 0.96, 15.54, 15.24, 0.000, 0.000, 0.000, 15:53:44.001
51, 165.76, 1.60, 11.36, 10.96, 0.000, 0.000, 0.000, 15:53:44.022
52, 49.49, 13.85, 5.16, 5.62, 0.000, 0.000, 0.000, 15:53:44.023
53, -518.27, 7.89, 8.75, 12.24, 0.000, 0.000, 0.000, 15:53:44.023
54, -25.40, 4.56, 13.13, 15.78, 0.000, 0.000, 0.000, 15:53:44.023
55, 202.40, 5.48, 9.56, 12.81, 0.000, 0.000, 0.000, 15:53:44.024
56, -435.15, 13.83, 6.62, 8.26, 0.000, 0.000, 0.000, 15:53:44.024
57, -267.70, 5.35, 16.88, 16.92, 0.000, 0.000, 0.000, 15:53:44.044
58, 261.43, 2.98, 15.62, 15.25, 0.000, 0.000, 0.000, 15:53:44.045
59, -197.75, 17.07, 5.36, 5.28, 0.000, 0.000, 0.000, 15:53:44.045
60, -459.08, 3.33, 17.53, 14.53, 0.000, 0.000, 0.000, 15:53:44.045
61, 177.14, 9.30, 11.66, 13.88, 0.000, 0.000, 0.000, 15:53:44.067
62, 43.13, 6.63, 9.40, 6.72, 0.000, 0.000, 0.000, 15:53:44.067
63, -537.31, 5.05, 12.98, 11.94, 0.000, 0.000, 0.000, 15:53:44.067
64, -15.22, 5.48, 21.02, 17.22, 0.000, 0.000, 0.000, 15:53:44.068
65, 222.96, 12.76, 10.97, 11.02, 0.000, 0.000, 0.000, 15:53:44.090
66, -424.20, 17.65, 8.54, 6.90, 0.000, 0.000, 0.000, 15:53:44.091
67, -263.16, 0.58, 17.36, 19.35, 0.000, 0.000, 0.000, 15:53:44.091
68, 246.38, 6.34, 12.24, 11.93, 0.000, 0.000, 0.000, 15:53:44.091
69, -200.45, 9.58, 3.03, 2.99, 0.000, 0.000, 0.000, 15:53:44.112
70, -465.73, 5.78, 16.41, 14.13, 0.000, 0.000, 0.000, 15:53:44.112
71, 176.14, 10.87, 15.89, 14.24, 0.000, 0.000, 0.000, 15:53:44.113
72, 46.82, 13.54, 1.45, 10.18, 0.000, 0.000, 0.000, 15:53:44.113
73, -530.25, 10.47, 11.24, 8.57, 0.000, 0.000, 0.000, 15:53:44.113
74, -24.56, 0.78, 14.00, 15.84, 0.000, 0.000, 0.000, 15:53:44.113
75, 210.69, 13.13, 9.24, 8.72, 0.000, 0.000, 0.000, 15:53:44.134
76, -428.05, 10.07, 4.73, 9.69, 0.000, 0.000, 0.000, 15:53:44.135
77, -261.24, 2.68, 19.30, 16.57, 0.000, 0.000, 0.000, 15:53:44.135
78, 239.50, 10.86, 14.83, 11.99, 0.000, 0.000, 0.000, 15:53:44.135
79, -203.02, 12.64, 3.33, 11.56, 0.000, 0.000, 0.000, 15:53:44.157
80, -451.06, 1.53, 15.86, 17.33, 0.000, 0.000, 0.000, 15:53:44.157
81, 173.63, 5.66, 10.77, 10.80, 0.000, 0.000, 0.000, 15:53:44.158
82, 45.88, 11.25, 6.23, 6.46, 0.000, 0.000, 0.000, 15:53:44.158
83, -527.52, 6.88, 11.22, 9.53, 0.000, 0.000, 0.000, 15:53:44.179
84, -26.03, 5.29, 14.12, 14.86, 0.000, 0.000, 0.000, 15:53:44.180
85, 215.31, 8.57, 5.69, 9.97, 0.000, 0.000, 0.000, 15:53:44.180
86, -416.67, 13.79, 6.37, 12.11, 0.000, 0.000, 0.000, 15:53:44.180
87, -255.16, 3.01, 16.58, 19.61, 0.000, 0.000, 0.000, 15:53:44.202
88, 247.52, 7.93, 9.25, 14.90, 0.000, 0.000, 0.000, 15:53:44.202
89, -202.04, 14.36, 4.06, 5.61, 0.000, 0.000, 0.000, 15:53:44.203
90, -462.52, 6.27, 14.32, 15.31, 0.000, 0.000, 0.000, 15:53:44.203
91, 177.74, 5.92, 12.32, 12.27, 0.000, 0.000, 0.000, 15:53:44.203
92, 44.99, 12.89, 11.52, 11.30, 0.000, 0.000, 0.000, 15:53:44.204
93, -526.05, 16.00, 9.39, 12.14, 0.000, 0.000, 0.000, 15:53:44.224
94, -22.46, 2.15, 16.99, 18.24, 0.000, 0.000, 0.000, 15:53:44.225
95, 210.78, 6.27, 6.14, 9.26, 0.000, 0.000, 0.000, 15:53:44.225
96, -432.71, 11.40, 7.30, 5.86, 0.000, 0.000, 0.000, 15:53:44.225
97, -259.83, 6.04, 17.22, 12.22, 0.000, 0.000, 0.000, 15:53:44.247
98, 249.37, 7.87, 7.15, 10.71, 0.000, 0.000, 0.000, 15:53:44.247
99, -208.39, 17.35, 5.32, 7.13, 0.000, 0.000, 0.000, 15:53:44.248
100, -464.08, 2.56, 16.25, 15.18, 0.000, 0.000, 0.000, 15:53:44.248
101, 194.97, 4.77, 13.54, 14.59, 0.000, 0.000, 0.000, 15:53:44.269
102, 43.58, 17.83, 7.46, 6.99, 0.000, 0.000, 0.000, 15:53:44.270
103, -521.91, 4.46, 12.20, 10.07, 0.000, 0.000, 0.000, 15:53:44.270
104, -19.13, 2.47, 16.16, 20.01, 0.000, 0.000, 0.000, 15:53:44.271
105, 205.32, 8.24, 8.16, 12.43, 0.000, 0.000, 0.000, 15:53:44.292
106, -429.68, 13.27, 3.16, 11.74, 0.000, 0.000, 0.000, 15:53:44.293
107, -246.56, 7.02, 17.36, 18.89, 0.000, 0.000, 0.000, 15:53:44.293
108, 254.31, 5.18, 15.68, 13.24, 0.000, 0.000, 0.000, 15:53:44.293
109, -193.36, 9.43, 2.93, 6.09, 0.000, 0.000, 0.000, 15:53:44.294
110, -453.73, 5.35, 15.52, 12.47, 0.000, 0.000, 0.000, 15:53:44.294
111, 176.15, 4.81, 12.38, 11.02, 0.000, 0.000, 0.000, 15:53:44.314
112, 36.76, 8.75, 7.51, 8.09, 0.000, 0.000, 0.000, 15:53:44.315
113, -537.15, 10.41, 12.40, 9.56, 0.000, 0.000, 0.000, 15:53:44.315
114, -12.29, 0.30, 15.47, 15.85, 0.000, 0.000, 0.000, 15:53:44.315
115, 213.73, 12.04, 5.34, 10.67, 0.000, 0.000, 0.000, 15:53:44.337
116, -429.42, 11.30, 12.07, 4.38, 0.000, 0.000, 0.000, 15:53:44.337
117, -259.47, 7.93, 16.14, 19.65, 0.000, 0.000, 0.000, 15:53:44.337
118, 234.51, 5.75, 7.99, 13.10, 0.000, 0.000, 0.000, 15:53:44.337
119, -187.61, 12.81, 7.75, 4.75, 0.000, 0.000, 0.000, 15:53:44.360
120, -447.04, 6.73, 14.82, 13.44, 0.000, 0.000, 0.000, 15:53:44.360
121, 181.90, -0.15, 12.99, 11.57, 0.000, 0.000, 0.000, 15:53:44.360
122, 41.68, 13.34, 2.59, 8.61, 0.000, 0.000, 0.000, 15:53:44.361
123, -523.86, 8.30, 11.13, 10.71, 0.000, 0.000, 0.000, 15:53:44.404
124, -12.09, 6.50, 14.50, 15.39, 0.000, 0.000, 0.000, 15:53:44.406
125, 201.78, 9.58, 7.06, 13.78, 0.000, 0.000, 0.000, 15:53:44.406
126, -438.48, 14.60, 9.54, 8.85, 0.000, 0.000, 0.000, 15:53:44.407
127, -242.32, 3.54, 16.78, 15.35, 0.000, 0.000, 0.000, 15:53:44.410
128, 255.07, 7.62, 10.41, 12.07, 0.000, 0.000, 0.000, 15:53:44.410
129, -204.01, 10.10, 5.62, 8.37, 0.000, 0.000, 0.000, 15:53:44.411
130, -454.34, 5.17, 14.35, 13.40, 0.000, 0.000, 0.000, 15:53:44.411
131, 192.61, 5.55, 11.66, 12.80, 0.000, 0.000, 0.000, 15:53:44.427
132, 51.28, 14.79, 6.83, 6.84, 0.000, 0.000, 0.000, 15:53:44.427
133, -525.62, 9.38, 13.90, 12.40, 0.000, 0.000, 0.000, 15:53:44.428
134, -10.14, 4.74, 16.54, 17.29, 0.000, 0.000, 0.000, 15:53:44.428
135, 218.46, 9.24, 10.65, 13.23, 0.000, 0.000, 0.000, 15:53:44.428
136, -420.39, 18.66, 4.93, 7.09, 0.000, 0.000, 0.000, 15:53:44.429
137, -249.92, 0.59, 18.35, 13.64, 0.000, 0.000, 0.000, 15:53:44.449
138, 246.11, 10.38, 13.36, 12.66, 0.000, 0.000, 0.000, 15:53:44.450
139, -200.31, 11.89, 8.60, 7.14, 0.000, 0.000, 0.000, 15:53:44.450
140, -449.47, 0.62, 13.95, 16.81, 0.000, 0.000, 0.000, 15:53:44.451
141, 180.07, 5.88, 12.44, 15.83, 0.000, 0.000, 0.000, 15:53:44.472
142, 38.67, 5.03, 6.67, 10.23, 0.000, 0.000, 0.000, 15:53:44.472
143, -527.41, 12.25, 12.11, 10.36, 0.000, 0.000, 0.000, 15:53:44.473
144, -13.00, 6.16, 13.85, 13.15, 0.000, 0.000, 0.000, 15:53:44.473
145, 207.02, 9.98, 10.43, 10.34, 0.000, 0.000, 0.000, 15:53:44.474
146, -435.79, 10.56, 3.18, 9.54, 0.000, 0.000, 0.000, 15:53:44.474
147, -251.47, 5.74, 15.05, 15.15, 0.000, 0.000, 0.000, 15:53:44.494
148, 250.58, 7.77, 14.66, 14.90, 0.000, 0.000, 0.000, 15:53:44.495
149, -211.38, 18.31, 5.43, 7.62, 0.000, 0.000, 0.000, 15:53:44.495
150, -459.10, 4.94, 14.24, 17.79, 0.000, 0.000, 0.000, 15:53:44.495
151, 176.85, 6.50, 18.74, 14.61, 0.000, 0.000, 0.000, 15:53:44.517
152, 40.92, 13.33, 7.60, 4.71, 0.000, 0.000, 0.000, 15:53:44.517
153, -528.89, 9.70, 6.38, 10.87, 0.000, 0.000, 0.000, 15:53:44.518
154, -13.55, 1.37, 14.71, 13.62, 0.000, 0.000, 0.000, 15:53:44.518
155, 206.34, 9.42, 13.36, 8.84, 0.000, 0.000, 0.000, 15:53:44.540
156, -437.23, 14.10, 8.63, 5.97, 0.000, 0.000, 0.000, 15:53:44.540
157, -260.46, -0.61, 15.44, 19.54, 0.000, 0.000, 0.000, 15:53:44.541
158, 234.20, 6.22, 10.59, 12.21, 0.000, 0.000, 0.000, 15:53:44.541
159, -206.91, 10.76, 2.10, 10.12, 0.000, 0.000, 0.000, 15:53:44.562
160, -432.05, 10.86, 14.04, 16.27, 0.000, 0.000, 0.000, 15:53:44.562
161, 198.19, 7.03, 12.11, 13.29, 0.000, 0.000, 0.000, 15:53:44.563
162, 43.23, 11.72, 5.61, 5.34, 0.000, 0.000, 0.000, 15:53:44.563
163, -510.14, 10.03, 10.35, 12.90, 0.000, 0.000, 0.000, 15:53:44.564
164, 14.08, 6.13, 15.61, 14.99, 0.000, 0.000, 0.000, 15:53:44.564
165, 226.23, 14.40, 9.97, 8.91, 0.000, 0.000, 0.000, 15:53:44.584
166, -407.88, 12.40, 5.64, 6.30, 0.000, 0.000, 0.000, 15:53:44.585
167, -214.48, 3.04, 17.48, 17.63, 0.000, 0.000, 0.000, 15:53:44.585
168, 266.54, 8.95, 10.44, 14.83, 0.000, 0.000, 0.000, 15:53:44.586
169, -214.25, 17.04, 6.46, 8.27, 0.000, 0.000, 0.000, 15:53:44.607
170, -466.39, -1.06, 13.54, 16.64, 0.000, 0.000, 0.000, 15:53:44.608
171, 156.76, 1.81, 14.29, 10.42, 0.000, 0.000, 0.000, 15:53:44.608
172, 4.87, 9.23, 4.92, 2.59, 0.000, 0.000, 0.000, 15:53:44.608
173, -549.97, 8.25, 11.95, 9.46, 0.000, 0.000, 0.000, 15:53:44.629
174, -36.88, 6.52, 20.16, 19.30, 0.000, 0.000, 0.000, 15:53:44.630
175, 168.94, 6.67, 6.55, 6.95, 0.000, 0.000, 0.000, 15:53:44.630
176, -422.60, 12.41, 5.11, 9.06, 0.000, 0.000, 0.000, 15:53:44.630
177, -225.30, 2.10, 16.09, 16.55, 0.000, 0.000, 0.000, 15:53:44.657
178, 256.84, 5.10, 10.08, 12.38, 0.000, 0.000, 0.000, 15:53:44.657
179, -201.26, 12.68, 3.81, 4.34, 0.000, 0.000, 0.000, 15:53:44.658
180, -447.58, 4.80, 14.66, 14.11, 0.000, 0.000, 0.000, 15:53:44.658
181, 180.30, 3.12, 12.81, 16.06, 0.000, 0.000, 0.000, 15:53:44.658
182, 37.94, 12.81, 5.87, 6.75, 0.000, 0.000, 0.000, 15:53:44.659
183, -517.05, 9.41, 11.25, 12.59, 0.000, 0.000, 0.000, 15:53:44.678
184, 4.39, 1.24, 13.35, 17.36, 0.000, 0.000, 0.000, 15:53:44.680
185, 208.64, 10.11, 10.66, 8.93, 0.000, 0.000, 0.000, 15:53:44.680
186, -428.14, 15.48, 7.99, 8.82, 0.000, 0.000, 0.000, 15:53:44.681
187, -239.26, 4.32, 16.26, 19.59, 0.000, 0.000, 0.000, 15:53:44.697
188, 254.31, 5.95, 6.56, 15.86, 0.000, 0.000, 0.000, 15:53:44.697
189, -208.07, 10.25, 2.61, 4.94, 0.000, 0.000, 0.000, 15:53:44.698
190, -446.68, 7.05, 13.34, 15.25, 0.000, 0.000, 0.000, 15:53:44.698
191, 183.61, 7.27, 11.89, 15.82, 0.000, 0.000, 0.000, 15:53:44.719
192, 41.94, 17.82, 6.59, 7.64, 0.000, 0.000, 0.000, 15:53:44.720
193, -520.67, 6.37, 11.28, 16.14, 0.000, 0.000, 0.000, 15:53:44.720
194, -13.13, 6.27, 16.94, 16.43, 0.000, 0.000, 0.000, 15:53:44.720
195, 208.47, 9.55, 9.20, 9.56, 0.000, 0.000, 0.000, 15:53:44.742
196, -413.98, 13.76, 11.81, 3.65, 0.000, 0.000, 0.000, 15:53:44.742
197, -236.45, 1.59, 17.73, 16.98, 0.000, 0.000, 0.000, 15:53:44.743
198, 260.06, 7.55, 9.95, 11.08, 0.000, 0.000, 0.000, 15:53:44.743
199, -206.65, 14.60, 6.44, 7.42, 0.000, 0.000, 0.000, 15:53:44.743
200, -443.22, 3.18, 14.86, 15.55, 0.000, 0.000, 0.000, 15:53:44.744
0, 189.86, 6.35, 12.85, 12.16, 0.000, 0.000, 0.000, 15:53:44.764
1, 41.57, 9.34, 8.97, 8.00, 0.000, 0.000, 0.000, 15:53:44.765
2, -529.13, 9.44, 13.49, 12.53, 0.000, 0.000, 0.000, 15:53:44.765
3, -2.76, 3.06, 20.24, 16.41, 0.000, 0.000, 0.000, 15:53:44.787
4, 215.72, 11.91, 10.30, 10.48, 0.000, 0.000, 0.000, 15:53:44.787
5, -430.02, 11.11, 7.46, 7.28, 0.000, 0.000, 0.000, 15:53:44.788
6, -231.40, 2.22, 15.81, 15.77, 0.000, 0.000, 0.000, 15:53:44.788
7, 270.40, 8.42, 10.13, 12.74, 0.000, 0.000, 0.000, 15:53:44.788
8, -191.25, 13.21, 4.83, 6.65, 0.000, 0.000, 0.000, 15:53:44.789
9, -440.03, 8.67, 14.43, 14.63, 0.000, 0.000, 0.000, 15:53:44.809
10, 192.35, 2.31, 11.92, 15.60, 0.000, 0.000, 0.000, 15:53:44.810
11, 44.83, 11.61, 7.64, 5.03, 0.000, 0.000, 0.000, 15:53:44.810
12, -508.33, 14.89, 11.93, 12.58, 0.000, 0.000, 0.000, 15:53:44.810
13, -1.66, 4.11, 16.46, 18.73, 0.000, 0.000, 0.000, 15:53:44.832
14, 209.17, 9.61, 7.71, 10.15, 0.000, 0.000, 0.000, 15:53:44.832
15, -417.56, 12.54, 6.85, 9.82, 0.000, 0.000, 0.000, 15:53:44.832
16, -239.78, 0.44, 13.43, 16.44, 0.000, 0.000, 0.000, 15:53:44.833
17, 264.19, 9.75, 9.76, 10.06, 0.000, 0.000, 0.000, 15:53:44.854
18, -197.54, 14.89, 3.48, 3.08, 0.000, 0.000, 0.000, 15:53:44.855
19, -438.57, -2.49, 19.97, 19.85, 0.000, 0.000, 0.000, 15:53:44.855
20, 192.52, 4.49, 15.91, 16.92, 0.000, 0.000, 0.000, 15:53:44.855
21, 33.97, 12.17, 7.84, 11.74, 0.000, 0.000, 0.000, 15:53:44.877
22, -520.52, 11.08, 8.87, 6.87, 0.000, 0.000, 0.000, 15:53:44.877
23, 1.36, 2.32, 13.15, 14.12, 0.000, 0.000, 0.000, 15:53:44.878
24, 202.82, 10.72, 10.94, 9.48, 0.000, 0.000, 0.000, 15:53:44.878
25, -437.93, 10.62, 5.03, 5.66, 0.000, 0.000, 0.000, 15:53:44.878
26, -243.76, 6.50, 16.43, 16.19, 0.000, 0.000, 0.000, 15:53:44.879
27, 237.71, 9.07, 16.95, 15.88, 0.000, 0.000, 0.000, 15:53:44.899
28, -213.91, 11.32, 3.48, 6.90, 0.000, 0.000, 0.000, 15:53:44.900
29, -449.32, 5.27, 15.73, 15.61, 0.000, 0.000, 0.000, 15:53:44.900
30, 181.21, 5.39, 14.52, 11.42, 0.000, 0.000, 0.000, 15:53:44.900
31, 32.77, 13.09, 6.10, 9.27, 0.000, 0.000, 0.000, 15:53:44.922
32, -525.82, 10.26, 14.49, 16.77, 0.000, 0.000, 0.000, 15:53:44.923
33, -16.39, 3.38, 18.58, 15.19, 0.000, 0.000, 0.000, 15:53:44.925
34, 173.59, 9.16, 8.07, 11.71, 0.000, 0.000, 0.000, 15:53:44.925
35, -436.10, 12.91, 4.91, 9.17, 0.000, 0.000, 0.000, 15:53:44.944
36, -235.64, 8.94, 13.09, 14.68, 0.000, 0.000, 0.000, 15:53:44.945
37, 253.85, 2.61, 5.50, 15.30, 0.000, 0.000, 0.000, 15:53:44.945
38, -216.47, 16.83, 4.11, 6.75, 0.000, 0.000, 0.000, 15:53:44.945
39, -446.17, 2.80, 15.63, 8.84, 0.000, 0.000, 0.000, 15:53:44.967
40, 181.11, 7.80, 14.13, 13.50, 0.000, 0.000, 0.000, 15:53:44.967
41, 22.86, 11.23, 6.33, 10.60, 0.000, 0.000, 0.000, 15:53:44.967
42, -532.54, 9.57, 12.92, 9.16, 0.000, 0.000, 0.000, 15:53:44.968
43, -7.79, 4.38, 16.60, 14.51, 0.000, 0.000, 0.000, 15:53:44.968
44, 205.00, 9.71, 6.01, 10.66, 0.000, 0.000, 0.000, 15:53:44.968
45, -439.97, 19.31, 8.08, 11.43, 0.000, 0.000, 0.000, 15:53:44.989
46, -244.85, 0.98, 17.83, 16.08, 0.000, 0.000, 0.000, 15:53:44.989
47, 243.85, 3.95, 9.15, 14.07, 0.000, 0.000, 0.000, 15:53:44.990
48, -210.95, 16.38, 4.73, 9.43, 0.000, 0.000, 0.000, 15:53:44.990
49, -441.56, 8.88, 12.52, 16.63, 0.000, 0.000, 0.000, 15:53:45.012
50, 184.53, 5.67, 14.04, 13.99, 0.000, 0.000, 0.000, 15:53:45.013
51, 34.07, 10.27, 6.59, 11.84, 0.000, 0.000, 0.000, 15:53:45.013
52, -520.48, 6.84, 10.91, 9.31, 0.000, 0.000, 0.000, 15:53:45.013
53, -1.76, 2.15, 16.00, 17.65, 0.000, 0.000, 0.000, 15:53:45.034
54, 206.63, 15.99, 6.74, 12.56, 0.000, 0.000, 0.000, 15:53:45.035
55, -432.09, 3.31, 6.77, 4.45, 0.000, 0.000, 0.000, 15:53:45.035
56, -243.96, 4.81, 17.95, 19.97, 0.000, 0.000, 0.000, 15:53:45.036
57, 249.21, 8.34, 7.41, 8.91, 0.000, 0.000, 0.000, 15:53:45.057
58, -222.95, 12.79, 5.79, 4.44, 0.000, 0.000, 0.000, 15:53:45.057
59, -451.94, 3.04, 14.70, 16.27, 0.000, 0.000, 0.000, 15:53:45.058
60, 194.10, 10.81, 9.05, 12.37, 0.000, 0.000, 0.000, 15:53:45.059
61, 50.57, 10.95, 5.40, 7.86, 0.000, 0.000, 0.000, 15:53:45.059
62, -519.12, 7.01, 11.53, 9.30, 0.000, 0.000, 0.000, 15:53:45.059
63, 7.18, 9.61, 17.26, 15.77, 0.000, 0.000, 0.000, 15:53:45.079
64, 203.17, 5.94, 6.07, 7.80, 0.000, 0.000, 0.000, 15:53:45.079
65, -435.38, 9.56, 11.53, 7.58, 0.000, 0.000, 0.000, 15:53:45.080
66, -237.33, -0.09, 16.28, 15.56, 0.000, 0.000, 0.000, 15:53:45.081
67, 250.47, 6.61, 12.99, 18.77, 0.000, 0.000, 0.000, 15:53:45.102
68, -216.62, 14.90, 3.28, 5.44, 0.000, 0.000, 0.000, 15:53:45.102
69, -438.02, 6.27, 17.84, 12.51, 0.000, 0.000, 0.000, 15:53:45.102
70, 197.91, 4.48, 13.58, 14.11, 0.000, 0.000, 0.000, 15:53:45.103
71, 33.66, 13.89, 9.13, 10.42, 0.000, 0.000, 0.000, 15:53:45.124
72, -519.12, 12.40, 7.35, 10.03, 0.000, 0.000, 0.000, 15:53:45.125
73, 2.25, 2.03, 16.92, 16.23, 0.000, 0.000, 0.000, 15:53:45.125
74, 202.58, 11.22, 7.53, 7.55, 0.000, 0.000, 0.000, 15:53:45.125
75, -441.82, 13.74, 5.55, 8.77, 0.000, 0.000, 0.000, 15:53:45.147
76, -246.39, 1.57, 14.36, 20.30, 0.000, 0.000, 0.000, 15:53:45.147
77, 254.03, 9.60, 12.30, 14.42, 0.000, 0.000, 0.000, 15:53:45.147
78, -209.70, 16.89, 4.88, 5.57, 0.000, 0.000, 0.000, 15:53:45.148
79, -439.97, 3.16, 12.33, 16.79, 0.000, 0.000, 0.000, 15:53:45.148
80, 193.13, 10.34, 14.42, 14.28, 0.000, 0.000, 0.000, 15:53:45.148
81, 37.37, 14.00, 4.75, 3.84, 0.000, 0.000, 0.000, 15:53:45.169
82, -522.13, 2.53, 13.77, 7.54, 0.000, 0.000, 0.000, 15:53:45.169
83, -8.57, 5.66, 19.75, 16.01, 0.000, 0.000, 0.000, 15:53:45.171
84, 192.58, 7.81, 7.83, 5.95, 0.000, 0.000, 0.000, 15:53:45.171
85, -431.46, 14.47, 6.40, 10.42, 0.000, 0.000, 0.000, 15:53:45.192
86, -226.92, 2.03, 17.52, 17.49, 0.000, 0.000, 0.000, 15:53:45.192
87, 255.00, 11.97, 9.94, 11.88, 0.000, 0.000, 0.000, 15:53:45.193
88, -207.12, 17.81, 7.23, 9.69, 0.000, 0.000, 0.000, 15:53:45.193
89, -444.18, 1.80, 13.38, 17.62, 0.000, 0.000, 0.000, 15:53:45.214
90, 187.82, 9.46, 11.37, 11.15, 0.000, 0.000, 0.000, 15:53:45.214
91, 30.48, 5.38, 7.02, 9.82, 0.000, 0.000, 0.000, 15:53:45.215
92, -530.54, 8.50, 10.54, 10.36, 0.000, 0.000, 0.000, 15:53:45.215
93, 3.74, 1.19, 19.41, 19.08, 0.000, 0.000, 0.000, 15:53:45.237
94, 215.66, 9.48, 11.66, 16.03, 0.000, 0.000, 0.000, 15:53:45.237
95, -430.44, 12.13, 7.16, 11.20, 0.000, 0.000, 0.000, 15:53:45.238
96, -227.67, 2.86, 19.27, 14.07, 0.000, 0.000, 0.000, 15:53:45.238
97, 252.57, 9.14, 8.07, 13.35, 0.000, 0.000, 0.000, 15:53:45.238
98, -216.70, 12.79, 5.22, 5.99, 0.000, 0.000, 0.000, 15:53:45.238
99, -446.14, 8.45, 15.01, 14.42, 0.000, 0.000, 0.000, 15:53:45.259
100, 180.93, 1.51, 9.98, 13.56, 0.000, 0.000, 0.000, 15:53:45.260
101, 35.71, 11.14, 5.84, 4.21, 0.000, 0.000, 0.000, 15:53:45.260
102, -514.83, 8.24, 12.24, 15.57, 0.000, 0.000, 0.000, 15:53:45.260
103, 8.55, 3.33, 16.96, 17.07, 0.000, 0.000, 0.000, 15:53:45.282
104, 199.80, 10.89, 7.16, 11.52, 0.000, 0.000, 0.000, 15:53:45.282
105, -446.19, 11.43, 8.34, 4.36, 0.000, 0.000, 0.000, 15:53:45.282
106, -234.61, 1.94, 21.63, 12.95, 0.000, 0.000, 0.000, 15:53:45.283
107, 258.04, 6.04, 10.22, 8.84, 0.000, 0.000, 0.000, 15:53:45.304
108, -214.46, 11.42, 5.47, 7.26, 0.000, 0.000, 0.000, 15:53:45.305
109, -444.14, -4.01, 15.00, 17.81, 0.000, 0.000, 0.000, 15:53:45.305
110, 198.48, 8.54, 9.15, 14.14, 0.000, 0.000, 0.000, 15:53:45.305
111, 33.94, 13.35, 4.12, 5.68, 0.000, 0.000, 0.000, 15:53:45.327
112, -521.19, 11.21, 13.93, 9.82, 0.000, 0.000, 0.000, 15:53:45.327
113, 6.56, 5.16, 13.77, 15.33, 0.000, 0.000, 0.000, 15:53:45.327
114, 199.91, 11.57, 9.63, 9.77, 0.000, 0.000, 0.000, 15:53:45.328
115, -436.49, 8.48, 6.62, 8.06, 0.000, 0.000, 0.000, 15:53:45.328
116, -235.33, 2.37, 16.14, 18.01, 0.000, 0.000, 0.000, 15:53:45.328
117, 260.17, 12.81, 8.46, 12.55, 0.000, 0.000, 0.000, 15:53:45.349
118, -205.04, 12.54, 6.96, 9.48, 0.000, 0.000, 0.000, 15:53:45.350
119, -437.20, 6.80, 17.11, 16.95, 0.000, 0.000, 0.000, 15:53:45.350
120, 187.85, 3.69, 11.52, 12.71, 0.000, 0.000, 0.000, 15:53:45.350
121, 26.27, 12.48, 5.25, 6.86, 0.000, 0.000, 0.000, 15:53:45.373
122, -520.84, 4.27, 11.16, 11.51, 0.000, 0.000, 0.000, 15:53:45.373
123, -2.15, 4.64, 16.58, 16.35, 0.000, 0.000, 0.000, 15:53:45.374
124, 183.29, 12.51, 10.33, 11.14, 0.000, 0.000, 0.000, 15:53:45.374
125, -434.05, 12.71, 6.85, 7.61, 0.000, 0.000, 0.000, 15:53:45.394
126, -207.56, 7.58, 19.02, 19.33, 0.000, 0.000, 0.000, 15:53:45.394
127, 265.30, 3.45, 13.13, 11.49, 0.000, 0.000, 0.000, 15:53:45.395
128, -210.94, 15.35, 8.81, 4.58, 0.000, 0.000, 0.000, 15:53:45.396
129, -435.75, 4.69, 14.18, 14.89, 0.000, 0.000, 0.000, 15:53:45.417
130, 186.04, 8.60, 11.99, 8.50, 0.000, 0.000, 0.000, 15:53:45.417
131, 27.81, 13.90, 9.35, 10.19, 0.000, 0.000, 0.000, 15:53:45.418
132, -517.86, 9.05, 9.68, 9.00, 0.000, 0.000, 0.000, 15:53:45.418
133, 10.48, 2.62, 12.57, 14.93, 0.000, 0.000, 0.000, 15:53:45.419
134, 196.51, 8.26, 8.45, 14.34, 0.000, 0.000, 0.000, 15:53:45.419
135, -429.87, 15.90, 4.91, 7.07, 0.000, 0.000, 0.000, 15:53:45.439
136, -232.40, 1.89, 18.18, 15.28, 0.000, 0.000, 0.000, 15:53:45.440
137, 248.11, 7.17, 13.01, 10.87, 0.000, 0.000, 0.000, 15:53:45.440
138, -219.33, 13.39, 5.69, 8.28, 0.000, 0.000, 0.000, 15:53:45.440
139, -443.78, 9.43, 12.41, 14.31, 0.000, 0.000, 0.000, 15:53:45.462
140, 193.84, 2.21, 9.14, 14.88, 0.000, 0.000, 0.000, 15:53:45.462
141, 30.21, 10.51, 3.65, 12.63, 0.000, 0.000, 0.000, 15:53:45.463
142, -527.39, 10.33, 13.30, 9.74, 0.000, 0.000, 0.000, 15:53:45.463
143, -1.19, 4.41, 13.40, 12.66, 0.000, 0.000, 0.000, 15:53:45.484
144, 209.76, 15.11, 8.76, 9.01, 0.000, 0.000, 0.000, 15:53:45.485
145, -432.24, 4.64, 10.01, 6.75, 0.000, 0.000, 0.000, 15:53:45.485
146, -242.75, 2.46, 18.73, 17.94, 0.000, 0.000, 0.000, 15:53:45.485
147, 251.70, 6.89, 14.39, 16.29, 0.000, 0.000, 0.000, 15:53:45.507
148, -211.32, 12.35, 6.94, 7.25, 0.000, 0.000, 0.000, 15:53:45.508
149, -439.48, 5.39, 14.15, 15.93, 0.000, 0.000, 0.000, 15:53:45.508
150, 205.14, 8.58, 10.68, 14.88, 0.000, 0.000, 0.000, 15:53:45.508
151, 37.59, 9.63, 8.72, 11.66, 0.000, 0.000, 0.000, 15:53:45.508
152, -521.10, 10.28, 15.84, 15.68, 0.000, 0.000, 0.000, 15:53:45.508
153, -3.58, 8.84, 13.63, 16.26, 0.000, 0.000, 0.000, 15:53:45.529
154, 205.00, 7.86, 7.94, 8.34, 0.000, 0.000, 0.000, 15:53:45.530
155, -431.02, 11.65, 5.89, 10.59, 0.000, 0.000, 0.000, 15:53:45.530
156, -219.86, 1.75, 17.54, 16.83, 0.000, 0.000, 0.000, 15:53:45.531
157, 260.64, 6.80, 12.32, 14.57, 0.000, 0.000, 0.000, 15:53:45.552
158, -219.67, 12.54, 9.30, 9.17, 0.000, 0.000, 0.000, 15:53:45.552
159, -435.30, 3.83, 12.77, 15.91, 0.000, 0.000, 0.000, 15:53:45.552
160, 199.21, 8.18, 9.76, 10.72, 0.000, 0.000, 0.000, 15:53:45.553
161, 33.26, 14.51, 5.88, 7.70, 0.000, 0.000, 0.000, 15:53:45.574
162, -517.02, 13.24, 13.33, 10.36, 0.000, 0.000, 0.000, 15:53:45.575
163, -0.65, 0.67, 13.73, 15.29, 0.000, 0.000, 0.000, 15:53:45.576
164, 196.45, 6.70, 10.65, 14.15, 0.000, 0.000, 0.000, 15:53:45.576
165, -414.93, 11.13, 6.06, 6.99, 0.000, 0.000, 0.000, 15:53:45.597
166, -218.02, 2.85, 18.25, 18.33, 0.000, 0.000, 0.000, 15:53:45.597
167, 259.85, 5.30, 10.01, 7.25, 0.000, 0.000, 0.000, 15:53:45.598
168, -207.89, 15.93, 1.57, 5.57, 0.000, 0.000, 0.000, 15:53:45.598
169, -426.86, 2.61, 14.43, 13.14, 0.000, 0.000, 0.000, 15:53:45.598
170, 196.43, 7.51, 11.05, 10.36, 0.000, 0.000, 0.000, 15:53:45.599
171, 24.90, 16.60, 6.77, 9.50, 0.000, 0.000, 0.000, 15:53:45.619
172, -513.59, 8.32, 15.17, 17.62, 0.000, 0.000, 0.000, 15:53:45.620
173, 1.69, 3.61, 16.77, 17.21, 0.000, 0.000, 0.000, 15:53:45.620
174, 199.63, 9.88, 11.23, 13.18, 0.000, 0.000, 0.000, 15:53:45.620
175, -441.47, 17.39, 3.71, 7.00, 0.000, 0.000, 0.000, 15:53:45.642
176, -228.76, 2.46, 16.92, 18.71, 0.000, 0.000, 0.000, 15:53:45.642
177, 250.06, 11.18, 9.88, 12.49, 0.000, 0.000, 0.000, 15:53:45.664
178, -219.06, 12.52, 6.40, 2.74, 0.000, 0.000, 0.000, 15:53:45.666
179, -438.60, 4.69, 15.43, 12.18, 0.000, 0.000, 0.000, 15:53:45.667
180, 177.31, 4.20, 12.64, 16.36, 0.000, 0.000, 0.000, 15:53:45.667
181, 13.53, 11.34, 6.53, 9.51, 0.000, 0.000, 0.000, 15:53:45.667
182, -522.14, 4.50, 11.60, 12.45, 0.000, 0.000, 0.000, 15:53:45.668
183, 11.01, 1.68, 16.69, 18.58, 0.000, 0.000, 0.000, 15:53:45.688
184, 202.26, 4.62, 9.63, 7.77, 0.000, 0.000, 0.000, 15:53:45.688
185, -434.19, 14.08, 8.34, 6.71, 0.000, 0.000, 0.000, 15:53:45.690
186, -216.10, 5.18, 11.72, 14.15, 0.000, 0.000, 0.000, 15:53:45.691
187, 254.82, 9.01, 14.11, 12.13, 0.000, 0.000, 0.000, 15:53:45.691
188, -225.08, 14.61, 2.04, 7.87, 0.000, 0.000, 0.000, 15:53:45.691
189, -436.44, 5.46, 13.84, 12.28, 0.000, 0.000, 0.000, 15:53:45.710
190, 188.19, 2.89, 11.31, 15.27, 0.000, 0.000, 0.000, 15:53:45.710
191, 15.53, 16.16, 7.50, 7.89, 0.000, 0.000, 0.000, 15:53:45.710
192, -523.99, 5.70, 8.52, 6.60, 0.000, 0.000, 0.000, 15:53:45.711
193, 19.30, 3.82, 13.11, 14.36, 0.000, 0.000, 0.000, 15:53:45.732
194, 211.54, 7.33, 10.48, 8.56, 0.000, 0.000, 0.000, 15:53:45.732
195, -433.23, 14.13, 6.74, 8.36, 0.000, 0.000, 0.000, 15:53:45.733
196, -222.73, 4.66, 16.62, 16.60, 0.000, 0.000, 0.000, 15:53:45.733
197, 266.68, 9.59, 10.52, 12.93, 0.000, 0.000, 0.000, 15:53:45.754
198, -189.27, 18.82, 2.61, 4.68, 0.000, 0.000, 0.000, 15:53:45.755
199, -395.16, -1.90, 16.34, 17.24, 0.000, 0.000, 0.000, 15:53:45.755
200, 227.50, 4.95, 11.93, 13.39, 0.000, 0.000, 0.000, 15:53:45.755
0, 40.05, 16.69, 6.54, 6.39, 0.000, 0.000, 0.000, 15:53:45.756
1, -525.82, 6.58, 12.11, 14.37, 0.000, 0.000, 0.000, 15:53:45.777
2, -10.48, 5.55, 14.44, 18.62, 0.000, 0.000, 0.000, 15:53:45.777
3, 169.41, 7.69, 10.28, 14.30, 0.000, 0.000, 0.000, 15:53:45.777
4, -471.41, 16.15, 10.49, 5.41, 0.000, 0.000, 0.000, 15:53:45.777
5, -253.44, 3.24, 18.97, 20.35, 0.000, 0.000, 0.000, 15:53:45.799
6, 243.98, 11.49, 12.15, 10.43, 0.000, 0.000, 0.000, 15:53:45.799
7, -235.02, 10.92, 2.99, 8.51, 0.000, 0.000, 0.000, 15:53:45.801
8, -443.19, 2.67, 14.83, 11.57, 0.000, 0.000, 0.000, 15:53:45.801
9, 190.46, 6.89, 12.36, 14.70, 0.000, 0.000, 0.000, 15:53:45.822
10, 23.49, 14.99, 9.03, 7.37, 0.000, 0.000, 0.000, 15:53:45.823
11, -520.58, 6.16, 12.66, 15.18, 0.000, 0.000, 0.000, 15:53:45.823
12, 8.42, 3.81, 17.98, 10.79, 0.000, 0.000, 0.000, 15:53:45.823
13, 205.33, 13.81, 9.58, 11.98, 0.000, 0.000, 0.000, 15:53:45.823
14, -436.09, 10.43, 3.30, 8.99, 0.000, 0.000, 0.000, 15:53:45.824
15, -216.14, 5.82, 18.13, 13.60, 0.000, 0.000, 0.000, 15:53:45.867
16, 263.53, 3.65, 11.00, 8.94, 0.000, 0.000, 0.000, 15:53:45.867
17, -214.27, 12.22, 3.54, 8.07, 0.000, 0.000, 0.000, 15:53:45.868
18, -439.27, 1.61, 12.49, 17.66, 0.000, 0.000, 0.000, 15:53:45.868
19, 194.75, 4.68, 15.03, 16.45, 0.000, 0.000, 0.000, 15:53:45.889
20, 44.36, 13.82, 5.84, 11.92, 0.000, 0.000, 0.000, 15:53:45.890
21, -508.99, 6.04, 11.39, 15.53, 0.000, 0.000, 0.000, 15:53:45.890
22, 23.01, 3.64, 15.97, 15.59, 0.000, 0.000, 0.000, 15:53:45.890
23, 205.39, 9.97, 8.91, 10.02, 0.000, 0.000, 0.000, 15:53:45.891
24, -439.29, 18.09, 4.23, 10.00, 0.000, 0.000, 0.000, 15:53:45.891
25, -224.40, 1.58, 19.99, 16.58, 0.000, 0.000, 0.000, 15:53:45.912
26, 259.56, 10.37, 9.40, 10.31, 0.000, 0.000, 0.000, 15:53:45.912
27, -225.51, 10.43, 7.63, 2.89, 0.000, 0.000, 0.000, 15:53:45.912
28, -433.34, 7.20, 14.52, 15.85, 0.000, 0.000, 0.000, 15:53:45.913
29, 204.67, 4.75, 11.14, 12.54, 0.000, 0.000, 0.000, 15:53:45.913
30, 35.70, 15.01, 8.59, 14.05, 0.000, 0.000, 0.000, 15:53:45.913
31, -515.12, 8.01, 9.59, 12.94, 0.000, 0.000, 0.000, 15:53:45.934
32, 26.48, 4.75, 18.36, 15.20, 0.000, 0.000, 0.000, 15:53:45.935
33, 201.95, 7.46, 6.54, 10.56, 0.000, 0.000, 0.000, 15:53:45.936
34, -428.21, 11.36, 9.72, 9.45, 0.000, 0.000, 0.000, 15:53:45.936
35, -214.05, 6.06, 18.10, 17.53, 0.000, 0.000, 0.000, 15:53:45.937
36, 257.94, 8.67, 11.78, 9.47, 0.000, 0.000, 0.000, 15:53:45.937
37, -224.09, 9.92, 6.14, 5.33, 0.000, 0.000, 0.000, 15:53:45.957
38, -427.79, 2.28, 15.83, 16.53, 0.000, 0.000, 0.000, 15:53:45.958
39, 212.92, 5.39, 6.90, 14.25, 0.000, 0.000, 0.000, 15:53:45.958
40, 43.05, 13.27, 5.22, 9.38, 0.000, 0.000, 0.000, 15:53:45.958
41, -507.04, 8.89, 10.95, 8.57, 0.000, 0.000, 0.000, 15:53:45.979
42, 28.83, 7.55, 13.47, 11.08, 0.000, 0.000, 0.000, 15:53:45.980
43, 207.25, 12.47, 8.38, 10.96, 0.000, 0.000, 0.000, 15:53:45.980
44, -432.37, 11.50, 5.61, 9.01, 0.000, 0.000, 0.000, 15:53:45.980
45, -215.06, 0.66, 16.88, 18.78, 0.000, 0.000, 0.000, 15:53:46.002
46, 263.75, 9.38, 13.13, 15.41, 0.000, 0.000, 0.000, 15:53:46.002
47, -211.26, 13.99, 5.44, 3.35, 0.000, 0.000, 0.000, 15:53:46.003
48, -417.20, 4.22, 15.96, 13.15, 0.000, 0.000, 0.000, 15:53:46.003
49, 202.76, 5.81, 13.21, 11.85, 0.000, 0.000, 0.000, 15:53:46.003
50, 28.48, 13.05, 6.96, 6.95, 0.000, 0.000, 0.000, 15:53:46.003
51, -513.34, 9.31, 10.70, 8.68, 0.000, 0.000, 0.000, 15:53:46.024
52, 23.46, 3.09, 14.92, 14.33, 0.000, 0.000, 0.000, 15:53:46.025
53, 200.64, 9.51, 8.49, 9.88, 0.000, 0.000, 0.000, 15:53:46.025
54, -429.64, 14.86, 6.17, 11.68, 0.000, 0.000, 0.000, 15:53:46.025
55, -224.01, 1.08, 15.95, 12.40, 0.000, 0.000, 0.000, 15:53:46.047
56, 241.86, 9.00, 12.45, 10.50, 0.000, 0.000, 0.000, 15:53:46.047
57, -219.66, 20.77, 4.25, 7.17, 0.000, 0.000, 0.000, 15:53:46.048
58, -423.09, 5.67, 16.41, 15.69, 0.000, 0.000, 0.000, 15:53:46.048
59, 208.61, 3.46, 10.05, 15.02, 0.000, 0.000, 0.000, 15:53:46.069
60, 22.78, 15.00, 5.05, 4.30, 0.000, 0.000, 0.000, 15:53:46.070
61, -529.88, 0.39, 9.12, 11.12, 0.000, 0.000, 0.000, 15:53:46.070
62, 6.78, 3.71, 15.06, 15.79, 0.000, 0.000, 0.000, 15:53:46.070
63, 187.15, 10.93, 9.29, 15.56, 0.000, 0.000, 0.000, 15:53:46.092
64, -453.18, 12.03, 9.94, 6.46, 0.000, 0.000, 0.000, 15:53:46.092
65, -227.76, 3.55, 16.47, 15.26, 0.000, 0.000, 0.000, 15:53:46.092
66, 245.21, 8.96, 12.14, 11.61, 0.000, 0.000, 0.000, 15:53:46.093
67, -237.47, 13.61, 2.92, 12.01, 0.000, 0.000, 0.000, 15:53:46.093
68, -444.82, 2.67, 16.83, 17.54, 0.000, 0.000, 0.000, 15:53:46.093
69, 189.53, 8.52, 8.83, 15.40, 0.000, 0.000, 0.000, 15:53:46.115
70, 24.53, 9.13, 10.80, 12.28, 0.000, 0.000, 0.000, 15:53:46.115
71, -525.98, 6.95, 8.71, 9.18, 0.000, 0.000, 0.000, 15:53:46.116
72, 10.16, 5.63, 15.80, 12.21, 0.000, 0.000, 0.000, 15:53:46.116
73, 180.02, 12.31, 11.09, 11.63, 0.000, 0.000, 0.000, 15:53:46.137
74, -441.99, 12.00, 8.04, 12.24, 0.000, 0.000, 0.000, 15:53:46.137
75, -214.21, 3.99, 17.19, 10.63, 0.000, 0.000, 0.000, 15:53:46.137
76, 250.91, 8.80, 13.29, 13.63, 0.000, 0.000, 0.000, 15:53:46.137
77, -236.65, 13.66, 3.70, 6.74, 0.000, 0.000, 0.000, 15:53:46.159
78, -436.47, 4.33, 13.77, 11.80, 0.000, 0.000, 0.000, 15:53:46.160
79, 200.76, 2.74, 12.06, 14.32, 0.000, 0.000, 0.000, 15:53:46.160
80, 16.08, 13.16, 5.30, 6.38, 0.000, 0.000, 0.000, 15:53:46.160
81, -517.66, 7.70, 10.60, 10.16, 0.000, 0.000, 0.000, 15:53:46.182
82, 17.16, 2.66, 18.00, 18.63, 0.000, 0.000, 0.000, 15:53:46.182
83, 190.46, 6.46, 10.26, 15.46, 0.000, 0.000, 0.000, 15:53:46.183
84, -453.89, 13.69, 8.42, 6.86, 0.000, 0.000, 0.000, 15:53:46.183
85, -235.60, 2.60, 18.54, 15.01, 0.000, 0.000, 0.000, 15:53:46.183
86, 267.23, 6.95, 11.36, 10.10, 0.000, 0.000, 0.000, 15:53:46.183
87, -214.24, 16.17, 5.55, 5.64, 0.000, 0.000, 0.000, 15:53:46.204
88, -430.37, 2.85, 18.26, 15.28, 0.000, 0.000, 0.000, 15:53:46.204
89, 190.88, 6.28, 12.70, 14.33, 0.000, 0.000, 0.000, 15:53:46.205
90, 23.60, 13.38, 5.91, 13.92, 0.000, 0.000, 0.000, 15:53:46.205
91, -523.58, 6.28, 8.21, 14.36, 0.000, 0.000, 0.000, 15:53:46.227
92, 19.07, 0.44, 14.30, 12.62, 0.000, 0.000, 0.000, 15:53:46.227
93, 197.92, 7.53, 9.60, 8.71, 0.000, 0.000, 0.000, 15:53:46.227
94, -457.01, 10.10, 7.06, 8.77, 0.000, 0.000, 0.000, 15:53:46.228
95, -213.89, 6.56, 20.13, 14.29, 0.000, 0.000, 0.000, 15:53:46.249
96, 261.53, 16.42, 10.80, 11.45, 0.000, 0.000, 0.000, 15:53:46.249
97, -252.26, 10.73, 3.85, 5.49, 0.000, 0.000, 0.000, 15:53:46.250
98, -412.21, 3.89, 14.58, 15.58, 0.000, 0.000, 0.000, 15:53:46.250
99, 202.68, 7.37, 15.16, 14.81, 0.000, 0.000, 0.000, 15:53:46.272
100, 5.24, 12.61, 3.44, 7.74, 0.000, 0.000, 0.000, 15:53:46.272
101, -527.24, 6.98, 10.83, 12.69, 0.000, 0.000, 0.000, 15:53:46.272
102, 8.10, 7.56, 13.92, 12.31, 0.000, 0.000, 0.000, 15:53:46.273
103, 203.97, 12.33, 8.94, 14.60, 0.000, 0.000, 0.000, 15:53:46.273
104, -450.92, 10.10, 4.48, 11.67, 0.000, 0.000, 0.000, 15:53:46.273
105, -215.16, 9.47, 17.15, 20.74, 0.000, 0.000, 0.000, 15:53:46.294
106, 277.25, 3.55, 7.81, 9.02, 0.000, 0.000, 0.000, 15:53:46.294
107, -217.55, 11.79, 3.70, 10.70, 0.000, 0.000, 0.000, 15:53:46.295
108, -431.38, 3.00, 15.21, 13.96, 0.000, 0.000, 0.000, 15:53:46.295
109, 196.90, 5.54, 13.60, 10.25, 0.000, 0.000, 0.000, 15:53:46.317
110, 21.76, 11.66, 4.40, 9.36, 0.000, 0.000, 0.000, 15:53:46.318
111, -527.32, 10.85, 14.64, 15.22, 0.000, 0.000, 0.000, 15:53:46.318
112, 28.48, 4.45, 14.32, 16.29, 0.000, 0.000, 0.000, 15:53:46.319
113, 196.04, 14.98, 10.37, 11.27, 0.000, 0.000, 0.000, 15:53:46.339
114, -463.27, 16.53, 2.29, 6.15, 0.000, 0.000, 0.000, 15:53:46.340
115, -239.79, -6.51, 17.55, 14.66, 0.000, 0.000, 0.000, 15:53:46.340
116, 253.45, 4.43, 14.56, 10.52, 0.000, 0.000, 0.000, 15:53:46.340
117, -216.73, 16.89, 6.05, 7.90, 0.000, 0.000, 0.000, 15:53:46.362
118, -446.04, 4.50, 11.58, 13.17, 0.000, 0.000, 0.000, 15:53:46.362
119, 168.14, 6.02, 13.42, 13.07, 0.000, 0.000, 0.000, 15:53:46.362
120, 51.06, 11.47, 7.17, 10.27, 0.000, 0.000, 0.000, 15:53:46.362
121, -498.27, 8.43, 13.58, 13.15, 0.000, 0.000, 0.000, 15:53:46.363
122, 37.94, 6.96, 15.92, 14.89, 0.000, 0.000, 0.000, 15:53:46.363
123, 193.48, 14.73, 11.76, 11.16, 0.000, 0.000, 0.000, 15:53:46.385
124, -453.28, 8.39, 4.91, 7.78, 0.000, 0.000, 0.000, 15:53:46.385
125, -200.45, 4.74, 17.33, 17.73, 0.000, 0.000, 0.000, 15:53:46.385
126, 254.94, 9.93, 8.14, 12.75, 0.000, 0.000, 0.000, 15:53:46.386
127, -231.20, 15.29, 5.45, 6.01, 0.000, 0.000, 0.000, 15:53:46.407
128, -422.93, -1.74, 12.68, 13.99, 0.000, 0.000, 0.000, 15:53:46.407
129, 210.67, 7.12, 13.20, 13.34, 0.000, 0.000, 0.000, 15:53:46.407
130, 12.34, 11.08, 5.40, 9.36, 0.000, 0.000, 0.000, 15:53:46.407
131, -530.36, 4.93, 15.57, 10.12, 0.000, 0.000, 0.000, 15:53:46.429
132, -1.99, 9.01, 15.91, 20.14, 0.000, 0.000, 0.000, 15:53:46.429
133, 181.19, 5.29, 11.72, 14.54, 0.000, 0.000, 0.000, 15:53:46.430
134, -465.22, 12.97, 9.91, 9.18, 0.000, 0.000, 0.000, 15:53:46.430
135, -221.81, 1.52, 12.92, 17.73, 0.000, 0.000, 0.000, 15:53:46.452
136, 297.90, 5.70, 11.38, 11.33, 0.000, 0.000, 0.000, 15:53:46.452
137, -242.75, 14.21, 3.75, 3.24, 0.000, 0.000, 0.000, 15:53:46.452
138, -430.99, 4.03, 13.38, 13.77, 0.000, 0.000, 0.000, 15:53:46.453
139, 203.16, 7.11, 9.49, 15.27, 0.000, 0.000, 0.000, 15:53:46.453
140, 53.91, 10.82, 7.00, 5.68, 0.000, 0.000, 0.000, 15:53:46.453
141, -503.93, 11.32, 12.03, 12.47, 0.000, 0.000, 0.000, 15:53:46.474
142, 30.54, -0.31, 14.28, 10.29, 0.000, 0.000, 0.000, 15:53:46.475
143, 189.47, 10.50, 7.22, 5.93, 0.000, 0.000, 0.000, 15:53:46.476
144, -452.43, 15.99, 11.89, 10.54, 0.000, 0.000, 0.000, 15:53:46.476
145, -205.26, 8.08, 22.16, 17.03, 0.000, 0.000, 0.000, 15:53:46.497
146, 242.41, 6.68, 11.56, 13.87, 0.000, 0.000, 0.000, 15:53:46.497
147, -273.77, 11.55, 6.25, 6.76, 0.000, 0.000, 0.000, 15:53:46.497
148, -451.87, 5.27, 18.68, 12.95, 0.000, 0.000, 0.000, 15:53:46.497
149, 250.77, 7.04, 14.50, 16.59, 0.000, 0.000, 0.000, 15:53:46.519
150, 47.81, 18.87, 7.30, 9.40, 0.000, 0.000, 0.000, 15:53:46.519
151, -525.27, 1.97, 11.00, 10.11, 0.000, 0.000, 0.000, 15:53:46.520
152, 25.63, 5.61, 14.46, 17.17, 0.000, 0.000, 0.000, 15:53:46.520
153, 197.95, 12.01, 7.98, 11.22, 0.000, 0.000, 0.000, 15:53:46.542
154, -453.23, 9.17, 10.60, 10.47, 0.000, 0.000, 0.000, 15:53:46.542
155, -207.64, 0.47, 17.24, 13.47, 0.000, 0.000, 0.000, 15:53:46.542
156, 244.82, 10.88, 13.23, 11.38, 0.000, 0.000, 0.000, 15:53:46.543
157, -254.28, 13.66, 7.41, 6.56, 0.000, 0.000, 0.000, 15:53:46.544
158, -387.04, 3.52, 14.78, 16.21, 0.000, 0.000, 0.000, 15:53:46.544
159, 201.09, 9.58, 12.44, 14.72, 0.000, 0.000, 0.000, 15:53:46.564
160, 8.78, 8.86, 4.51, 4.10, 0.000, 0.000, 0.000, 15:53:46.565
161, -510.37, 11.99, 8.13, 11.59, 0.000, 0.000, 0.000, 15:53:46.565
162, 19.84, 0.11, 14.26, 18.29, 0.000, 0.000, 0.000, 15:53:46.565
163, 202.87, 8.24, 9.11, 5.63, 0.000, 0.000, 0.000, 15:53:46.587
164, -479.88, 8.82, 2.20, 11.42, 0.000, 0.000, 0.000, 15:53:46.587
165, -213.81, 7.35, 16.67, 17.73, 0.000, 0.000, 0.000, 15:53:46.587
166, 303.52, 10.33, 10.54, 9.34, 0.000, 0.000, 0.000, 15:53:46.587
167, -235.80, 11.33, 5.18, 8.36, 0.000, 0.000, 0.000, 15:53:46.609
168, -447.43, 8.02, 15.23, 13.81, 0.000, 0.000, 0.000, 15:53:46.610
169, 228.17, 0.72, 10.29, 15.40, 0.000, 0.000, 0.000, 15:53:46.610
170, 19.32, 9.13, 8.40, 11.54, 0.000, 0.000, 0.000, 15:53:46.610
171, -509.55, 8.71, 11.97, 14.29, 0.000, 0.000, 0.000, 15:53:46.632
172, 21.51, 4.82, 15.77, 19.44, 0.000, 0.000, 0.000, 15:53:46.632
173, 162.83, 8.06, 6.18, 9.13, 0.000, 0.000, 0.000, 15:53:46.632
174, -430.23, 13.79, 7.01, 5.87, 0.000, 0.000, 0.000, 15:53:46.632
175, -181.37, 1.01, 16.99, 16.78, 0.000, 0.000, 0.000, 15:53:46.633
176, 264.93, 8.85, 13.06, 13.77, 0.000, 0.000, 0.000, 15:53:46.633
177, -253.29, 20.36, 7.25, 5.52, 0.000, 0.000, 0.000, 15:53:46.700
178, -451.19, -0.80, 13.18, 13.88, 0.000, 0.000, 0.000, 15:53:46.701
179, 158.78, 7.89, 12.76, 13.25, 0.000, 0.000, 0.000, 15:53:46.701
180, 35.90, 12.10, 8.28, 7.78, 0.000, 0.000, 0.000, 15:53:46.701
181, -483.58, 8.10, 13.30, 14.90, 0.000, 0.000, 0.000, 15:53:46.702
182, 59.36, 6.26, 17.60, 15.93, 0.000, 0.000, 0.000, 15:53:46.702
183, 185.22, 10.54, 8.94, 9.82, 0.000, 0.000, 0.000, 15:53:46.722
184, -511.93, 13.69, 6.53, 10.01, 0.000, 0.000, 0.000, 15:53:46.722
185, -218.56, 2.40, 16.25, 16.51, 0.000, 0.000, 0.000, 15:53:46.722
186, 309.53, 3.48, 9.10, 13.52, 0.000, 0.000, 0.000, 15:53:46.723
187, -226.40, 16.28, 3.89, 7.49, 0.000, 0.000, 0.000, 15:53:46.723
188, -410.72, 3.95, 14.26, 11.77, 0.000, 0.000, 0.000, 15:53:46.724
189, 201.58, 6.03, 14.44, 11.22, 0.000, 0.000, 0.000, 15:53:46.745
190, -9.55, 13.06, 5.49, 10.31, 0.000, 0.000, 0.000, 15:53:46.745
191, -519.29, 4.31, 12.15, 14.64, 0.000, 0.000, 0.000, 15:53:46.745
192, 66.82, -0.18, 14.04, 15.57, 0.000, 0.000, 0.000, 15:53:46.745
193, 216.79, 12.29, 8.17, 7.08, 0.000, 0.000, 0.000, 15:53:46.746
194, -468.27, 11.59, 6.74, 7.39, 0.000, 0.000, 0.000, 15:53:46.746
195, -225.44, 5.33, 20.54, 20.13, 0.000, 0.000, 0.000, 15:53:46.767
196, 253.16, 5.42, 10.37, 13.96, 0.000, 0.000, 0.000, 15:53:46.768
197, -248.16, 16.36, 1.43, 7.31, 0.000, 0.000, 0.000, 15:53:46.768
198, -402.74, 2.68, 17.95, 14.09, 0.000, 0.000, 0.000, 15:53:46.768
199, 219.92, 8.94, 8.25, 12.25, 0.000, 0.000, 0.000, 15:53:46.769
200, -8.79, 12.36, 4.73, 9.89, 0.000, 0.000, 0.000, 15:53:46.769
0, -562.82, 6.79, 10.50, 12.48, 0.000, 0.000, 0.000, 15:53:46.789
1, 41.05, 2.00, 18.70, 12.74, 0.000, 0.000, 0.000, 15:53:46.790
2, 221.91, 10.31, 10.71, 11.40, 0.000, 0.000, 0.000, 15:53:46.790
3, -418.77, 9.31, 6.32, 10.59, 0.000, 0.000, 0.000, 15:53:46.791
4, -213.73, 2.14, 15.41, 17.02, 0.000, 0.000, 0.000, 15:53:46.791
5, 273.15, 7.95, 10.10, 12.91, 0.000, 0.000, 0.000, 15:53:46.834
6, -229.34, 17.82, 2.48, 8.75, 0.000, 0.000, 0.000, 15:53:46.835
7, -419.24, 7.58, 13.30, 12.23, 0.000, 0.000, 0.000, 15:53:46.835
8, 204.85, 9.44, 13.52, 9.95, 0.000, 0.000, 0.000, 15:53:46.835
9, 28.22, 9.94, 10.41, 9.30, 0.000, 0.000, 0.000, 15:53:46.836
10, -534.76, 6.33, 12.83, 14.15, 0.000, 0.000, 0.000, 15:53:46.836
11, 43.06, 1.52, 13.30, 14.81, 0.000, 0.000, 0.000, 15:53:46.857
12, 176.09, 8.25, 14.01, 7.71, 0.000, 0.000, 0.000, 15:53:46.857
13, -474.17, 13.06, 9.26, 4.36, 0.000, 0.000, 0.000, 15:53:46.858
14, -196.66, 3.13, 20.11, 21.11, 0.000, 0.000, 0.000, 15:53:46.858
15, 257.94, 8.85, 9.83, 9.95, 0.000, 0.000, 0.000, 15:53:46.858
16, -246.88, 15.42, 1.87, 8.64, 0.000, 0.000, 0.000, 15:53:46.859
17, -421.59, 1.80, 16.84, 12.86, 0.000, 0.000, 0.000, 15:53:46.879
18, 200.32, 6.91, 16.37, 14.83, 0.000, 0.000, 0.000, 15:53:46.879
19, -3.68, 10.32, 5.25, 6.85, 0.000, 0.000, 0.000, 15:53:46.880
20, -499.67, 10.05, 11.85, 13.53, 0.000, 0.000, 0.000, 15:53:46.880
21, 29.43, 3.59, 14.91, 15.00, 0.000, 0.000, 0.000, 15:53:46.880
22, 181.19, 13.11, 5.75, 10.56, 0.000, 0.000, 0.000, 15:53:46.881
23, -429.97, 11.36, 3.60, 7.21, 0.000, 0.000, 0.000, 15:53:46.902
24, -188.70, 1.90, 16.74, 13.62, 0.000, 0.000, 0.000, 15:53:46.902
25, 242.91, 10.27, 9.91, 10.01, 0.000, 0.000, 0.000, 15:53:46.902
26, -280.90, 15.38, 4.92, 7.16, 0.000, 0.000, 0.000, 15:53:46.903
27, -434.74, 6.91, 13.25, 20.30, 0.000, 0.000, 0.000, 15:53:46.903
28, 192.94, 5.31, 14.57, 7.51, 0.000, 0.000, 0.000, 15:53:46.903
29, 2.34, 11.36, 7.93, 4.87, 0.000, 0.000, 0.000, 15:53:46.925
30, -490.54, 14.14, 11.79, 17.47, 0.000, 0.000, 0.000, 15:53:46.925
31, 19.20, 3.39, 14.79, 11.17, 0.000, 0.000, 0.000, 15:53:46.925
32, 183.19, 9.97, 6.76, 12.72, 0.000, 0.000, 0.000, 15:53:46.926
33, -402.52, 11.83, 7.16, 6.20, 0.000, 0.000, 0.000, 15:53:46.947
34, -170.84, 3.18, 16.83, 11.07, 0.000, 0.000, 0.000, 15:53:46.947
35, 264.29, 3.61, 9.15, 14.28, 0.000, 0.000, 0.000, 15:53:46.969
36, -239.72, 10.86, 4.13, 7.36, 0.000, 0.000, 0.000, 15:53:46.969
37, -400.76, 2.00, 15.22, 12.66, 0.000, 0.000, 0.000, 15:53:46.970
38, 243.99, 7.76, 10.82, 14.72, 0.000, 0.000, 0.000, 15:53:46.970
39, 37.92, 9.34, 4.42, 7.65, 0.000, 0.000, 0.000, 15:53:46.971
40, -481.67, 9.74, 9.19, 8.79, 0.000, 0.000, 0.000, 15:53:46.971
41, 43.06, 6.30, 17.79, 15.76, 0.000, 0.000, 0.000, 15:53:46.992
42, 146.43, 10.76, 10.71, 10.17, 0.000, 0.000, 0.000, 15:53:46.992
43, -502.86, 10.96, 8.12, 8.93, 0.000, 0.000, 0.000, 15:53:46.993
44, -204.37, 6.44, 17.20, 18.60, 0.000, 0.000, 0.000, 15:53:46.993
45, 227.04, 6.76, 13.33, 16.41, 0.000, 0.000, 0.000, 15:53:46.993
46, -290.15, 16.86, 1.78, 4.91, 0.000, 0.000, 0.000, 15:53:46.993
47, -388.32, -0.92, 18.05, 15.54, 0.000, 0.000, 0.000, 15:53:47.014
48, 228.87, 5.08, 12.99, 13.27, 0.000, 0.000, 0.000, 15:53:47.015
49, -4.26, 7.60, 7.69, 9.95, 0.000, 0.000, 0.000, 15:53:47.015
50, -563.46, 9.26, 10.76, 13.83, 0.000, 0.000, 0.000, 15:53:47.015
51, 6.63, 4.62, 15.57, 14.62, 0.000, 0.000, 0.000, 15:53:47.059
52, 177.63, 13.37, 10.51, 11.20, 0.000, 0.000, 0.000, 15:53:47.059
53, -414.71, 11.26, 10.15, 7.21, 0.000, 0.000, 0.000, 15:53:47.060
54, -176.90, 3.99, 14.61, 13.81, 0.000, 0.000, 0.000, 15:53:47.060
55, 290.66, 5.26, 10.74, 14.49, 0.000, 0.000, 0.000, 15:53:47.061
56, -220.91, 15.52, 4.99, 6.45, 0.000, 0.000, 0.000, 15:53:47.061
57, -418.63, 0.33, 16.76, 14.15, 0.000, 0.000, 0.000, 15:53:47.082
58, 182.30, 11.97, 10.74, 15.06, 0.000, 0.000, 0.000, 15:53:47.082
59, -25.42, 11.28, 10.65, 9.71, 0.000, 0.000, 0.000, 15:53:47.083
60, -518.08, 5.41, 11.63, 15.50, 0.000, 0.000, 0.000, 15:53:47.084
61, 43.37, 4.92, 16.20, 19.48, 0.000, 0.000, 0.000, 15:53:47.084
62, 184.85, 8.99, 9.97, 12.01, 0.000, 0.000, 0.000, 15:53:47.084
63, -466.97, 11.14, 4.90, 10.42, 0.000, 0.000, 0.000, 15:53:47.104
64, -174.21, 1.42, 16.55, 13.76, 0.000, 0.000, 0.000, 15:53:47.105
65, 279.39, 9.81, 12.29, 11.05, 0.000, 0.000, 0.000, 15:53:47.105
66, -232.55, 14.45, 6.26, 0.48, 0.000, 0.000, 0.000, 15:53:47.105
67, -434.94, 3.17, 14.56, 15.03, 0.000, 0.000, 0.000, 15:53:47.106
68, 199.99, 7.04, 10.81, 13.85, 0.000, 0.000, 0.000, 15:53:47.106
69, 35.90, 15.62, 1.84, 4.57, 0.000, 0.000, 0.000, 15:53:47.127
70, -492.25, 7.58, 10.41, 9.66, 0.000, 0.000, 0.000, 15:53:47.127
71, 56.21, 4.81, 16.46, 15.00, 0.000, 0.000, 0.000, 15:53:47.127
72, 206.59, 11.86, 8.65, 16.42, 0.000, 0.000, 0.000, 15:53:47.128
73, -442.31, 10.45, 9.80, 8.78, 0.000, 0.000, 0.000, 15:53:47.152
74, -209.33, 2.61, 19.11, 16.89, 0.000, 0.000, 0.000, 15:53:47.152
75, 245.71, 11.63, 11.15, 13.50, 0.000, 0.000, 0.000, 15:53:47.153
76, -245.48, 5.34, 3.84, 10.04, 0.000, 0.000, 0.000, 15:53:47.153
77, -433.48, 3.98, 16.08, 17.94, 0.000, 0.000, 0.000, 15:53:47.154
78, 192.86, 8.96, 11.00, 15.95, 0.000, 0.000, 0.000, 15:53:47.154
79, 22.11, 16.91, 4.41, 8.90, 0.000, 0.000, 0.000, 15:53:47.173
80, -509.35, 11.86, 12.90, 13.28, 0.000, 0.000, 0.000, 15:53:47.173
81, 57.01, 5.00, 14.66, 15.17, 0.000, 0.000, 0.000, 15:53:47.174
82, 172.73, 14.75, 11.32, 12.21, 0.000, 0.000, 0.000, 15:53:47.174
83, -484.55, 14.53, 8.21, 6.05, 0.000, 0.000, 0.000, 15:53:47.195
84, -145.68, 8.84, 13.45, 16.22, 0.000, 0.000, 0.000, 15:53:47.195
85, 290.05, 0.86, 9.39, 12.11, 0.000, 0.000, 0.000, 15:53:47.195
86, -242.06, 11.36, 4.98, 5.74, 0.000, 0.000, 0.000, 15:53:47.195
87, -413.19, 2.89, 17.92, 15.11, 0.000, 0.000, 0.000, 15:53:47.219
88, 229.42, 6.04, 12.46, 16.42, 0.000, 0.000, 0.000, 15:53:47.219
89, 33.71, 11.20, 5.48, 11.46, 0.000, 0.000, 0.000, 15:53:47.219
90, -495.05, 9.80, 12.63, 12.15, 0.000, 0.000, 0.000, 15:53:47.219
91, 57.64, 2.41, 12.98, 16.83, 0.000, 0.000, 0.000, 15:53:47.220
92, 174.76, 15.77, 7.06, 9.85, 0.000, 0.000, 0.000, 15:53:47.220
93, -457.58, 17.30, 9.08, 9.75, 0.000, 0.000, 0.000, 15:53:47.239
94, -181.36, 1.36, 18.62, 15.12, 0.000, 0.000, 0.000, 15:53:47.240
95, 263.42, 9.76, 10.03, 12.67, 0.000, 0.000, 0.000, 15:53:47.240
96, -258.91, 11.62, 8.12, 8.87, 0.000, 0.000, 0.000, 15:53:47.240
97, -447.97, 2.78, 20.39, 14.87, 0.000, 0.000, 0.000, 15:53:47.262
98, 234.68, -0.53, 13.87, 13.46, 0.000, 0.000, 0.000, 15:53:47.262
99, 47.11, 13.15, 5.99, 4.99, 0.000, 0.000, 0.000, 15:53:47.263
100, -552.90, 8.87, 10.23, 12.45, 0.000, 0.000, 0.000, 15:53:47.263
101, 23.71, 4.25, 16.23, 16.12, 0.000, 0.000, 0.000, 15:53:47.284
102, 165.33, 14.49, 3.90, 9.61, 0.000, 0.000, 0.000, 15:53:47.284
103, -459.80, 5.08, 9.15, 11.88, 0.000, 0.000, 0.000, 15:53:47.308
104, -176.26, 3.41, 17.43, 15.85, 0.000, 0.000, 0.000, 15:53:47.308
105, 251.04, 7.23, 9.88, 13.77, 0.000, 0.000, 0.000, 15:53:47.310
106, -267.01, 14.00, 4.93, 4.91, 0.000, 0.000, 0.000, 15:53:47.310
107, -415.86, 0.46, 14.72, 14.39, 0.000, 0.000, 0.000, 15:53:47.310
108, 181.79, 5.40, 9.43, 13.86, 0.000, 0.000, 0.000, 15:53:47.310
109, -19.56, 13.23, 7.75, 5.16, 0.000, 0.000, 0.000, 15:53:47.330
110, -510.23, 8.08, 12.37, 9.84, 0.000, 0.000, 0.000, 15:53:47.331
111, 46.50, 6.98, 14.21, 13.52, 0.000, 0.000, 0.000, 15:53:47.331
112, 168.57, 10.68, 11.11, 12.18, 0.000, 0.000, 0.000, 15:53:47.331
113, -495.01, 13.57, 6.59, 8.57, 0.000, 0.000, 0.000, 15:53:47.331
114, -206.04, 4.27, 15.46, 17.88, 0.000, 0.000, 0.000, 15:53:47.332
115, 244.35, 7.36, 9.85, 13.99, 0.000, 0.000, 0.000, 15:53:47.352
116, -256.70, 14.29, 3.30, 7.34, 0.000, 0.000, 0.000, 15:53:47.352
117, -361.13, 4.47, 16.11, 15.74, 0.000, 0.000, 0.000, 15:53:47.352
118, 207.85, 8.86, 8.14, 16.81, 0.000, 0.000, 0.000, 15:53:47.353
119, -0.13, 10.69, 4.95, 7.35, 0.000, 0.000, 0.000, 15:53:47.374
120, -521.89, 8.10, 14.44, 7.80, 0.000, 0.000, 0.000, 15:53:47.375
121, 54.64, 0.39, 16.79, 15.39, 0.000, 0.000, 0.000, 15:53:47.375
122, 160.27, 9.70, 9.66, 13.01, 0.000, 0.000, 0.000, 15:53:47.375
123, -467.13, 15.49, 6.50, 6.74, 0.000, 0.000, 0.000, 15:53:47.397
124, -175.44, 2.52, 17.83, 13.64, 0.000, 0.000, 0.000, 15:53:47.398
125, 257.22, 5.83, 8.55, 12.31, 0.000, 0.000, 0.000, 15:53:47.398
126, -270.57, 19.70, 4.14, 5.20, 0.000, 0.000, 0.000, 15:53:47.398
127, -423.51, 1.10, 14.40, 14.15, 0.000, 0.000, 0.000, 15:53:47.399
128, 217.49, 8.47, 10.00, 10.60, 0.000, 0.000, 0.000, 15:53:47.399
129, -14.28, 13.38, 3.05, 6.09, 0.000, 0.000, 0.000, 15:53:47.420
130, -541.47, 5.26, 8.94, 11.01, 0.000, 0.000, 0.000, 15:53:47.420
131, 51.96, 3.12, 16.75, 20.18, 0.000, 0.000, 0.000, 15:53:47.420
132, 185.64, 10.75, 5.44, 9.11, 0.000, 0.000, 0.000, 15:53:47.420
133, -459.26, 8.99, 3.86, 8.50, 0.000, 0.000, 0.000, 15:53:47.442
134, -188.06, -0.25, 19.33, 18.67, 0.000, 0.000, 0.000, 15:53:47.442
135, 259.33, 6.28, 9.00, 10.65, 0.000, 0.000, 0.000, 15:53:47.442
136, -274.33, 12.92, 8.21, 10.55, 0.000, 0.000, 0.000, 15:53:47.442
137, -403.33, 4.88, 19.45, 21.58, 0.000, 0.000, 0.000, 15:53:47.465
138, 214.15, 11.15, 11.93, 14.87, 0.000, 0.000, 0.000, 15:53:47.465
139, 33.89, 9.85, 4.67, 8.64, 0.000, 0.000, 0.000, 15:53:47.465
140, -494.66, 10.85, 15.08, 11.67, 0.000, 0.000, 0.000, 15:53:47.466
141, 41.57, 4.15, 16.95, 16.99, 0.000, 0.000, 0.000, 15:53:47.532
142, 170.41, 10.20, 14.46, 10.26, 0.000, 0.000, 0.000, 15:53:47.532
143, -490.10, 7.52, 6.60, 9.39, 0.000, 0.000, 0.000, 15:53:47.532
144, -207.57, 5.68, 15.68, 14.98, 0.000, 0.000, 0.000, 15:53:47.532
145, 270.36, 5.88, 8.82, 11.14, 0.000, 0.000, 0.000, 15:53:47.533
146, -288.19, 13.60, 4.53, 4.81, 0.000, 0.000, 0.000, 15:53:47.533
147, -400.24, 0.54, 19.98, 12.67, 0.000, 0.000, 0.000, 15:53:47.554
148, 231.33, 10.19, 18.01, 16.18, 0.000, 0.000, 0.000, 15:53:47.555
149, -10.90, 10.82, 6.52, 4.90, 0.000, 0.000, 0.000, 15:53:47.555
150, -518.40, 6.39, 14.71, 10.27, 0.000, 0.000, 0.000, 15:53:47.555
151, 80.55, 2.58, 13.47, 12.35, 0.000, 0.000, 0.000, 15:53:47.556
152, 197.04, 9.26, 7.10, 9.02, 0.000, 0.000, 0.000, 15:53:47.556
153, -444.00, 9.26, 6.73, 9.19, 0.000, 0.000, 0.000, 15:53:47.577
154, -172.01, 5.05, 18.96, 16.29, 0.000, 0.000, 0.000, 15:53:47.577
155, 228.30, 11.88, 11.34, 16.75, 0.000, 0.000, 0.000, 15:53:47.577
156, -252.70, 17.01, 3.38, 5.24, 0.000, 0.000, 0.000, 15:53:47.577
157, -370.37, 5.99, 12.43, 14.97, 0.000, 0.000, 0.000, 15:53:47.578
158, 201.44, 3.21, 10.76, 16.34, 0.000, 0.000, 0.000, 15:53:47.578
159, -39.80, 15.58, 7.48, 6.32, 0.000, 0.000, 0.000, 15:53:47.600
160, -549.03, 7.91, 11.22, 9.74, 0.000, 0.000, 0.000, 15:53:47.600
161, 32.48, 3.33, 16.23, 17.20, 0.000, 0.000, 0.000, 15:53:47.600
162, 186.98, 11.72, 9.75, 8.28, 0.000, 0.000, 0.000, 15:53:47.601
163, -447.96, 9.31, 10.62, 10.94, 0.000, 0.000, 0.000, 15:53:47.601
164, -172.89, 1.23, 19.11, 17.55, 0.000, 0.000, 0.000, 15:53:47.601
165, 266.83, 9.31, 7.71, 14.50, 0.000, 0.000, 0.000, 15:53:47.622
166, -276.62, 15.29, 3.92, 5.97, 0.000, 0.000, 0.000, 15:53:47.623
167, -406.07, 5.92, 15.55, 17.37, 0.000, 0.000, 0.000, 15:53:47.624
168, 184.47, 7.00, 8.56, 14.88, 0.000, 0.000, 0.000, 15:53:47.625
169, -46.30, 12.78, 9.71, 9.43, 0.000, 0.000, 0.000, 15:53:47.625
170, -473.24, 7.64, 10.40, 13.62, 0.000, 0.000, 0.000, 15:53:47.625
171, 83.21, 5.76, 13.58, 16.48, 0.000, 0.000, 0.000, 15:53:47.644
172, 192.00, 14.70, 4.90, 11.02, 0.000, 0.000, 0.000, 15:53:47.645
173, -459.93, 9.25, 8.72, 6.78, 0.000, 0.000, 0.000, 15:53:47.645
174, -184.57, 2.63, 13.84, 16.66, 0.000, 0.000, 0.000, 15:53:47.645
175, 267.43, 6.74, 12.93, 7.32, 0.000, 0.000, 0.000, 15:53:47.646
176, -243.32, 13.69, 7.49, 6.16, 0.000, 0.000, 0.000, 15:53:47.646
177, -403.89, 5.69, 17.89, 14.87, 0.000, 0.000, 0.000, 15:53:47.667
178, 194.48, 5.10, 11.39, 13.05, 0.000, 0.000, 0.000, 15:53:47.667
179, -39.69, 11.88, 5.80, 8.47, 0.000, 0.000, 0.000, 15:53:47.668
180, -506.23, 11.18, 14.09, 9.72, 0.000, 0.000, 0.000, 15:53:47.668
181, 67.80, 3.61, 15.13, 15.05, 0.000, 0.000, 0.000, 15:53:47.689
182, 175.99, 11.87, 5.53, 11.26, 0.000, 0.000, 0.000, 15:53:47.690
183, -468.33, 14.24, 5.91, 3.89, 0.000, 0.000, 0.000, 15:53:47.690
184, -193.82, -1.90, 16.43, 16.69, 0.000, 0.000, 0.000, 15:53:47.690
185, 245.59, 8.89, 13.78, 16.17, 0.000, 0.000, 0.000, 15:53:47.691
186, -280.01, 14.30, 4.68, 8.13, 0.000, 0.000, 0.000, 15:53:47.691
187, -400.46, 1.33, 18.67, 13.54, 0.000, 0.000, 0.000, 15:53:47.712
188, 237.13, 6.56, 12.70, 13.09, 0.000, 0.000, 0.000, 15:53:47.712
189, -10.34, 11.64, 7.27, 11.19, 0.000, 0.000, 0.000, 15:53:47.712
190, -516.31, 9.46, 9.70, 11.32, 0.000, 0.000, 0.000, 15:53:47.713
191, 51.63, 2.65, 14.88, 16.94, 0.000, 0.000, 0.000, 15:53:47.734
192, 183.67, 17.01, 11.23, 10.97, 0.000, 0.000, 0.000, 15:53:47.734
193, -436.39, 4.87, 9.78, 8.50, 0.000, 0.000, 0.000, 15:53:47.735
194, -161.31, 3.39, 15.28, 17.72, 0.000, 0.000, 0.000, 15:53:47.735
195, 264.44, 4.70, 9.47, 12.07, 0.000, 0.000, 0.000, 15:53:47.757
196, -306.35, 15.74, 5.57, 3.76, 0.000, 0.000, 0.000, 15:53:47.757
197, -444.40, 3.72, 17.83, 14.86, 0.000, 0.000, 0.000, 15:53:47.757
198, 251.56, 10.90, 12.43, 13.04, 0.000, 0.000, 0.000, 15:53:47.757
199, -0.53, 13.37, 8.67, 9.76, 0.000, 0.000, 0.000, 15:53:47.758
200, -522.32, 6.18, 11.92, 11.60, 0.000, 0.000, 0.000, 15:53:47.758
0, 66.05, 3.63, 15.51, 17.76, 0.000, 0.000, 0.000, 15:53:47.779
1, 177.53, 7.11, 7.66, 11.74, 0.000, 0.000, 0.000, 15:53:47.780
2, -510.30, 11.20, 8.34, 5.21, 0.000, 0.000, 0.000, 15:53:47.780
3, -171.04, 3.67, 16.87, 15.68, 0.000, 0.000, 0.000, 15:53:47.802
4, 274.52, 6.65, 12.39, 15.26, 0.000, 0.000, 0.000, 15:53:47.802
5, -276.33, 14.81, 5.49, 6.65, 0.000, 0.000, 0.000, 15:53:47.806
6, -378.72, 3.11, 16.88, 17.20, 0.000, 0.000, 0.000, 15:53:47.806
7, 230.78, 7.41, 11.30, 15.99, 0.000, 0.000, 0.000, 15:53:47.806
8, -6.63, 10.40, 5.05, 6.59, 0.000, 0.000, 0.000, 15:53:47.806
9, -527.11, 13.11, 13.95, 12.51, 0.000, 0.000, 0.000, 15:53:47.825
10, 57.62, 0.95, 16.39, 14.61, 0.000, 0.000, 0.000, 15:53:47.825
11, 176.45, 9.77, 8.10, 13.57, 0.000, 0.000, 0.000, 15:53:47.825
12, -459.99, 13.50, 4.32, 6.26, 0.000, 0.000, 0.000, 15:53:47.826
13, -158.17, 7.26, 14.04, 14.14, 0.000, 0.000, 0.000, 15:53:47.847
14, 263.70, 10.66, 8.50, 10.44, 0.000, 0.000, 0.000, 15:53:47.847
15, -286.21, 11.24, 6.02, 4.97, 0.000, 0.000, 0.000, 15:53:47.847
16, -411.33, 7.83, 14.91, 16.35, 0.000, 0.000, 0.000, 15:53:47.848
17, 231.12, 6.81, 10.69, 12.23, 0.000, 0.000, 0.000, 15:53:47.869
18, -32.89, 15.72, 5.59, 11.13, 0.000, 0.000, 0.000, 15:53:47.870
19, -528.07, 4.57, 12.39, 13.20, 0.000, 0.000, 0.000, 15:53:47.870
20, 69.66, -0.22, 16.31, 15.01, 0.000, 0.000, 0.000, 15:53:47.870
21, 159.60, 9.43, 8.98, 7.87, 0.000, 0.000, 0.000, 15:53:47.892
22, -460.32, 10.09, 7.21, 7.90, 0.000, 0.000, 0.000, 15:53:47.892
23, -158.43, -0.31, 16.92, 14.92, 0.000, 0.000, 0.000, 15:53:47.892
24, 280.97, 9.25, 13.95, 10.55, 0.000, 0.000, 0.000, 15:53:47.892
25, -277.14, 14.81, 7.36, 9.07, 0.000, 0.000, 0.000, 15:53:47.893
26, -405.57, 4.56, 17.40, 15.04, 0.000, 0.000, 0.000, 15:53:47.893
27, 210.67, 10.02, 13.30, 11.63, 0.000, 0.000, 0.000, 15:53:47.914
28, -6.37, 13.34, 5.81, 5.56, 0.000, 0.000, 0.000, 15:53:47.915
29, -505.37, 6.52, 8.97, 9.82, 0.000, 0.000, 0.000, 15:53:47.915
30, 69.41, 6.95, 13.96, 13.61, 0.000, 0.000, 0.000, 15:53:47.915
31, 186.92, 12.18, 8.47, 12.41, 0.000, 0.000, 0.000, 15:53:47.937
32, -470.89, 8.24, 4.06, 8.11, 0.000, 0.000, 0.000, 15:53:47.937
33, -178.20, 6.31, 16.59, 14.99, 0.000, 0.000, 0.000, 15:53:47.937
34, 259.28, 7.28, 14.45, 11.38, 0.000, 0.000, 0.000, 15:53:47.938
35, -276.40, 16.55, 2.80, 7.31, 0.000, 0.000, 0.000, 15:53:47.959
36, -417.22, 7.36, 14.31, 13.79, 0.000, 0.000, 0.000, 15:53:47.959
37, 223.58, 2.45, 13.67, 14.66, 0.000, 0.000, 0.000, 15:53:47.960
38, -9.22, 10.68, 6.43, 7.26, 0.000, 0.000, 0.000, 15:53:47.960
39, -512.78, 8.83, 9.99, 14.39, 0.000, 0.000, 0.000, 15:53:47.982
40, 66.76, 2.05, 13.61, 13.51, 0.000, 0.000, 0.000, 15:53:47.982
41, 174.69, 9.82, 10.64, 12.93, 0.000, 0.000, 0.000, 15:53:47.982
42, -472.33, 13.71, 6.53, 12.19, 0.000, 0.000, 0.000, 15:53:47.983
43, -182.17, 3.03, 17.28, 17.40, 0.000, 0.000, 0.000, 15:53:47.983
44, 273.70, 7.60, 10.38, 13.73, 0.000, 0.000, 0.000, 15:53:47.983
45, -257.28, 19.86, 7.12, 7.32, 0.000, 0.000, 0.000, 15:53:48.004
46, -397.83, 3.05, 17.83, 15.50, 0.000, 0.000, 0.000, 15:53:48.004
47, 227.44, 8.00, 9.94, 10.76, 0.000, 0.000, 0.000, 15:53:48.005
48, -32.88, 13.73, 5.31, 7.95, 0.000, 0.000, 0.000, 15:53:48.005
49, -517.84, 13.05, 10.07, 12.94, 0.000, 0.000, 0.000, 15:53:48.027
50, 49.12, 0.56, 13.23, 16.10, 0.000, 0.000, 0.000, 15:53:48.027
51, 147.28, 14.56, 10.37, 12.29, 0.000, 0.000, 0.000, 15:53:48.027
52, -489.96, 12.80, 7.58, 10.22, 0.000, 0.000, 0.000, 15:53:48.028
53, -159.04, 3.26, 16.48, 20.43, 0.000, 0.000, 0.000, 15:53:48.049
54, 289.00, 12.66, 13.23, 8.32, 0.000, 0.000, 0.000, 15:53:48.050
55, -275.16, 9.11, 6.86, 7.74, 0.000, 0.000, 0.000, 15:53:48.050
56, -425.88, 0.03, 16.15, 15.35, 0.000, 0.000, 0.000, 15:53:48.050
57, 228.62, 4.74, 12.69, 15.37, 0.000, 0.000, 0.000, 15:53:48.072
58, -23.11, 12.41, 6.13, 10.49, 0.000, 0.000, 0.000, 15:53:48.072
59, -535.44, 6.72, 11.45, 12.92, 0.000, 0.000, 0.000, 15:53:48.072
60, 68.13, 1.94, 13.43, 14.09, 0.000, 0.000, 0.000, 15:53:48.073
61, 197.49, 8.35, 6.02, 9.71, 0.000, 0.000, 0.000, 15:53:48.073
62, -464.64, 9.76, 5.83, 5.79, 0.000, 0.000, 0.000, 15:53:48.073
63, -181.54, 6.21, 14.92, 13.67, 0.000, 0.000, 0.000, 15:53:48.139
64, 270.69, 6.99, 11.70, 10.24, 0.000, 0.000, 0.000, 15:53:48.139
65, -266.45, 14.23, 5.96, 8.20, 0.000, 0.000, 0.000, 15:53:48.140
66, -390.66, 3.56, 14.08, 9.60, 0.000, 0.000, 0.000, 15:53:48.140
67, 255.36, 6.02, 10.25, 12.92, 0.000, 0.000, 0.000, 15:53:48.141
68, 38.02, 14.35, 10.25, 12.02, 0.000, 0.000, 0.000, 15:53:48.141
69, -480.42, 6.10, 12.38, 14.05, 0.000, 0.000, 0.000, 15:53:48.162
70, 73.29, -0.42, 16.05, 15.28, 0.000, 0.000, 0.000, 15:53:48.162
71, 151.43, 8.13, 12.15, 13.92, 0.000, 0.000, 0.000, 15:53:48.163
72, -502.69, 10.37, 6.54, 9.15, 0.000, 0.000, 0.000, 15:53:48.163
73, -230.38, 1.66, 17.68, 15.12, 0.000, 0.000, 0.000, 15:53:48.163
74, 227.80, 10.04, 9.30, 13.10, 0.000, 0.000, 0.000, 15:53:48.164
75, -278.54, 12.73, 3.82, 1.45, 0.000, 0.000, 0.000, 15:53:48.184
76, -398.65, 5.20, 17.07, 12.16, 0.000, 0.000, 0.000, 15:53:48.185
77, 224.38, 8.20, 11.69, 13.74, 0.000, 0.000, 0.000, 15:53:48.186
78, -41.80, 12.43, 3.96, 8.49, 0.000, 0.000, 0.000, 15:53:48.186
79, -554.49, 10.86, 12.74, 13.67, 0.000, 0.000, 0.000, 15:53:48.186
80, 64.32, 3.54, 15.75, 13.25, 0.000, 0.000, 0.000, 15:53:48.187
81, 186.48, 8.65, 10.69, 14.11, 0.000, 0.000, 0.000, 15:53:48.207
82, -471.01, 13.69, 7.53, 13.79, 0.000, 0.000, 0.000, 15:53:48.207
83, -163.36, 1.35, 16.08, 17.92, 0.000, 0.000, 0.000, 15:53:48.207
84, 265.66, 5.25, 11.16, 10.74, 0.000, 0.000, 0.000, 15:53:48.208
85, -268.39, 14.93, 2.13, 8.72, 0.000, 0.000, 0.000, 15:53:48.208
86, -393.06, 0.02, 15.33, 18.12, 0.000, 0.000, 0.000, 15:53:48.208
87, 250.45, 7.71, 11.89, 10.46, 0.000, 0.000, 0.000, 15:53:48.230
88, -2.92, 13.04, 6.93, 8.55, 0.000, 0.000, 0.000, 15:53:48.230
89, -534.48, 8.99, 11.47, 8.34, 0.000, 0.000, 0.000, 15:53:48.231
90, 68.67, 3.92, 16.44, 16.20, 0.000, 0.000, 0.000, 15:53:48.231
91, 186.77, 11.61, 8.20, 11.07, 0.000, 0.000, 0.000, 15:53:48.231
92, -456.79, 12.16, 4.25, 8.29, 0.000, 0.000, 0.000, 15:53:48.231
93, -178.14, 3.88, 14.24, 17.10, 0.000, 0.000, 0.000, 15:53:48.252
94, 262.03, 11.11, 15.23, 11.13, 0.000, 0.000, 0.000, 15:53:48.252
95, -285.79, 14.47, 2.38, 8.16, 0.000, 0.000, 0.000, 15:53:48.252
96, -385.35, 2.61, 16.84, 15.13, 0.000, 0.000, 0.000, 15:53:48.252
97, 232.05, 3.68, 10.34, 14.34, 0.000, 0.000, 0.000, 15:53:48.253
98, -4.04, 10.81, 9.21, 8.12, 0.000, 0.000, 0.000, 15:53:48.253
99, -500.61, 9.36, 11.07, 11.22, 0.000, 0.000, 0.000, 15:53:48.274
100, 91.78, -0.07, 17.36, 12.64, 0.000, 0.000, 0.000, 15:53:48.274
101, 181.06, 12.61, 10.42, 5.36, 0.000, 0.000, 0.000, 15:53:48.297
102, -502.89, 12.78, 9.28, 6.59, 0.000, 0.000, 0.000, 15:53:48.297
103, -190.94, 3.42, 15.64, 17.71, 0.000, 0.000, 0.000, 15:53:48.298
104, 285.68, 10.96, 7.95, 12.34, 0.000, 0.000, 0.000, 15:53:48.298
105, -270.73, 14.19, 6.94, 0.69, 0.000, 0.000, 0.000, 15:53:48.298
106, -367.26, 4.18, 18.59, 18.46, 0.000, 0.000, 0.000, 15:53:48.298
107, 235.80, 8.15, 12.62, 17.11, 0.000, 0.000, 0.000, 15:53:48.319
108, -44.60, 13.85, 6.03, 8.93, 0.000, 0.000, 0.000, 15:53:48.320
109, -486.43, 2.73, 12.48, 17.51, 0.000, 0.000, 0.000, 15:53:48.320
110, 80.64, 7.10, 16.95, 16.14, 0.000, 0.000, 0.000, 15:53:48.320
111, 177.25, 7.71, 13.32, 9.02, 0.000, 0.000, 0.000, 15:53:48.364
112, -494.77, 9.98, 5.36, 11.04, 0.000, 0.000, 0.000, 15:53:48.365
113, -183.55, 2.75, 13.11, 16.13, 0.000, 0.000, 0.000, 15:53:48.365
114, 283.73, 12.50, 12.75, 9.62, 0.000, 0.000, 0.000, 15:53:48.365
115, -253.43, 17.47, 6.27, 10.01, 0.000, 0.000, 0.000, 15:53:48.366
116, -376.07, 3.20, 16.62, 15.04, 0.000, 0.000, 0.000, 15:53:48.366
117, 222.39, 2.09, 10.95, 10.56, 0.000, 0.000, 0.000, 15:53:48.387
118, -1.10, 14.68, 4.59, 10.81, 0.000, 0.000, 0.000, 15:53:48.387
119, -500.98, 4.03, 10.57, 13.39, 0.000, 0.000, 0.000, 15:53:48.388
120, 78.81, 4.58, 13.82, 9.69, 0.000, 0.000, 0.000, 15:53:48.388
121, 168.49, 12.09, 9.26, 10.96, 0.000, 0.000, 0.000, 15:53:48.388
122, -477.61, 9.25, 8.66, 8.58, 0.000, 0.000, 0.000, 15:53:48.389
123, -162.10, 2.84, 18.65, 20.62, 0.000, 0.000, 0.000, 15:53:48.409
124, 283.14, 6.60, 11.59, 13.70, 0.000, 0.000, 0.000, 15:53:48.409
125, -270.68, 13.41, 1.97, 10.52, 0.000, 0.000, 0.000, 15:53:48.410
126, -390.95, 4.77, 13.40, 17.88, 0.000, 0.000, 0.000, 15:53:48.410
127, 231.32, 11.51, 9.93, 14.14, 0.000, 0.000, 0.000, 15:53:48.411
128, -40.88, 14.80, 6.45, 5.60, 0.000, 0.000, 0.000, 15:53:48.411
129, -540.25, 7.75, 17.30, 12.42, 0.000, 0.000, 0.000, 15:53:48.432
130, 64.46, 1.51, 10.71, 18.06, 0.000, 0.000, 0.000, 15:53:48.432
131, 179.57, 9.41, 8.69, 4.63, 0.000, 0.000, 0.000, 15:53:48.432
132, -476.29, 11.62, 8.16, 9.39, 0.000, 0.000, 0.000, 15:53:48.433
133, -179.60, 0.80, 17.44, 19.99, 0.000, 0.000, 0.000, 15:53:48.433
134, 242.85, 11.06, 10.28, 9.11, 0.000, 0.000, 0.000, 15:53:48.433
135, -312.46, 16.64, 5.90, 4.57, 0.000, 0.000, 0.000, 15:53:48.454
136, -431.30, 3.05, 18.78, 15.87, 0.000, 0.000, 0.000, 15:53:48.454
137, 222.44, 8.65, 13.73, 11.69, 0.000, 0.000, 0.000, 15:53:48.455
138, -0.20, 13.43, 4.73, 8.94, 0.000, 0.000, 0.000, 15:53:48.455
139, -519.44, 6.12, 12.46, 14.66, 0.000, 0.000, 0.000, 15:53:48.477
140, 54.95, 3.34, 17.39, 18.65, 0.000, 0.000, 0.000, 15:53:48.477
141, 165.46, 10.37, 7.03, 11.06, 0.000, 0.000, 0.000, 15:53:48.477
142, -472.43, 12.57, 8.71, 6.45, 0.000, 0.000, 0.000, 15:53:48.478
143, -156.40, 2.42, 18.24, 14.90, 0.000, 0.000, 0.000, 15:53:48.499
144, 253.47, 11.94, 14.44, 9.89, 0.000, 0.000, 0.000, 15:53:48.499
145, -286.95, 11.52, 2.57, 6.84, 0.000, 0.000, 0.000, 15:53:48.500
146, -410.62, 4.09, 15.30, 12.90, 0.000, 0.000, 0.000, 15:53:48.500
147, 197.15, 3.30, 7.62, 12.06, 0.000, 0.000, 0.000, 15:53:48.522
148, -29.39, 11.84, 10.11, 10.66, 0.000, 0.000, 0.000, 15:53:48.522
149, -505.16, 6.19, 12.53, 16.22, 0.000, 0.000, 0.000, 15:53:48.523
150, 79.09, 6.56, 10.59, 13.24, 0.000, 0.000, 0.000, 15:53:48.523
151, 173.24, 7.04, 7.24, 9.09, 0.000, 0.000, 0.000, 15:53:48.523
152, -477.17, 13.88, 7.63, 8.73, 0.000, 0.000, 0.000, 15:53:48.523
153, -177.62, 3.58, 11.78, 13.71, 0.000, 0.000, 0.000, 15:53:48.544
154, 257.51, 3.80, 8.16, 10.59, 0.000, 0.000, 0.000, 15:53:48.545
155, -287.38, 13.20, 3.61, 9.07, 0.000, 0.000, 0.000, 15:53:48.545
156, -393.78, 7.69, 12.47, 16.95, 0.000, 0.000, 0.000, 15:53:48.546
157, 208.92, 6.06, 14.57, 15.20, 0.000, 0.000, 0.000, 15:53:48.567
158, -27.51, 11.40, 7.46, 9.50, 0.000, 0.000, 0.000, 15:53:48.567
159, -506.20, 9.80, 13.39, 14.86, 0.000, 0.000, 0.000, 15:53:48.568
160, 75.51, 1.90, 14.48, 14.42, 0.000, 0.000, 0.000, 15:53:48.568
161, 174.76, 10.26, 10.41, 9.92, 0.000, 0.000, 0.000, 15:53:48.589
162, -478.35, 16.98, 10.42, 10.18, 0.000, 0.000, 0.000, 15:53:48.590
163, -168.50, -0.91, 16.74, 17.18, 0.000, 0.000, 0.000, 15:53:48.590
164, 268.33, 7.40, 8.48, 8.64, 0.000, 0.000, 0.000, 15:53:48.590
165, -290.45, 17.38, 7.26, 10.39, 0.000, 0.000, 0.000, 15:53:48.612
166, -381.95, 4.39, 19.72, 12.95, 0.000, 0.000, 0.000, 15:53:48.612
167, 223.22, 9.82, 15.07, 13.67, 0.000, 0.000, 0.000, 15:53:48.612
168, -25.82, 10.80, 5.61, 9.32, 0.000, 0.000, 0.000, 15:53:48.613
169, -527.67, 5.42, 9.17, 17.61, 0.000, 0.000, 0.000, 15:53:48.613
170, 80.38, 6.76, 14.54, 11.20, 0.000, 0.000, 0.000, 15:53:48.614
171, 170.42, 13.43, 7.02, 7.49, 0.000, 0.000, 0.000, 15:53:48.634
172, -476.71, 11.56, 7.28, 10.22, 0.000, 0.000, 0.000, 15:53:48.635
173, -168.38, 4.54, 15.63, 22.20, 0.000, 0.000, 0.000, 15:53:48.635
174, 250.96, 5.83, 11.05, 12.94, 0.000, 0.000, 0.000, 15:53:48.635
175, -299.30, 12.73, 5.94, 6.60, 0.000, 0.000, 0.000, 15:53:48.657
176, -370.75, 3.83, 15.65, 13.73, 0.000, 0.000, 0.000, 15:53:48.657
177, 240.92, 7.68, 13.91, 10.88, 0.000, 0.000, 0.000, 15:53:48.658
178, -12.08, 11.25, 8.30, 7.34, 0.000, 0.000, 0.000, 15:53:48.658
179, -523.08, 7.75, 12.21, 13.90, 0.000, 0.000, 0.000, 15:53:48.679
180, 63.59, 9.91, 14.05, 12.62, 0.000, 0.000, 0.000, 15:53:48.680
181, 149.72, 9.70, 9.59, 13.86, 0.000, 0.000, 0.000, 15:53:48.680
182, -483.83, 11.59, 6.90, 7.63, 0.000, 0.000, 0.000, 15:53:48.680
183, -155.13, 1.23, 17.61, 18.62, 0.000, 0.000, 0.000, 15:53:48.702
184, 276.24, 4.72, 9.83, 9.97, 0.000, 0.000, 0.000, 15:53:48.702
185, -278.16, 13.21, 4.56, 4.71, 0.000, 0.000, 0.000, 15:53:48.702
186, -403.45, 6.15, 15.05, 18.32, 0.000, 0.000, 0.000, 15:53:48.703
187, 238.19, 4.97, 11.42, 15.74, 0.000, 0.000, 0.000, 15:53:48.725
188, -11.77, 13.35, 5.16, 5.80, 0.000, 0.000, 0.000, 15:53:48.725
189, -530.25, 12.38, 11.23, 9.84, 0.000, 0.000, 0.000, 15:53:48.726
190, 71.18, 3.28, 15.59, 14.13, 0.000, 0.000, 0.000, 15:53:48.726
191, 159.89, 13.28, 10.88, 11.47, 0.000, 0.000, 0.000, 15:53:48.726
192, -474.12, 10.48, 7.42, 4.32, 0.000, 0.000, 0.000, 15:53:48.727
193, -165.55, -1.49, 15.25, 15.74, 0.000, 0.000, 0.000, 15:53:48.747
194, 236.70, 8.07, 8.05, 11.33, 0.000, 0.000, 0.000, 15:53:48.747
195, -300.22, 12.27, 6.29, 8.45, 0.000, 0.000, 0.000, 15:53:48.748
196, -362.57, 3.72, 17.04, 16.11, 0.000, 0.000, 0.000, 15:53:48.748
197, 233.96, 8.13, 10.27, 12.00, 0.000, 0.000, 0.000, 15:53:48.769
198, -22.49, 19.62, 6.19, 4.18, 0.000, 0.000, 0.000, 15:53:48.770
199, -551.17, 3.29, 15.06, 14.31, 0.000, 0.000, 0.000, 15:53:48.770
200, 80.99, 2.44, 15.47, 15.17, 0.000, 0.000, 0.000, 15:53:48.770
0, 202.89, 6.92, 7.82, 10.71, 0.000, 0.000, 0.000, 15:53:48.771
1, -461.91, 10.01, 10.47, 9.99, 0.000, 0.000, 0.000, 15:53:48.792
2, -171.33, 7.10, 17.33, 17.67, 0.000, 0.000, 0.000, 15:53:48.792
3, 254.21, 8.64, 11.65, 10.38, 0.000, 0.000, 0.000, 15:53:48.792
4, -293.97, 10.67, 7.44, 6.10, 0.000, 0.000, 0.000, 15:53:48.792
5, -393.65, 7.22, 18.24, 15.62, 0.000, 0.000, 0.000, 15:53:48.814
6, 232.12, 10.25, 12.25, 17.61, 0.000, 0.000, 0.000, 15:53:48.814
7, -19.70, 9.61, 7.09, 9.85, 0.000, 0.000, 0.000, 15:53:48.815
8, -495.19, 10.76, 13.17, 10.80, 0.000, 0.000, 0.000, 15:53:48.815
9, 79.44, 2.70, 13.27, 11.40, 0.000, 0.000, 0.000, 15:53:48.837
10, 138.29, 12.87, 7.61, 9.21, 0.000, 0.000, 0.000, 15:53:48.837
11, -501.83, 9.08, 6.81, 9.65, 0.000, 0.000, 0.000, 15:53:48.837
12, -148.66, 6.58, 15.20, 16.86, 0.000, 0.000, 0.000, 15:53:48.838
13, 279.85, 7.23, 8.06, 9.69, 0.000, 0.000, 0.000, 15:53:48.838
14, -279.20, 12.61, 2.76, 9.73, 0.000, 0.000, 0.000, 15:53:48.839
15, -388.47, 7.39, 14.56, 11.38, 0.000, 0.000, 0.000, 15:53:48.859
16, 211.91, 4.41, 11.85, 12.83, 0.000, 0.000, 0.000, 15:53:48.859
17, -62.78, 10.64, 6.18, 4.59, 0.000, 0.000, 0.000, 15:53:48.860
18, -524.15, 5.21, 14.25, 12.66, 0.000, 0.000, 0.000, 15:53:48.860
19, 93.06, 4.65, 19.48, 17.07, 0.000, 0.000, 0.000, 15:53:48.882
20, 181.37, 7.72, 8.39, 8.02, 0.000, 0.000, 0.000, 15:53:48.882
21, -468.33, 9.69, 9.65, 8.79, 0.000, 0.000, 0.000, 15:53:48.882
22, -148.34, 4.21, 15.96, 15.54, 0.000, 0.000, 0.000, 15:53:48.882
23, 232.80, 15.88, 8.52, 13.54, 0.000, 0.000, 0.000, 15:53:48.904
24, -318.82, 18.73, 1.91, 4.07, 0.000, 0.000, 0.000, 15:53:48.905
25, -362.67, 1.87, 17.49, 19.60, 0.000, 0.000, 0.000, 15:53:48.905
26, 241.63, 5.67, 12.92, 15.33, 0.000, 0.000, 0.000, 15:53:48.905
27, -44.30, 11.20, 6.15, 7.43, 0.000, 0.000, 0.000, 15:53:48.949
28, -550.30, 5.48, 13.30, 14.31, 0.000, 0.000, 0.000, 15:53:48.950
29, 90.44, 2.51, 14.62, 14.80, 0.000, 0.000, 0.000, 15:53:48.950
30, 194.08, 15.15, 3.02, 10.11, 0.000, 0.000, 0.000, 15:53:48.950
31, -474.37, 11.18, 9.81, 9.32, 0.000, 0.000, 0.000, 15:53:48.951
32, -156.55, 3.69, 17.34, 18.02, 0.000, 0.000, 0.000, 15:53:48.951
33, 274.20, 10.03, 8.92, 15.59, 0.000, 0.000, 0.000, 15:53:48.972
34, -283.85, 16.11, 7.14, 6.44, 0.000, 0.000, 0.000, 15:53:48.972
35, -397.26, 5.13, 13.83, 16.65, 0.000, 0.000, 0.000, 15:53:48.973
36, 223.02, 6.04, 12.08, 12.85, 0.000, 0.000, 0.000, 15:53:48.973
37, -23.32, 16.20, 5.70, 2.16, 0.000, 0.000, 0.000, 15:53:48.974
38, -519.06, 2.98, 9.71, 13.14, 0.000, 0.000, 0.000, 15:53:48.974
39, 80.67, 6.21, 15.13, 11.79, 0.000, 0.000, 0.000, 15:53:48.995
40, 150.19, 10.31, 11.24, 14.51, 0.000, 0.000, 0.000, 15:53:48.995
41, -471.56, 10.66, 5.41, 9.32, 0.000, 0.000, 0.000, 15:53:49.017
42, -134.47, 0.09, 17.12, 18.20, 0.000, 0.000, 0.000, 15:53:49.017
43, 270.20, 7.49, 13.34, 11.06, 0.000, 0.000, 0.000, 15:53:49.017
44, -322.76, 14.71, 5.04, 4.19, 0.000, 0.000, 0.000, 15:53:49.018
45, -377.05, 2.94, 17.46, 17.04, 0.000, 0.000, 0.000, 15:53:49.039
46, 244.62, 7.78, 12.02, 12.66, 0.000, 0.000, 0.000, 15:53:49.040
47, -31.13, 10.96, 7.25, 14.13, 0.000, 0.000, 0.000, 15:53:49.040
48, -500.90, 7.61, 13.44, 12.77, 0.000, 0.000, 0.000, 15:53:49.040
49, 82.47, 1.99, 16.38, 13.33, 0.000, 0.000, 0.000, 15:53:49.041
50, 169.21, 9.21, 9.93, 9.42, 0.000, 0.000, 0.000, 15:53:49.041
51, -472.29, 19.69, 6.85, 14.00, 0.000, 0.000, 0.000, 15:53:49.062
52, -169.31, -0.46, 17.77, 14.08, 0.000, 0.000, 0.000, 15:53:49.062
53, 242.37, 3.89, 10.71, 14.22, 0.000, 0.000, 0.000, 15:53:49.062
54, -303.85, 13.48, 4.61, 7.01, 0.000, 0.000, 0.000, 15:53:49.063
55, -376.14, 3.89, 18.03, 16.10, 0.000, 0.000, 0.000, 15:53:49.063
56, 247.32, 10.83, 7.20, 10.00, 0.000, 0.000, 0.000, 15:53:49.063
57, -48.05, 15.37, 5.40, 7.81, 0.000, 0.000, 0.000, 15:53:49.084
58, -532.79, 7.97, 11.91, 15.16, 0.000, 0.000, 0.000, 15:53:49.085
59, 65.18, 3.62, 13.93, 14.50, 0.000, 0.000, 0.000, 15:53:49.085
60, 144.08, 7.17, 10.97, 9.67, 0.000, 0.000, 0.000, 15:53:49.085
61, -455.00, 9.35, 4.66, 10.40, 0.000, 0.000, 0.000, 15:53:49.086
62, -151.33, 3.06, 14.65, 15.34, 0.000, 0.000, 0.000, 15:53:49.086
63, 268.70, 6.78, 15.00, 9.89, 0.000, 0.000, 0.000, 15:53:49.107
64, -288.89, 18.09, 5.61, 3.51, 0.000, 0.000, 0.000, 15:53:49.107
65, -380.64, 3.92, 17.42, 13.44, 0.000, 0.000, 0.000, 15:53:49.107
66, 219.87, 7.15, 12.37, 14.71, 0.000, 0.000, 0.000, 15:53:49.107
67, -60.18, 10.11, 5.69, 6.58, 0.000, 0.000, 0.000, 15:53:49.108
68, -504.26, 6.64, 13.42, 11.35, 0.000, 0.000, 0.000, 15:53:49.108
69, 94.08, 7.45, 12.39, 15.89, 0.000, 0.000, 0.000, 15:53:49.129
70, 167.43, 4.12, 6.37, 12.07, 0.000, 0.000, 0.000, 15:53:49.130
71, -469.21, 12.87, 9.25, 8.91, 0.000, 0.000, 0.000, 15:53:49.130
72, -107.23, 3.48, 14.15, 21.70, 0.000, 0.000, 0.000, 15:53:49.130
73, 303.07, 11.66, 11.36, 10.98, 0.000, 0.000, 0.000, 15:53:49.174
74, -258.18, 15.66, 5.41, 8.37, 0.000, 0.000, 0.000, 15:53:49.175
75, -362.13, 4.74, 15.78, 16.75, 0.000, 0.000, 0.000, 15:53:49.197
76, 224.13, 8.38, 13.31, 12.54, 0.000, 0.000, 0.000, 15:53:49.197
77, -60.81, 12.12, 8.36, 6.81, 0.000, 0.000, 0.000, 15:53:49.197
78, -530.00, 4.81, 13.31, 12.72, 0.000, 0.000, 0.000, 15:53:49.197
79, 49.14, 2.91, 15.67, 16.08, 0.000, 0.000, 0.000, 15:53:49.198
80, 152.20, 6.21, 10.69, 14.13, 0.000, 0.000, 0.000, 15:53:49.198
81, -510.66, 9.14, 8.58, 8.27, 0.000, 0.000, 0.000, 15:53:49.220
82, -180.90, 3.78, 15.71, 18.39, 0.000, 0.000, 0.000, 15:53:49.220
83, 260.35, 6.27, 11.71, 14.94, 0.000, 0.000, 0.000, 15:53:49.221
84, -312.62, 14.08, -1.42, 5.79, 0.000, 0.000, 0.000, 15:53:49.221
85, -385.10, 0.69, 18.05, 15.58, 0.000, 0.000, 0.000, 15:53:49.221
86, 228.12, 9.59, 10.72, 13.05, 0.000, 0.000, 0.000, 15:53:49.221
87, -30.72, 14.93, 6.72, 9.40, 0.000, 0.000, 0.000, 15:53:49.242
88, -508.60, 8.99, 11.65, 13.53, 0.000, 0.000, 0.000, 15:53:49.242
89, 86.04, 3.27, 11.19, 12.61, 0.000, 0.000, 0.000, 15:53:49.242
90, 148.38, 12.00, 9.01, 7.11, 0.000, 0.000, 0.000, 15:53:49.243
91, -463.41, 11.55, 7.25, 5.71, 0.000, 0.000, 0.000, 15:53:49.243
92, -134.37, -1.49, 18.52, 15.69, 0.000, 0.000, 0.000, 15:53:49.243
93, 276.10, 11.68, 13.79, 12.16, 0.000, 0.000, 0.000, 15:53:49.264
94, -301.88, 11.79, 4.08, 9.59, 0.000, 0.000, 0.000, 15:53:49.264
95, -374.32, 2.45, 17.18, 16.07, 0.000, 0.000, 0.000, 15:53:49.265
96, 242.30, 7.29, 11.98, 11.86, 0.000, 0.000, 0.000, 15:53:49.265
97, -35.76, 16.12, 8.61, 6.74, 0.000, 0.000, 0.000, 15:53:49.266
98, -514.40, 6.62, 10.77, 10.93, 0.000, 0.000, 0.000, 15:53:49.266
99, 91.34, 3.62, 13.53, 17.51, 0.000, 0.000, 0.000, 15:53:49.287
100, 166.04, 9.82, 6.10, 6.28, 0.000, 0.000, 0.000, 15:53:49.287
101, -480.85, 14.72, 6.81, 9.30, 0.000, 0.000, 0.000, 15:53:49.287
102, -145.31, 3.22, 15.17, 18.71, 0.000, 0.000, 0.000, 15:53:49.287
103, 260.18, 10.12, 8.75, 6.76, 0.000, 0.000, 0.000, 15:53:49.288
104, -295.14, 17.67, 0.87, 9.48, 0.000, 0.000, 0.000, 15:53:49.288
105, -364.46, 3.73, 13.62, 18.95, 0.000, 0.000, 0.000, 15:53:49.310
106, 238.48, 2.90, 16.20, 16.44, 0.000, 0.000, 0.000, 15:53:49.310
107, -34.15, 13.19, 5.85, 6.56, 0.000, 0.000, 0.000, 15:53:49.310
108, -511.76, 5.40, 14.47, 17.56, 0.000, 0.000, 0.000, 15:53:49.311
109, 95.14, 2.02, 19.08, 17.52, 0.000, 0.000, 0.000, 15:53:49.354
110, 169.19, 7.50, 9.17, 9.22, 0.000, 0.000, 0.000, 15:53:49.355
111, -475.43, 10.93, 11.69, 11.84, 0.000, 0.000, 0.000, 15:53:49.355
112, -147.69, 0.49, 14.93, 11.95, 0.000, 0.000, 0.000, 15:53:49.355
113, 269.67, 8.77, 12.44, 8.78, 0.000, 0.000, 0.000, 15:53:49.356
114, -305.67, 11.89, 3.32, 1.99, 0.000, 0.000, 0.000, 15:53:49.356
115, -369.81, 7.15, 18.74, 20.69, 0.000, 0.000, 0.000, 15:53:49.377
116, 263.19, 7.75, 12.30, 13.39, 0.000, 0.000, 0.000, 15:53:49.377
117, -25.03, 15.62, 3.86, 8.07, 0.000, 0.000, 0.000, 15:53:49.378
118, -506.06, 7.45, 11.17, 11.14, 0.000, 0.000, 0.000, 15:53:49.378
119, 99.49, 7.19, 11.29, 12.74, 0.000, 0.000, 0.000, 15:53:49.378
120, 167.60, 9.76, 6.26, 10.52, 0.000, 0.000, 0.000, 15:53:49.378
121, -481.36, 10.96, 6.63, 8.59, 0.000, 0.000, 0.000, 15:53:49.399
122, -147.47, 2.90, 16.64, 20.41, 0.000, 0.000, 0.000, 15:53:49.400
123, 275.75, 8.12, 11.43, 14.24, 0.000, 0.000, 0.000, 15:53:49.400
124, -285.63, 8.96, 10.35, 13.32, 0.000, 0.000, 0.000, 15:53:49.400
125, -360.29, 6.89, 15.26, 11.58, 0.000, 0.000, 0.000, 15:53:49.401
126, 242.96, 9.49, 13.85, 12.16, 0.000, 0.000, 0.000, 15:53:49.401
127, -39.95, 12.13, 7.75, 8.00, 0.000, 0.000, 0.000, 15:53:49.422
128, -502.27, 4.58, 14.39, 10.97, 0.000, 0.000, 0.000, 15:53:49.422
129, 104.80, 5.72, 12.49, 11.12, 0.000, 0.000, 0.000, 15:53:49.422
130, 163.57, 7.51, 3.19, 10.51, 0.000, 0.000, 0.000, 15:53:49.422
131, -478.55, 11.92, 8.52, 8.76, 0.000, 0.000, 0.000, 15:53:49.445
132, -141.99, 12.48, 14.28, 11.83, 0.000, 0.000, 0.000, 15:53:49.445
133, 247.88, 5.57, 11.27, 17.30, 0.000, 0.000, 0.000, 15:53:49.445
134, -312.28, 15.17, 5.31, 8.13, 0.000, 0.000, 0.000, 15:53:49.445
135, -380.39, 3.57, 16.38, 9.49, 0.000, 0.000, 0.000, 15:53:49.467
136, 221.77, 7.14, 15.03, 11.99, 0.000, 0.000, 0.000, 15:53:49.467
137, -61.48, 14.71, 5.43, 10.36, 0.000, 0.000, 0.000, 15:53:49.467
138, -519.96, 4.92, 14.51, 13.62, 0.000, 0.000, 0.000, 15:53:49.468
139, 85.27, 10.05, 12.13, 14.35, 0.000, 0.000, 0.000, 15:53:49.469
140, 147.57, 15.34, 10.59, 10.70, 0.000, 0.000, 0.000, 15:53:49.469
141, -497.69, 14.09, 11.16, 8.42, 0.000, 0.000, 0.000, 15:53:49.489
142, -154.07, -0.23, 11.41, 18.00, 0.000, 0.000, 0.000, 15:53:49.489
143, 253.72, 8.73, 12.98, 14.06, 0.000, 0.000, 0.000, 15:53:49.490
144, -321.36, 12.01, 5.21, 5.76, 0.000, 0.000, 0.000, 15:53:49.490
145, -380.29, 3.44, 16.13, 17.93, 0.000, 0.000, 0.000, 15:53:49.512
146, 223.04, 6.40, 10.13, 13.19, 0.000, 0.000, 0.000, 15:53:49.512
147, -53.57, 15.89, 8.66, 7.98, 0.000, 0.000, 0.000, 15:53:49.512
148, -521.18, 6.92, 14.59, 12.76, 0.000, 0.000, 0.000, 15:53:49.513
149, 92.23, 2.68, 14.40, 16.34, 0.000, 0.000, 0.000, 15:53:49.534
150, 157.25, 17.41, 9.45, 10.23, 0.000, 0.000, 0.000, 15:53:49.534
151, -492.60, 7.54, 10.59, 11.94, 0.000, 0.000, 0.000, 15:53:49.535
152, -147.29, 1.53, 14.02, 16.12, 0.000, 0.000, 0.000, 15:53:49.535
153, 257.61, 8.19, 9.00, 12.27, 0.000, 0.000, 0.000, 15:53:49.557
154, -315.06, 13.92, 2.06, 5.79, 0.000, 0.000, 0.000, 15:53:49.557
155, -377.69, 3.42, 18.82, 15.77, 0.000, 0.000, 0.000, 15:53:49.558
156, 231.26, 7.47, 12.08, 11.80, 0.000, 0.000, 0.000, 15:53:49.558
157, -50.81, 12.56, 6.12, 7.71, 0.000, 0.000, 0.000, 15:53:49.558
158, -515.81, 6.34, 13.56, 10.60, 0.000, 0.000, 0.000, 15:53:49.559
159, 94.21, 7.12, 12.84, 14.76, 0.000, 0.000, 0.000, 15:53:49.579
160, 156.68, 4.28, 7.83, 9.72, 0.000, 0.000, 0.000, 15:53:49.579
161, -486.79, 7.69, 6.54, 10.35, 0.000, 0.000, 0.000, 15:53:49.580
162, -143.18, 4.30, 16.21, 12.06, 0.000, 0.000, 0.000, 15:53:49.580
163, 263.21, 4.03, 7.72, 12.80, 0.000, 0.000, 0.000, 15:53:49.602
164, -313.99, 14.41, 3.27, 11.48, 0.000, 0.000, 0.000, 15:53:49.602
165, -373.49, 8.66, 14.36, 15.05, 0.000, 0.000, 0.000, 15:53:49.602
166, 233.94, 5.95, 13.15, 12.62, 0.000, 0.000, 0.000, 15:53:49.602
167, -50.18, 11.69, 7.51, 7.02, 0.000, 0.000, 0.000, 15:53:49.624
168, -515.40, 11.27, 15.41, 12.56, 0.000, 0.000, 0.000, 15:53:49.625
169, 94.18, 0.48, 12.52, 14.69, 0.000, 0.000, 0.000, 15:53:49.625
170, 157.40, 8.32, 9.90, 13.00, 0.000, 0.000, 0.000, 15:53:49.625
171, -493.24, 10.85, 12.10, 5.80, 0.000, 0.000, 0.000, 15:53:49.647
172, -148.67, 3.39, 15.23, 17.42, 0.000, 0.000, 0.000, 15:53:49.647
173, 271.54, 7.59, 9.41, 12.49, 0.000, 0.000, 0.000, 15:53:49.647
174, -315.99, 13.07, 0.93, 6.80, 0.000, 0.000, 0.000, 15:53:49.648
175, -380.40, 3.27, 14.78, 15.66, 0.000, 0.000, 0.000, 15:53:49.648
176, 242.72, 6.17, 10.36, 11.43, 0.000, 0.000, 0.000, 15:53:49.649
177, -48.25, 16.31, 7.22, 12.24, 0.000, 0.000, 0.000, 15:53:49.669
178, -500.65, 6.18, 16.66, 10.55, 0.000, 0.000, 0.000, 15:53:49.669
179, 68.45, 6.59, 14.13, 16.78, 0.000, 0.000, 0.000, 15:53:49.669
180, 118.49, 11.33, 6.98, 7.51, 0.000, 0.000, 0.000, 15:53:49.670
181, -436.54, 11.28, 10.46, 11.59, 0.000, 0.000, 0.000, 15:53:49.692
182, -120.87, 4.28, 15.61, 18.99, 0.000, 0.000, 0.000, 15:53:49.692
183, 271.31, 10.31, 11.23, 7.61, 0.000, 0.000, 0.000, 15:53:49.692
184, -317.01, 12.30, 6.14, 2.50, 0.000, 0.000, 0.000, 15:53:49.693
185, -370.88, 5.24, 17.50, 13.42, 0.000, 0.000, 0.000, 15:53:49.714
186, 233.55, 11.96, 10.30, 12.26, 0.000, 0.000, 0.000, 15:53:49.715
187, -56.24, 9.30, 6.01, 3.07, 0.000, 0.000, 0.000, 15:53:49.715
188, -512.28, 7.20, 15.17, 10.52, 0.000, 0.000, 0.000, 15:53:49.715
189, 95.77, 3.77, 12.44, 18.43, 0.000, 0.000, 0.000, 15:53:49.737
190, 149.68, 8.33, 8.50, 12.09, 0.000, 0.000, 0.000, 15:53:49.737
191, -491.35, 10.64, 9.09, 11.09, 0.000, 0.000, 0.000, 15:53:49.738
192, -138.60, 3.63, 17.68, 19.03, 0.000, 0.000, 0.000, 15:53:49.738
193, 256.30, 8.36, 10.47, 13.59, 0.000, 0.000, 0.000, 15:53:49.739
194, -325.85, 14.01, 3.66, 7.29, 0.000, 0.000, 0.000, 15:53:49.739
195, -364.45, 5.16, 15.81, 15.72, 0.000, 0.000, 0.000, 15:53:49.782
196, 237.48, 5.38, 13.61, 15.28, 0.000, 0.000, 0.000, 15:53:49.782
197, -53.96, 13.81, 7.58, 7.36, 0.000, 0.000, 0.000, 15:53:49.805
198, -501.85, 8.10, 12.48, 12.42, 0.000, 0.000, 0.000, 15:53:49.805
199, 93.87, 6.60, 12.51, 15.74, 0.000, 0.000, 0.000, 15:53:49.805
200, 134.90, 14.12, 8.62, 8.42, 0.000, 0.000, 0.000, 15:53:49.805
0, -485.77, 9.76, 10.84, 9.91, 0.000, 0.000, 0.000, 15:53:49.806
1, -132.02, 0.56, 16.11, 17.44, 0.000, 0.000, 0.000, 15:53:49.827
2, 259.63, 10.28, 11.82, 15.97, 0.000, 0.000, 0.000, 15:53:49.827
3, -294.39, 17.67, 4.99, 5.87, 0.000, 0.000, 0.000, 15:53:49.827
4, -357.96, -5.28, 15.33, 17.72, 0.000, 0.000, 0.000, 15:53:49.827
5, 222.67, 8.27, 11.17, 14.73, 0.000, 0.000, 0.000, 15:53:49.828
6, -65.97, 12.34, 6.89, 6.03, 0.000, 0.000, 0.000, 15:53:49.828
7, -502.07, 6.60, 14.43, 12.66, 0.000, 0.000, 0.000, 15:53:49.849
8, 103.25, 1.68, 16.59, 12.24, 0.000, 0.000, 0.000, 15:53:49.849
9, 148.39, 12.86, 5.16, 12.06, 0.000, 0.000, 0.000, 15:53:49.850
10, -494.62, 12.89, 9.48, 12.80, 0.000, 0.000, 0.000, 15:53:49.850
11, -141.47, 4.25, 20.87, 14.98, 0.000, 0.000, 0.000, 15:53:49.851
12, 262.73, 4.46, 12.10, 13.12, 0.000, 0.000, 0.000, 15:53:49.851
13, -320.42, 10.22, 4.18, 4.30, 0.000, 0.000, 0.000, 15:53:49.872
14, -368.70, 3.26, 16.20, 15.74, 0.000, 0.000, 0.000, 15:53:49.872
15, 230.06, 9.51, 11.26, 11.31, 0.000, 0.000, 0.000, 15:53:49.873
16, -57.04, 15.90, 7.63, 7.17, 0.000, 0.000, 0.000, 15:53:49.873
17, -520.50, 6.49, 14.77, 13.34, 0.000, 0.000, 0.000, 15:53:49.873
18, 97.31, 4.17, 13.09, 14.06, 0.000, 0.000, 0.000, 15:53:49.873
19, 157.15, 8.79, 11.66, 9.51, 0.000, 0.000, 0.000, 15:53:49.895
20, -480.40, 8.73, 10.66, 10.98, 0.000, 0.000, 0.000, 15:53:49.895
21, -132.77, 4.50, 12.28, 17.71, 0.000, 0.000, 0.000, 15:53:49.895
22, 263.62, 11.11, 8.97, 11.51, 0.000, 0.000, 0.000, 15:53:49.896
23, -325.39, 12.79, 4.45, 5.04, 0.000, 0.000, 0.000, 15:53:49.896
24, -376.29, 7.32, 15.58, 15.46, 0.000, 0.000, 0.000, 15:53:49.897
25, 232.48, 7.52, 6.93, 12.09, 0.000, 0.000, 0.000, 15:53:49.917
26, -46.69, 12.34, 5.33, 5.04, 0.000, 0.000, 0.000, 15:53:49.917
27, -510.06, 6.12, 12.66, 14.46, 0.000, 0.000, 0.000, 15:53:49.918
28, 105.49, 4.82, 13.09, 16.33, 0.000, 0.000, 0.000, 15:53:49.918
29, 141.88, 11.36, 11.34, 7.16, 0.000, 0.000, 0.000, 15:53:49.939
30, -498.72, 15.95, 5.94, 10.05, 0.000, 0.000, 0.000, 15:53:49.939
31, -122.63, -0.45, 18.04, 17.00, 0.000, 0.000, 0.000, 15:53:49.940
32, 266.62, 8.92, 11.38, 8.67, 0.000, 0.000, 0.000, 15:53:49.940
33, -336.74, 8.69, 7.59, 7.48, 0.000, 0.000, 0.000, 15:53:49.962
34, -381.97, 2.68, 16.70, 11.85, 0.000, 0.000, 0.000, 15:53:49.962
35, 257.86, 5.27, 13.62, 14.19, 0.000, 0.000, 0.000, 15:53:49.962
36, -49.76, 13.32, 7.91, 8.01, 0.000, 0.000, 0.000, 15:53:49.963
37, -508.40, 3.91, 10.79, 14.62, 0.000, 0.000, 0.000, 15:53:49.963
38, 102.06, 5.49, 13.05, 12.64, 0.000, 0.000, 0.000, 15:53:49.963
39, 145.95, 19.43, 8.61, 11.02, 0.000, 0.000, 0.000, 15:53:49.984
40, -495.56, 6.97, 9.30, 11.84, 0.000, 0.000, 0.000, 15:53:49.984
41, -130.43, 3.49, 16.28, 19.14, 0.000, 0.000, 0.000, 15:53:49.985
42, 262.57, 7.21, 9.73, 14.06, 0.000, 0.000, 0.000, 15:53:49.985
43, -324.55, 16.31, 3.01, 7.46, 0.000, 0.000, 0.000, 15:53:50.007
44, -361.09, 3.60, 16.77, 15.64, 0.000, 0.000, 0.000, 15:53:50.007
45, 231.96, 7.83, 12.30, 15.16, 0.000, 0.000, 0.000, 15:53:50.007
46, -61.37, 11.66, 8.69, 10.76, 0.000, 0.000, 0.000, 15:53:50.007
47, -512.51, 5.54, 11.62, 15.92, 0.000, 0.000, 0.000, 15:53:50.029
48, 103.42, 8.89, 14.31, 16.85, 0.000, 0.000, 0.000, 15:53:50.029
49, 145.07, 6.26, 6.70, 8.71, 0.000, 0.000, 0.000, 15:53:50.030
50, -496.61, 8.48, 6.74, 8.62, 0.000, 0.000, 0.000, 15:53:50.030
51, -132.05, 0.59, 15.20, 14.32, 0.000, 0.000, 0.000, 15:53:50.052
52, 258.03, 11.62, 10.83, 13.21, 0.000, 0.000, 0.000, 15:53:50.052
53, -331.21, 8.65, 4.16, 6.36, 0.000, 0.000, 0.000, 15:53:50.052
54, -359.43, 8.11, 15.78, 14.97, 0.000, 0.000, 0.000, 15:53:50.053
55, 259.92, 8.25, 10.10, 7.72, 0.000, 0.000, 0.000, 15:53:50.053
56, -60.82, 13.35, 6.62, 3.86, 0.000, 0.000, 0.000, 15:53:50.053
57, -502.50, 9.56, 12.15, 11.59, 0.000, 0.000, 0.000, 15:53:50.074
58, 117.32, 0.51, 12.01, 20.46, 0.000, 0.000, 0.000, 15:53:50.075
59, 149.38, 10.46, 9.45, 7.98, 0.000, 0.000, 0.000, 15:53:50.076
60, -492.85, 10.08, 12.70, 12.03, 0.000, 0.000, 0.000, 15:53:50.076
61, -128.87, 2.41, 15.39, 16.46, 0.000, 0.000, 0.000, 15:53:50.097
62, 253.19, 10.31, 9.30, 12.49, 0.000, 0.000, 0.000, 15:53:50.097
63, -334.17, 15.63, 4.00, 4.47, 0.000, 0.000, 0.000, 15:53:50.097
64, -364.98, 3.06, 18.37, 12.96, 0.000, 0.000, 0.000, 15:53:50.098
65, 233.30, 5.93, 12.63, 16.31, 0.000, 0.000, 0.000, 15:53:50.120
66, -77.43, 18.86, 5.52, 8.95, 0.000, 0.000, 0.000, 15:53:50.120
67, -522.22, -1.18, 15.66, 11.95, 0.000, 0.000, 0.000, 15:53:50.120
68, 115.55, 5.08, 15.99, 13.03, 0.000, 0.000, 0.000, 15:53:50.120
69, 146.75, 8.30, 8.19, 5.06, 0.000, 0.000, 0.000, 15:53:50.142
70, -509.33, 12.60, 7.64, 9.50, 0.000, 0.000, 0.000, 15:53:50.143
71, -126.00, 2.64, 15.21, 17.86, 0.000, 0.000, 0.000, 15:53:50.143
72, 271.07, 13.06, 7.67, 8.95, 0.000, 0.000, 0.000, 15:53:50.143
73, -336.16, 15.91, 6.69, 7.88, 0.000, 0.000, 0.000, 15:53:50.143
74, -359.15, 3.62, 16.56, 17.73, 0.000, 0.000, 0.000, 15:53:50.143
75, 249.72, 10.08, 11.70, 13.66, 0.000, 0.000, 0.000, 15:53:50.164
76, -65.30, 12.64, 1.18, 8.24, 0.000, 0.000, 0.000, 15:53:50.165
77, -511.89, 6.17, 15.02, 12.73, 0.000, 0.000, 0.000, 15:53:50.165
78, 106.25, 3.58, 13.35, 16.74, 0.000, 0.000, 0.000, 15:53:50.165
79, 141.65, 13.90, 10.25, 7.52, 0.000, 0.000, 0.000, 15:53:50.187
80, -494.75, 14.24, 11.89, 12.18, 0.000, 0.000, 0.000, 15:53:50.187
81, -127.12, 5.51, 14.28, 15.05, 0.000, 0.000, 0.000, 15:53:50.187
82, 256.44, 9.78, 8.30, 13.62, 0.000, 0.000, 0.000, 15:53:50.187
83, -335.49, 15.31, 5.34, 7.11, 0.000, 0.000, 0.000, 15:53:50.209
84, -352.88, 7.32, 15.58, 13.27, 0.000, 0.000, 0.000, 15:53:50.210
85, 254.84, 4.89, 12.73, 13.97, 0.000, 0.000, 0.000, 15:53:50.210
86, -54.52, 11.53, 5.87, 7.77, 0.000, 0.000, 0.000, 15:53:50.210
87, -487.82, 9.03, 13.67, 12.63, 0.000, 0.000, 0.000, 15:53:50.232
88, 143.11, 5.70, 9.62, 15.09, 0.000, 0.000, 0.000, 15:53:50.232
89, 181.12, 8.33, 9.10, 8.27, 0.000, 0.000, 0.000, 15:53:50.233
90, -468.65, 8.70, 10.84, 8.46, 0.000, 0.000, 0.000, 15:53:50.233
91, -124.04, 6.50, 17.60, 17.62, 0.000, 0.000, 0.000, 15:53:50.234
92, 240.15, 7.07, 12.41, 16.23, 0.000, 0.000, 0.000, 15:53:50.234
93, -344.15, 11.25, 6.36, 7.16, 0.000, 0.000, 0.000, 15:53:50.255
94, -379.15, 3.99, 15.47, 17.56, 0.000, 0.000, 0.000, 15:53:50.255
95, 210.83, 6.70, 10.07, 14.77, 0.000, 0.000, 0.000, 15:53:50.255
96, -96.25, 11.89, 4.93, 7.41, 0.000, 0.000, 0.000, 15:53:50.255
97, -534.21, 7.30, 14.87, 9.91, 0.000, 0.000, 0.000, 15:53:50.277
98, 89.45, 2.30, 13.96, 14.69, 0.000, 0.000, 0.000, 15:53:50.277
99, 136.21, 9.91, 10.93, 8.04, 0.000, 0.000, 0.000, 15:53:50.278
100, -510.17, 12.24, 2.85, 10.65, 0.000, 0.000, 0.000, 15:53:50.278
101, -122.74, 2.97, 15.95, 14.78, 0.000, 0.000, 0.000, 15:53:50.299
102, 278.78, 12.79, 9.56, 10.65, 0.000, 0.000, 0.000, 15:53:50.300
103, -314.76, 8.11, 6.41, 5.56, 0.000, 0.000, 0.000, 15:53:50.300
104, -343.47, 6.17, 15.35, 17.77, 0.000, 0.000, 0.000, 15:53:50.300
105, 243.79, 6.36, 11.81, 12.03, 0.000, 0.000, 0.000, 15:53:50.322
106, -71.59, 14.95, 5.62, 6.40, 0.000, 0.000, 0.000, 15:53:50.322
107, -514.99, 5.85, 10.52, 11.11, 0.000, 0.000, 0.000, 15:53:50.322
108, 122.23, 6.48, 13.29, 15.75, 0.000, 0.000, 0.000, 15:53:50.322
109, 154.30, 11.91, 8.69, 9.52, 0.000, 0.000, 0.000, 15:53:50.323
110, -493.24, 8.66, 11.66, 9.56, 0.000, 0.000, 0.000, 15:53:50.323
111, -119.97, 4.00, 15.95, 13.99, 0.000, 0.000, 0.000, 15:53:50.345
112, 250.03, 3.48, 10.82, 14.36, 0.000, 0.000, 0.000, 15:53:50.345
113, -314.16, 14.05, 5.28, 5.87, 0.000, 0.000, 0.000, 15:53:50.345
114, -344.27, 0.62, 18.67, 20.24, 0.000, 0.000, 0.000, 15:53:50.346
115, 245.32, 8.38, 12.55, 11.57, 0.000, 0.000, 0.000, 15:53:50.412
116, -69.89, 11.03, 6.77, 4.86, 0.000, 0.000, 0.000, 15:53:50.412
117, -508.30, 5.28, 16.54, 9.36, 0.000, 0.000, 0.000, 15:53:50.413
118, 118.86, 7.02, 14.61, 12.71, 0.000, 0.000, 0.000, 15:53:50.413
119, 154.08, 12.46, 7.45, 12.11, 0.000, 0.000, 0.000, 15:53:50.413
120, -486.36, 8.60, 9.64, 8.86, 0.000, 0.000, 0.000, 15:53:50.413
121, -113.02, 9.18, 13.17, 15.91, 0.000, 0.000, 0.000, 15:53:50.434
122, 262.00, 8.69, 10.10, 10.11, 0.000, 0.000, 0.000, 15:53:50.435
123, -331.05, 13.74, 7.14, 7.10, 0.000, 0.000, 0.000, 15:53:50.435
124, -347.05, 0.54, 13.97, 18.05, 0.000, 0.000, 0.000, 15:53:50.435
125, 249.45, 6.60, 8.91, 12.24, 0.000, 0.000, 0.000, 15:53:50.436
126, -74.91, 14.33, 5.36, 7.15, 0.000, 0.000, 0.000, 15:53:50.436
127, -508.51, 7.86, 14.72, 15.35, 0.000, 0.000, 0.000, 15:53:50.457
128, 117.33, 4.19, 12.50, 17.74, 0.000, 0.000, 0.000, 15:53:50.457
129, 147.97, 11.97, 9.92, 10.28, 0.000, 0.000, 0.000, 15:53:50.458
130, -486.28, 8.59, 10.43, 11.50, 0.000, 0.000, 0.000, 15:53:50.458
131, -103.54, 5.06, 15.65, 16.43, 0.000, 0.000, 0.000, 15:53:50.458
132, 268.21, 9.74, 9.83, 12.50, 0.000, 0.000, 0.000, 15:53:50.458
133, -333.74, 14.92, 8.03, 7.94, 0.000, 0.000, 0.000, 15:53:50.479
134, -340.21, 3.41, 14.42, 17.54, 0.000, 0.000, 0.000, 15:53:50.479
135, 234.24, 7.15, 11.20, 11.03, 0.000, 0.000, 0.000, 15:53:50.480
136, -76.91, 12.23, 4.12, 7.94, 0.000, 0.000, 0.000, 15:53:50.480
137, -498.59, 3.40, 12.98, 9.95, 0.000, 0.000, 0.000, 15:53:50.481
138, 133.97, 7.54, 13.17, 15.88, 0.000, 0.000, 0.000, 15:53:50.481
139, 161.35, 11.99, 10.40, 10.80, 0.000, 0.000, 0.000, 15:53:50.502
140, -485.29, 12.41, 8.50, 12.46, 0.000, 0.000, 0.000, 15:53:50.502
141, -102.85, 3.45, 13.37, 15.44, 0.000, 0.000, 0.000, 15:53:50.502
142, 263.87, 6.84, 8.36, 11.71, 0.000, 0.000, 0.000, 15:53:50.503
143, -338.29, 11.91, 4.81, 7.84, 0.000, 0.000, 0.000, 15:53:50.503
144, -345.64, 4.37, 19.26, 14.77, 0.000, 0.000, 0.000, 15:53:50.503
145, 239.17, 6.38, 9.75, 12.30, 0.000, 0.000, 0.000, 15:53:50.525
146, -77.81, 17.53, 10.64, 6.78, 0.000, 0.000, 0.000, 15:53:50.526
147, -503.98, 5.31, 14.01, 13.88, 0.000, 0.000, 0.000, 15:53:50.526
148, 119.01, 5.23, 12.57, 12.62, 0.000, 0.000, 0.000, 15:53:50.526
149, 123.50, 9.76, 5.73, 7.30, 0.000, 0.000, 0.000, 15:53:50.526
150, -503.23, 8.93, 7.27, 8.61, 0.000, 0.000, 0.000, 15:53:50.527
151, -113.90, 2.54, 14.76, 16.37, 0.000, 0.000, 0.000, 15:53:50.547
152, 226.64, 9.04, 11.89, 13.69, 0.000, 0.000, 0.000, 15:53:50.547
153, -335.33, 14.23, 5.41, 7.46, 0.000, 0.000, 0.000, 15:53:50.547
154, -332.02, 2.42, 15.49, 20.49, 0.000, 0.000, 0.000, 15:53:50.547
155, 236.03, 5.63, 12.00, 12.26, 0.000, 0.000, 0.000, 15:53:50.569
156, -91.28, 21.15, 9.03, 12.01, 0.000, 0.000, 0.000, 15:53:50.570
157, -522.06, 2.77, 15.53, 19.17, 0.000, 0.000, 0.000, 15:53:50.570
158, 111.77, 5.99, 13.17, 13.68, 0.000, 0.000, 0.000, 15:53:50.570
159, 120.77, 14.51, 8.11, 9.29, 0.000, 0.000, 0.000, 15:53:50.592
160, -511.08, 10.76, 8.01, 6.63, 0.000, 0.000, 0.000, 15:53:50.592
161, -129.38, 2.14, 18.72, 15.32, 0.000, 0.000, 0.000, 15:53:50.592
162, 249.62, 10.44, 10.15, 11.55, 0.000, 0.000, 0.000, 15:53:50.593
163, -340.86, 17.26, 7.07, 4.74, 0.000, 0.000, 0.000, 15:53:50.593
164, -349.18, 2.83, 18.73, 16.04, 0.000, 0.000, 0.000, 15:53:50.593
165, 233.28, 8.26, 14.20, 9.91, 0.000, 0.000, 0.000, 15:53:50.614
166, -86.42, 11.49, 4.85, 9.15, 0.000, 0.000, 0.000, 15:53:50.615
167, -506.48, 4.86, 12.24, 16.43, 0.000, 0.000, 0.000, 15:53:50.616
168, 116.06, 3.25, 13.66, 12.72, 0.000, 0.000, 0.000, 15:53:50.616
169, 132.74, 8.63, 7.14, 15.05, 0.000, 0.000, 0.000, 15:53:50.637
170, -503.52, 9.41, 7.42, 5.99, 0.000, 0.000, 0.000, 15:53:50.637
171, -116.09, 1.95, 15.35, 14.83, 0.000, 0.000, 0.000, 15:53:50.638
172, 247.01, 12.87, 11.98, 10.30, 0.000, 0.000, 0.000, 15:53:50.638
173, -346.75, 12.80, 6.26, 5.71, 0.000, 0.000, 0.000, 15:53:50.659
174, -338.72, 6.49, 18.24, 11.49, 0.000, 0.000, 0.000, 15:53:50.660
175, 240.93, -1.68, 10.04, 13.12, 0.000, 0.000, 0.000, 15:53:50.660
176, -83.20, 8.95, 4.33, 10.31, 0.000, 0.000, 0.000, 15:53:50.660
177, -502.22, 2.61, 14.63, 15.76, 0.000, 0.000, 0.000, 15:53:50.682
178, 124.35, 4.59, 15.78, 18.66, 0.000, 0.000, 0.000, 15:53:50.682
179, 118.99, 7.95, 4.46, 7.11, 0.000, 0.000, 0.000, 15:53:50.704
180, -498.21, 14.90, 8.04, 12.92, 0.000, 0.000, 0.000, 15:53:50.704
181, -95.92, 2.79, 18.99, 19.45, 0.000, 0.000, 0.000, 15:53:50.705
182, 251.67, 11.50, 9.65, 9.77, 0.000, 0.000, 0.000, 15:53:50.705
183, -343.78, 11.17, 7.97, 4.79, 0.000, 0.000, 0.000, 15:53:50.706
184, -339.52, 4.38, 18.75, 16.76, 0.000, 0.000, 0.000, 15:53:50.706
185, 240.48, 7.87, 11.64, 13.30, 0.000, 0.000, 0.000, 15:53:50.727
186, -91.93, 12.26, 4.02, 9.06, 0.000, 0.000, 0.000, 15:53:50.727
187, -515.88, 4.77, 14.26, 12.81, 0.000, 0.000, 0.000, 15:53:50.727
188, 133.36, 7.16, 12.48, 13.10, 0.000, 0.000, 0.000, 15:53:50.727
189, 135.23, 11.87, 9.17, 8.31, 0.000, 0.000, 0.000, 15:53:50.728
190, -494.38, 12.81, 5.48, 11.85, 0.000, 0.000, 0.000, 15:53:50.729
191, -103.29, 3.52, 15.35, 16.10, 0.000, 0.000, 0.000, 15:53:50.749
192, 249.62, 12.09, 9.85, 8.77, 0.000, 0.000, 0.000, 15:53:50.750
193, -345.40, 11.18, 1.88, 3.61, 0.000, 0.000, 0.000, 15:53:50.750
194, -343.84, 2.15, 15.57, 13.76, 0.000, 0.000, 0.000, 15:53:50.750
195, 238.02, 10.92, 13.83, 10.38, 0.000, 0.000, 0.000, 15:53:50.772
196, -90.97, 14.58, 3.36, 5.53, 0.000, 0.000, 0.000, 15:53:50.772
197, -507.15, 4.75, 12.09, 11.99, 0.000, 0.000, 0.000, 15:53:50.772
198, 122.70, 4.37, 13.60, 12.40, 0.000, 0.000, 0.000, 15:53:50.773
199, 137.66, 8.55, 8.37, 9.22, 0.000, 0.000, 0.000, 15:53:50.773
200, -500.81, 10.87, 9.96, 8.74, 0.000, 0.000, 0.000, 15:53:50.773
0, -108.18, 4.96, 15.79, 19.53, 0.000, 0.000, 0.000, 15:53:50.794
1, 264.87, 5.57, 9.63, 11.87, 0.000, 0.000, 0.000, 15:53:50.795
2, -344.20, 13.20, 6.53, 5.09, 0.000, 0.000, 0.000, 15:53:50.795
3, -336.43, 3.12, 19.79, 12.13, 0.000, 0.000, 0.000, 15:53:50.840
4, 239.36, 7.70, 11.21, 11.63, 0.000, 0.000, 0.000, 15:53:50.840
5, -94.28, 9.27, 2.02, 9.45, 0.000, 0.000, 0.000, 15:53:50.862
6, -509.69, 9.94, 12.31, 10.78, 0.000, 0.000, 0.000, 15:53:50.862
7, 125.20, 4.58, 14.08, 15.17, 0.000, 0.000, 0.000, 15:53:50.862
8, 136.92, 7.47, 7.72, 11.74, 0.000, 0.000, 0.000, 15:53:50.863
9, -512.07, 8.07, 7.80, 13.61, 0.000, 0.000, 0.000, 15:53:50.863
10, -107.76, 9.11, 16.33, 17.79, 0.000, 0.000, 0.000, 15:53:50.864
11, 261.84, 11.17, 13.42, 10.43, 0.000, 0.000, 0.000, 15:53:50.884
12, -339.08, 13.43, 6.89, 8.12, 0.000, 0.000, 0.000, 15:53:50.885
13, -337.61, 1.18, 19.54, 16.35, 0.000, 0.000, 0.000, 15:53:50.885
14, 240.39, 7.74, 11.64, 12.73, 0.000, 0.000, 0.000, 15:53:50.885
15, -91.81, 16.84, 4.35, 7.69, 0.000, 0.000, 0.000, 15:53:50.886
16, -511.43, 6.92, 11.23, 14.55, 0.000, 0.000, 0.000, 15:53:50.886
17, 146.88, 5.46, 14.31, 14.02, 0.000, 0.000, 0.000, 15:53:50.908
18, 136.47, 11.24, 5.03, 11.00, 0.000, 0.000, 0.000, 15:53:50.908
19, -500.04, 6.19, 7.52, 10.73, 0.000, 0.000, 0.000, 15:53:50.908
20, -107.40, 3.88, 16.03, 18.92, 0.000, 0.000, 0.000, 15:53:50.908
21, 248.13, 7.71, 8.65, 7.40, 0.000, 0.000, 0.000, 15:53:50.909
22, -352.65, 14.28, 4.81, 8.68, 0.000, 0.000, 0.000, 15:53:50.909
23, -335.67, 3.22, 19.95, 17.83, 0.000, 0.000, 0.000, 15:53:50.929
24, 241.43, 5.97, 12.30, 12.72, 0.000, 0.000, 0.000, 15:53:50.930
25, -97.75, 14.88, 4.54, 7.80, 0.000, 0.000, 0.000, 15:53:50.930
26, -500.58, 4.49, 15.83, 16.88, 0.000, 0.000, 0.000, 15:53:50.930
27, 140.41, 5.08, 9.82, 15.52, 0.000, 0.000, 0.000, 15:53:50.930
28, 128.34, 8.82, 5.30, 10.11, 0.000, 0.000, 0.000, 15:53:50.931
29, -502.93, 11.77, 12.22, 7.20, 0.000, 0.000, 0.000, 15:53:50.952
30, -103.61, 3.26, 13.60, 14.03, 0.000, 0.000, 0.000, 15:53:50.952
31, 250.88, 8.90, 9.69, 9.45, 0.000, 0.000, 0.000, 15:53:50.954
32, -354.13, 8.84, 5.15, 9.03, 0.000, 0.000, 0.000, 15:53:50.955
33, -333.53, 6.87, 15.36, 18.16, 0.000, 0.000, 0.000, 15:53:50.955
34, 250.50, 9.16, 9.77, 10.94, 0.000, 0.000, 0.000, 15:53:50.955
35, -90.07, 10.96, 7.26, 11.46, 0.000, 0.000, 0.000, 15:53:50.974
36, -501.24, 8.66, 12.76, 12.25, 0.000, 0.000, 0.000, 15:53:50.975
37, 125.34, 3.70, 15.02, 18.00, 0.000, 0.000, 0.000, 15:53:50.975
38, 124.25, 8.99, 5.43, 9.50, 0.000, 0.000, 0.000, 15:53:50.975
39, -503.21, 7.29, 10.42, 6.77, 0.000, 0.000, 0.000, 15:53:50.997
40, -93.96, 5.20, 13.44, 16.53, 0.000, 0.000, 0.000, 15:53:50.997
41, 253.63, 9.68, 9.71, 13.27, 0.000, 0.000, 0.000, 15:53:50.997
42, -360.90, 15.56, 4.36, 6.92, 0.000, 0.000, 0.000, 15:53:50.997
43, -333.54, 2.04, 16.39, 14.39, 0.000, 0.000, 0.000, 15:53:50.998
44, 247.79, 4.91, 11.79, 12.54, 0.000, 0.000, 0.000, 15:53:50.998
45, -92.95, 18.25, 7.82, 7.34, 0.000, 0.000, 0.000, 15:53:51.019
46, -504.67, 10.74, 14.43, 9.06, 0.000, 0.000, 0.000, 15:53:51.019
47, 127.57, 6.36, 17.36, 14.75, 0.000, 0.000, 0.000, 15:53:51.020
48, 126.54, 12.01, 7.77, 6.19, 0.000, 0.000, 0.000, 15:53:51.020
49, -493.80, 8.15, 9.22, 11.48, 0.000, 0.000, 0.000, 15:53:51.042
50, -94.44, 0.18, 17.31, 17.84, 0.000, 0.000, 0.000, 15:53:51.042
51, 249.24, 9.79, 10.06, 12.21, 0.000, 0.000, 0.000, 15:53:51.042
52, -351.74, 11.60, 10.01, 8.16, 0.000, 0.000, 0.000, 15:53:51.043
53, -333.25, 5.64, 16.93, 16.87, 0.000, 0.000, 0.000, 15:53:51.064
54, 246.51, 10.97, 9.55, 13.76, 0.000, 0.000, 0.000, 15:53:51.065
55, -98.85, 11.52, 5.15, 7.27, 0.000, 0.000, 0.000, 15:53:51.065
56, -503.54, 2.57, 12.10, 15.02, 0.000, 0.000, 0.000, 15:53:51.065
57, 121.19, 6.79, 14.12, 15.21, 0.000, 0.000, 0.000, 15:53:51.087
58, 130.75, 7.50, 6.86, 8.64, 0.000, 0.000, 0.000, 15:53:51.087
59, -495.05, 11.86, 10.42, 9.94, 0.000, 0.000, 0.000, 15:53:51.087
60, -94.79, 6.02, 19.05, 16.90, 0.000, 0.000, 0.000, 15:53:51.087
61, 253.74, 8.35, 6.20, 14.07, 0.000, 0.000, 0.000, 15:53:51.088
62, -351.58, 14.55, 3.61, 5.33, 0.000, 0.000, 0.000, 15:53:51.088
63, -332.40, -0.21, 14.53, 16.52, 0.000, 0.000, 0.000, 15:53:51.109
64, 244.80, 10.17, 8.24, 11.58, 0.000, 0.000, 0.000, 15:53:51.109
65, -102.72, 12.68, 4.87, 10.72, 0.000, 0.000, 0.000, 15:53:51.110
66, -498.59, 4.23, 18.72, 12.65, 0.000, 0.000, 0.000, 15:53:51.110
67, 136.47, 6.66, 18.55, 12.36, 0.000, 0.000, 0.000, 15:53:51.132
68, 119.67, 12.30, 11.57, 8.38, 0.000, 0.000, 0.000, 15:53:51.132
69, -503.82, 10.77, 11.57, 9.73, 0.000, 0.000, 0.000, 15:53:51.132
70, -95.84, 4.81, 18.14, 12.87, 0.000, 0.000, 0.000, 15:53:51.132
71, 253.79, 8.88, 12.37, 11.84, 0.000, 0.000, 0.000, 15:53:51.154
72, -354.44, 20.06, 5.60, 10.91, 0.000, 0.000, 0.000, 15:53:51.155
73, -328.28, -2.20, 13.95, 16.89, 0.000, 0.000, 0.000, 15:53:51.155
74, 257.47, 8.29, 9.16, 15.82, 0.000, 0.000, 0.000, 15:53:51.155
75, -92.62, 9.73, 6.04, 8.89, 0.000, 0.000, 0.000, 15:53:51.177
76, -492.10, 4.61, 10.86, 11.43, 0.000, 0.000, 0.000, 15:53:51.177
77, 143.64, -0.18, 11.78, 15.39, 0.000, 0.000, 0.000, 15:53:51.178
78, 128.85, 10.67, 8.08, 6.38, 0.000, 0.000, 0.000, 15:53:51.178
79, -497.70, 9.88, 9.25, 12.88, 0.000, 0.000, 0.000, 15:53:51.178
80, -85.93, 7.72, 17.70, 21.44, 0.000, 0.000, 0.000, 15:53:51.179
81, 249.45, 12.09, 11.40, 14.32, 0.000, 0.000, 0.000, 15:53:51.199
82, -359.42, 10.81, 6.21, 8.92, 0.000, 0.000, 0.000, 15:53:51.200
83, -326.90, 5.79, 18.91, 12.80, 0.000, 0.000, 0.000, 15:53:51.200
84, 248.86, 7.28, 9.42, 12.44, 0.000, 0.000, 0.000, 15:53:51.200
85, -101.93, 12.69, 3.78, 9.01, 0.000, 0.000, 0.000, 15:53:51.222
86, -501.20, 6.09, 14.31, 11.51, 0.000, 0.000, 0.000, 15:53:51.222
87, 131.45, 8.39, 17.42, 10.73, 0.000, 0.000, 0.000, 15:53:51.223
88, 119.27, 12.29, 9.78, 11.39, 0.000, 0.000, 0.000, 15:53:51.223
89, -508.94, 9.38, 6.69, 10.72, 0.000, 0.000, 0.000, 15:53:51.244
90, -94.79, 8.52, 17.44, 15.69, 0.000, 0.000, 0.000, 15:53:51.244
91, 249.76, 4.91, 7.24, 13.49, 0.000, 0.000, 0.000, 15:53:51.245
92, -361.78, 14.68, 6.24, 6.69, 0.000, 0.000, 0.000, 15:53:51.245
93, -337.76, 1.43, 15.34, 16.90, 0.000, 0.000, 0.000, 15:53:51.267
94, 241.01, 5.46, 16.01, 13.19, 0.000, 0.000, 0.000, 15:53:51.267
95, -93.56, 10.00, 6.69, 12.15, 0.000, 0.000, 0.000, 15:53:51.267
96, -491.72, 5.30, 14.56, 9.28, 0.000, 0.000, 0.000, 15:53:51.268
97, 139.95, 6.72, 13.19, 14.09, 0.000, 0.000, 0.000, 15:53:51.268
98, 117.78, 10.41, 10.04, 9.81, 0.000, 0.000, 0.000, 15:53:51.268
99, -519.92, 14.01, 10.69, 6.46, 0.000, 0.000, 0.000, 15:53:51.290
100, -106.17, 1.99, 13.09, 18.57, 0.000, 0.000, 0.000, 15:53:51.290
101, 266.75, 9.38, 8.56, 8.35, 0.000, 0.000, 0.000, 15:53:51.290
102, -356.81, 10.44, 4.81, 5.32, 0.000, 0.000, 0.000, 15:53:51.291
103, -334.54, -0.02, 17.17, 16.09, 0.000, 0.000, 0.000, 15:53:51.312
104, 263.51, 7.66, 9.01, 17.84, 0.000, 0.000, 0.000, 15:53:51.312
105, -82.66, 13.79, 6.05, 6.91, 0.000, 0.000, 0.000, 15:53:51.312
106, -489.25, 2.97, 15.10, 10.58, 0.000, 0.000, 0.000, 15:53:51.313
107, 155.80, 8.02, 14.71, 16.94, 0.000, 0.000, 0.000, 15:53:51.334
108, 146.17, 16.62, 5.63, 7.97, 0.000, 0.000, 0.000, 15:53:51.335
109, -471.97, 2.67, 10.75, 12.43, 0.000, 0.000, 0.000, 15:53:51.335
110, -58.35, 2.77, 19.13, 19.14, 0.000, 0.000, 0.000, 15:53:51.335
111, 262.17, 5.32, 9.06, 9.36, 0.000, 0.000, 0.000, 15:53:51.357
112, -371.19, 13.48, 6.31, 6.23, 0.000, 0.000, 0.000, 15:53:51.357
113, -348.18, 1.76, 12.67, 16.96, 0.000, 0.000, 0.000, 15:53:51.358
114, 217.07, 7.48, 15.32, 7.41, 0.000, 0.000, 0.000, 15:53:51.358
115, -140.01, 13.50, 4.28, 4.18, 0.000, 0.000, 0.000, 15:53:51.359
116, -513.50, 8.40, 10.29, 11.82, 0.000, 0.000, 0.000, 15:53:51.359
117, 121.91, 10.36, 17.97, 16.60, 0.000, 0.000, 0.000, 15:53:51.379
118, 105.22, 14.35, 5.68, 8.18, 0.000, 0.000, 0.000, 15:53:51.380
119, -508.41, 7.46, 9.32, 7.23, 0.000, 0.000, 0.000, 15:53:51.380
120, -86.50, 3.63, 14.97, 14.89, 0.000, 0.000, 0.000, 15:53:51.380
121, 249.42, 9.96, 10.75, 16.46, 0.000, 0.000, 0.000, 15:53:51.402
122, -362.93, 11.80, 5.08, 8.44, 0.000, 0.000, 0.000, 15:53:51.402
123, -320.02, 5.72, 18.29, 15.59, 0.000, 0.000, 0.000, 15:53:51.402
124, 247.87, 8.63, 14.37, 15.51, 0.000, 0.000, 0.000, 15:53:51.403
125, -117.24, 12.32, 4.67, 6.80, 0.000, 0.000, 0.000, 15:53:51.425
126, -499.71, 8.70, 10.88, 10.70, 0.000, 0.000, 0.000, 15:53:51.425
127, 167.51, 1.44, 15.50, 15.81, 0.000, 0.000, 0.000, 15:53:51.425
128, 127.97, 12.50, 7.55, 11.45, 0.000, 0.000, 0.000, 15:53:51.425
129, -500.04, 6.82, 8.63, 13.63, 0.000, 0.000, 0.000, 15:53:51.447
130, -71.33, 6.52, 15.40, 12.32, 0.000, 0.000, 0.000, 15:53:51.447
131, 253.42, 8.87, 8.98, 10.14, 0.000, 0.000, 0.000, 15:53:51.447
132, -367.03, 13.09, 7.07, 7.94, 0.000, 0.000, 0.000, 15:53:51.447
133, -317.23, 5.68, 15.71, 14.09, 0.000, 0.000, 0.000, 15:53:51.448
134, 256.38, 4.95, 12.31, 10.89, 0.000, 0.000, 0.000, 15:53:51.448
135, -106.38, 15.40, 7.69, 9.33, 0.000, 0.000, 0.000, 15:53:51.469
136, -490.07, 3.85, 14.63, 14.59, 0.000, 0.000, 0.000, 15:53:51.470
137, 135.53, 8.07, 14.07, 12.63, 0.000, 0.000, 0.000, 15:53:51.470
138, 115.64, 11.35, 5.25, 8.42, 0.000, 0.000, 0.000, 15:53:51.470
139, -494.75, 8.50, 5.25, 7.94, 0.000, 0.000, 0.000, 15:53:51.492
140, -75.64, 1.68, 16.71, 16.87, 0.000, 0.000, 0.000, 15:53:51.492
141, 262.32, 12.69, 7.94, 12.23, 0.000, 0.000, 0.000, 15:53:51.493
142, -358.91, 15.49, 2.70, 9.04, 0.000, 0.000, 0.000, 15:53:51.493
143, -317.41, 1.52, 18.98, 16.38, 0.000, 0.000, 0.000, 15:53:51.515
144, 254.20, 9.59, 9.68, 14.13, 0.000, 0.000, 0.000, 15:53:51.515
145, -102.56, 6.90, 4.77, 11.86, 0.000, 0.000, 0.000, 15:53:51.515
146, -489.53, 3.36, 16.64, 13.54, 0.000, 0.000, 0.000, 15:53:51.516
147, 147.08, 6.26, 16.81, 12.77, 0.000, 0.000, 0.000, 15:53:51.537
148, 121.71, 10.32, 10.13, 12.76, 0.000, 0.000, 0.000, 15:53:51.537
149, -504.46, 9.81, 5.60, 8.89, 0.000, 0.000, 0.000, 15:53:51.538
150, -84.64, 6.83, 17.06, 14.03, 0.000, 0.000, 0.000, 15:53:51.538
151, 249.78, 12.15, 13.40, 10.80, 0.000, 0.000, 0.000, 15:53:51.538
152, -359.11, 11.70, 4.67, 7.91, 0.000, 0.000, 0.000, 15:53:51.539
153, -302.96, 4.03, 18.47, 18.54, 0.000, 0.000, 0.000, 15:53:51.559
154, 260.70, 5.00, 12.27, 9.46, 0.000, 0.000, 0.000, 15:53:51.560
155, -105.94, 12.65, 6.17, 8.02, 0.000, 0.000, 0.000, 15:53:51.560
156, -479.80, 9.42, 15.83, 14.51, 0.000, 0.000, 0.000, 15:53:51.560
157, 159.87, 8.42, 10.27, 9.05, 0.000, 0.000, 0.000, 15:53:51.582
158, 123.13, 11.81, 7.14, 8.41, 0.000, 0.000, 0.000, 15:53:51.582
159, -497.09, 11.13, 7.08, 9.61, 0.000, 0.000, 0.000, 15:53:51.582
160, -73.30, 3.01, 14.82, 18.01, 0.000, 0.000, 0.000, 15:53:51.583
161, 239.58, 11.72, 8.96, 10.15, 0.000, 0.000, 0.000, 15:53:51.604
162, -363.37, 18.24, 4.00, 7.09, 0.000, 0.000, 0.000, 15:53:51.605
163, -294.29, -4.36, 15.42, 12.23, 0.000, 0.000, 0.000, 15:53:51.605
164, 260.38, 1.92, 12.87, 17.47, 0.000, 0.000, 0.000, 15:53:51.605
165, -107.69, 14.14, 7.52, 8.29, 0.000, 0.000, 0.000, 15:53:51.627
166, -491.93, 7.12, 14.24, 12.15, 0.000, 0.000, 0.000, 15:53:51.627
167, 138.22, 3.34, 16.62, 14.61, 0.000, 0.000, 0.000, 15:53:51.627
168, 113.50, 14.87, 6.55, 7.51, 0.000, 0.000, 0.000, 15:53:51.628
169, -507.95, 9.11, 11.59, 9.59, 0.000, 0.000, 0.000, 15:53:51.628
170, -88.98, 4.18, 15.10, 18.43, 0.000, 0.000, 0.000, 15:53:51.629
171, 239.14, 15.09, 13.64, 11.93, 0.000, 0.000, 0.000, 15:53:51.649
172, -379.66, 10.24, 5.52, 6.66, 0.000, 0.000, 0.000, 15:53:51.649
173, -322.40, 2.91, 16.80, 17.83, 0.000, 0.000, 0.000, 15:53:51.650
174, 238.65, 6.21, 14.42, 13.47, 0.000, 0.000, 0.000, 15:53:51.650
175, -129.88, 15.72, 3.76, 3.29, 0.000, 0.000, 0.000, 15:53:51.694
176, -510.29, 0.96, 13.73, 17.87, 0.000, 0.000, 0.000, 15:53:51.695
177, 140.96, 8.94, 13.99, 15.69, 0.000, 0.000, 0.000, 15:53:51.695
178, 109.12, 15.36, 6.72, 7.87, 0.000, 0.000, 0.000, 15:53:51.695
179, -532.86, 9.27, 12.63, 11.75, 0.000, 0.000, 0.000, 15:53:51.696
180, -84.09, -3.32, 15.38, 19.11, 0.000, 0.000, 0.000, 15:53:51.696
181, 250.40, 11.79, 10.59, 9.62, 0.000, 0.000, 0.000, 15:53:51.717
182, -383.30, 10.31, 5.76, 6.41, 0.000, 0.000, 0.000, 15:53:51.717
183, -309.40, 3.41, 17.26, 19.25, 0.000, 0.000, 0.000, 15:53:51.717
184, 254.36, 8.97, 11.51, 14.53, 0.000, 0.000, 0.000, 15:53:51.718
185, -118.03, 9.74, 5.73, 7.42, 0.000, 0.000, 0.000, 15:53:51.718
186, -499.31, 6.23, 13.87, 13.44, 0.000, 0.000, 0.000, 15:53:51.719
187, 139.52, 6.46, 16.67, 12.03, 0.000, 0.000, 0.000, 15:53:51.739
188, 104.08, 13.70, 8.25, 16.44, 0.000, 0.000, 0.000, 15:53:51.740
189, -513.43, 10.35, 9.05, 13.79, 0.000, 0.000, 0.000, 15:53:51.740
190, -83.09, 3.39, 15.11, 14.97, 0.000, 0.000, 0.000, 15:53:51.740
191, 250.73, 6.44, 8.54, 10.86, 0.000, 0.000, 0.000, 15:53:51.741
192, -370.46, 9.82, 5.33, 7.52, 0.000, 0.000, 0.000, 15:53:51.741
193, -318.99, 7.06, 17.84, 15.74, 0.000, 0.000, 0.000, 15:53:51.762
194, 251.10, 8.47, 9.27, 12.91, 0.000, 0.000, 0.000, 15:53:51.763
195, -112.26, 10.27, 7.84, 4.79, 0.000, 0.000, 0.000, 15:53:51.763
196, -488.44, 3.53, 13.12, 13.59, 0.000, 0.000, 0.000, 15:53:51.763
197, 146.97, 7.37, 10.86, 13.69, 0.000, 0.000, 0.000, 15:53:51.784
198, 105.47, 15.88, 10.02, 7.59, 0.000, 0.000, 0.000, 15:53:51.784
199, -516.46, 4.90, 11.11, 10.91, 0.000, 0.000, 0.000, 15:53:51.785
200, -72.20, 2.78, 15.46, 16.14, 0.000, 0.000, 0.000, 15:53:51.785
0, 259.57, 9.39, 5.56, 9.95, 0.000, 0.000, 0.000, 15:53:51.785
1, -366.07, 11.84, 7.05, 8.55, 0.000, 0.000, 0.000, 15:53:51.807
2, -311.93, 2.01, 19.46, 15.73, 0.000, 0.000, 0.000, 15:53:51.807
3, 250.81, 5.92, 11.88, 10.16, 0.000, 0.000, 0.000, 15:53:51.807
4, -124.14, 17.46, 7.32, 6.63, 0.000, 0.000, 0.000, 15:53:51.808
5, -493.76, 7.84, 13.53, 13.34, 0.000, 0.000, 0.000, 15:53:51.830
6, 154.62, 10.98, 9.01, 14.23, 0.000, 0.000, 0.000, 15:53:51.830
7, 108.92, 7.86, 9.07, 10.82, 0.000, 0.000, 0.000, 15:53:51.830
8, -515.44, 8.82, 9.93, 5.32, 0.000, 0.000, 0.000, 15:53:51.830
9, -88.70, 5.48, 15.79, 12.95, 0.000, 0.000, 0.000, 15:53:51.862
10, 258.30, 9.66, 8.30, 10.62, 0.000, 0.000, 0.000, 15:53:51.862
11, -366.22, 16.94, 2.31, 8.12, 0.000, 0.000, 0.000, 15:53:51.863
12, -303.87, 2.90, 17.07, 14.94, 0.000, 0.000, 0.000, 15:53:51.863
13, 250.60, 6.54, 11.12, 12.56, 0.000, 0.000, 0.000, 15:53:51.864
14, -124.21, 12.03, 2.20, 6.15, 0.000, 0.000, 0.000, 15:53:51.864
15, -486.26, 9.48, 16.63, 16.18, 0.000, 0.000, 0.000, 15:53:51.875
16, 148.26, 6.41, 14.63, 15.60, 0.000, 0.000, 0.000, 15:53:51.875
17, 102.35, 13.47, 8.74, 8.03, 0.000, 0.000, 0.000, 15:53:51.875
18, -510.43, 8.53, 7.74, 12.91, 0.000, 0.000, 0.000, 15:53:51.876
19, -74.91, 4.07, 15.98, 14.07, 0.000, 0.000, 0.000, 15:53:51.897
20, 245.16, 6.69, 11.15, 13.59, 0.000, 0.000, 0.000, 15:53:51.897
21, -377.65, 15.82, 4.15, 10.02, 0.000, 0.000, 0.000, 15:53:51.897
22, -323.29, 3.48, 14.46, 19.04, 0.000, 0.000, 0.000, 15:53:51.898
23, 249.22, 7.98, 8.86, 14.60, 0.000, 0.000, 0.000, 15:53:51.922
24, -108.25, 20.41, 4.04, 7.65, 0.000, 0.000, 0.000, 15:53:51.922
25, -476.82, 1.49, 17.17, 16.66, 0.000, 0.000, 0.000, 15:53:51.922
26, 140.28, 5.68, 13.26, 15.40, 0.000, 0.000, 0.000, 15:53:51.923
27, 106.17, 8.48, 5.92, 7.52, 0.000, 0.000, 0.000, 15:53:51.942
28, -496.38, 10.01, 8.89, 9.44, 0.000, 0.000, 0.000, 15:53:51.942
29, -71.51, 0.44, 17.08, 16.58, 0.000, 0.000, 0.000, 15:53:51.943
30, 239.37, 8.46, 8.87, 8.44, 0.000, 0.000, 0.000, 15:53:51.943
31, -381.74, 12.35, 8.58, 3.87, 0.000, 0.000, 0.000, 15:53:51.945
32, -293.09, -0.62, 11.70, 16.61, 0.000, 0.000, 0.000, 15:53:51.945
33, 251.99, 8.73, 11.20, 10.67, 0.000, 0.000, 0.000, 15:53:51.965
34, -119.99, 8.99, 5.41, 7.17, 0.000, 0.000, 0.000, 15:53:51.966
35, -486.15, 8.05, 15.40, 15.38, 0.000, 0.000, 0.000, 15:53:51.966
36, 147.01, 6.42, 14.83, 15.40, 0.000, 0.000, 0.000, 15:53:51.966
37, 100.62, 12.08, 7.42, 6.70, 0.000, 0.000, 0.000, 15:53:51.987
38, -512.98, 6.65, 12.43, 7.16, 0.000, 0.000, 0.000, 15:53:51.987
39, -85.18, 5.25, 12.84, 14.71, 0.000, 0.000, 0.000, 15:53:51.988
40, 259.61, 9.84, 11.15, 10.02, 0.000, 0.000, 0.000, 15:53:51.988
41, -368.26, 12.24, 8.58, 5.68, 0.000, 0.000, 0.000, 15:53:52.009
42, -305.34, 7.83, 17.24, 14.36, 0.000, 0.000, 0.000, 15:53:52.010
43, 254.71, -1.31, 13.13, 12.64, 0.000, 0.000, 0.000, 15:53:52.010
44, -121.05, 12.28, 3.54, 7.25, 0.000, 0.000, 0.000, 15:53:52.010
45, -496.12, 3.21, 13.79, 18.53, 0.000, 0.000, 0.000, 15:53:52.077
46, 152.38, 6.46, 13.30, 15.74, 0.000, 0.000, 0.000, 15:53:52.077
47, 106.00, 11.39, 11.48, 11.78, 0.000, 0.000, 0.000, 15:53:52.077
48, -503.41, 11.85, 8.08, 8.98, 0.000, 0.000, 0.000, 15:53:52.078
49, -68.54, 5.36, 18.96, 15.58, 0.000, 0.000, 0.000, 15:53:52.078
50, 240.36, 9.53, 9.66, 12.24, 0.000, 0.000, 0.000, 15:53:52.078
51, -374.57, 6.51, 1.59, 9.04, 0.000, 0.000, 0.000, 15:53:52.099
52, -310.15, 6.63, 13.85, 12.00, 0.000, 0.000, 0.000, 15:53:52.100
53, 240.92, 9.00, 11.25, 9.74, 0.000, 0.000, 0.000, 15:53:52.100
54, -127.38, 11.44, 7.17, 5.82, 0.000, 0.000, 0.000, 15:53:52.100
55, -482.19, 5.61, 13.16, 15.73, 0.000, 0.000, 0.000, 15:53:52.101
56, 154.84, 6.74, 12.65, 13.17, 0.000, 0.000, 0.000, 15:53:52.101
57, 109.41, 13.42, 6.15, 8.51, 0.000, 0.000, 0.000, 15:53:52.122
58, -504.65, 10.15, 9.69, 10.09, 0.000, 0.000, 0.000, 15:53:52.122
59, -69.11, 4.48, 16.26, 15.39, 0.000, 0.000, 0.000, 15:53:52.122
60, 240.35, 7.17, 10.57, 13.85, 0.000, 0.000, 0.000, 15:53:52.122
61, -381.92, 15.89, 6.36, 10.35, 0.000, 0.000, 0.000, 15:53:52.123
62, -305.60, 3.03, 13.40, 20.05, 0.000, 0.000, 0.000, 15:53:52.123
63, 250.20, 6.10, 11.38, 16.43, 0.000, 0.000, 0.000, 15:53:52.144
64, -125.40, 9.82, 4.12, 7.40, 0.000, 0.000, 0.000, 15:53:52.145
65, -485.28, 1.62, 13.39, 10.97, 0.000, 0.000, 0.000, 15:53:52.145
66, 155.35, 9.39, 7.29, 14.95, 0.000, 0.000, 0.000, 15:53:52.145
67, 106.28, 13.98, 7.70, 11.74, 0.000, 0.000, 0.000, 15:53:52.146
68, -510.93, 12.80, 10.35, 13.30, 0.000, 0.000, 0.000, 15:53:52.146
69, -65.33, 5.02, 15.86, 18.15, 0.000, 0.000, 0.000, 15:53:52.168
70, 242.60, 12.13, 13.74, 13.60, 0.000, 0.000, 0.000, 15:53:52.168
71, -379.31, 17.69, 5.87, 4.01, 0.000, 0.000, 0.000, 15:53:52.168
72, -302.80, 1.97, 14.33, 15.43, 0.000, 0.000, 0.000, 15:53:52.168
73, 259.11, 7.55, 13.53, 13.68, 0.000, 0.000, 0.000, 15:53:52.169
74, -126.73, 7.90, 8.87, 6.69, 0.000, 0.000, 0.000, 15:53:52.169
75, -480.81, 7.02, 10.45, 12.78, 0.000, 0.000, 0.000, 15:53:52.189
76, 156.59, 9.10, 12.87, 13.12, 0.000, 0.000, 0.000, 15:53:52.190
77, 88.10, 13.06, 11.27, 3.64, 0.000, 0.000, 0.000, 15:53:52.190
78, -509.49, 6.40, 12.72, 8.39, 0.000, 0.000, 0.000, 15:53:52.190
79, -38.99, 0.58, 16.36, 13.12, 0.000, 0.000, 0.000, 15:53:52.191
80, 259.77, 8.97, 11.90, 6.27, 0.000, 0.000, 0.000, 15:53:52.191
81, -372.74, 12.68, 9.72, 10.20, 0.000, 0.000, 0.000, 15:53:52.212
82, -302.12, 1.96, 16.09, 19.25, 0.000, 0.000, 0.000, 15:53:52.212
83, 252.04, 6.12, 11.22, 14.60, 0.000, 0.000, 0.000, 15:53:52.212
84, -126.73, 10.61, 4.36, 5.40, 0.000, 0.000, 0.000, 15:53:52.212
85, -486.01, 7.67, 12.98, 15.60, 0.000, 0.000, 0.000, 15:53:52.213
86, 148.60, 4.62, 14.64, 16.33, 0.000, 0.000, 0.000, 15:53:52.213
87, 102.34, 16.38, 7.20, 13.34, 0.000, 0.000, 0.000, 15:53:52.235
88, -506.54, 10.05, 7.55, 13.35, 0.000, 0.000, 0.000, 15:53:52.235
89, -59.48, 3.80, 14.95, 19.99, 0.000, 0.000, 0.000, 15:53:52.235
90, 239.47, 5.39, 9.10, 4.62, 0.000, 0.000, 0.000, 15:53:52.235
91, -387.63, 13.29, 5.31, 6.32, 0.000, 0.000, 0.000, 15:53:52.257
92, -305.21, -0.06, 18.66, 18.10, 0.000, 0.000, 0.000, 15:53:52.257
93, 249.75, 8.77, 9.43, 12.83, 0.000, 0.000, 0.000, 15:53:52.257
94, -137.06, 9.78, 5.41, 10.00, 0.000, 0.000, 0.000, 15:53:52.257
95, -485.26, 2.90, 15.50, 14.70, 0.000, 0.000, 0.000, 15:53:52.279
96, 149.87, 10.51, 16.36, 11.63, 0.000, 0.000, 0.000, 15:53:52.280
97, 91.11, 5.34, 9.66, 8.40, 0.000, 0.000, 0.000, 15:53:52.280
98, -507.94, 10.32, 8.79, 8.21, 0.000, 0.000, 0.000, 15:53:52.280
99, -61.10, 1.91, 12.68, 16.46, 0.000, 0.000, 0.000, 15:53:52.302
100, 249.75, 12.82, 10.20, 8.63, 0.000, 0.000, 0.000, 15:53:52.302
101, -393.35, 16.72, 6.53, 10.22, 0.000, 0.000, 0.000, 15:53:52.302
102, -314.44, 5.51, 20.42, 16.51, 0.000, 0.000, 0.000, 15:53:52.303
103, 250.03, 5.32, 11.05, 14.65, 0.000, 0.000, 0.000, 15:53:52.303
104, -120.53, 13.33, 4.28, 6.09, 0.000, 0.000, 0.000, 15:53:52.303
105, -470.23, 4.97, 15.95, 14.08, 0.000, 0.000, 0.000, 15:53:52.324
106, 159.49, 5.84, 10.70, 12.54, 0.000, 0.000, 0.000, 15:53:52.324
107, 97.49, 12.79, 7.00, 7.22, 0.000, 0.000, 0.000, 15:53:52.325
108, -510.80, 8.73, 10.60, 11.77, 0.000, 0.000, 0.000, 15:53:52.325
109, -24.13, 3.05, 16.03, 18.90, 0.000, 0.000, 0.000, 15:53:52.347
110, 283.37, 7.04, 8.38, 8.85, 0.000, 0.000, 0.000, 15:53:52.347
111, -348.63, 12.75, 6.48, 10.31, 0.000, 0.000, 0.000, 15:53:52.347
112, -268.69, 2.57, 17.10, 20.75, 0.000, 0.000, 0.000, 15:53:52.347
113, 263.70, 8.23, 14.62, 15.66, 0.000, 0.000, 0.000, 15:53:52.370
114, -141.18, 22.81, 5.16, 5.35, 0.000, 0.000, 0.000, 15:53:52.370
115, -504.70, -1.23, 12.64, 12.36, 0.000, 0.000, 0.000, 15:53:52.370
116, 127.52, 9.03, 15.81, 14.06, 0.000, 0.000, 0.000, 15:53:52.371
117, 69.38, 13.77, 5.97, 6.53, 0.000, 0.000, 0.000, 15:53:52.392
118, -542.72, 9.27, 9.53, 10.70, 0.000, 0.000, 0.000, 15:53:52.392
119, -81.42, 2.68, 17.00, 16.32, 0.000, 0.000, 0.000, 15:53:52.392
120, 232.90, 10.68, 7.90, 12.93, 0.000, 0.000, 0.000, 15:53:52.393
121, -389.86, 9.62, 7.66, 7.91, 0.000, 0.000, 0.000, 15:53:52.393
122, -305.88, 3.60, 16.94, 14.95, 0.000, 0.000, 0.000, 15:53:52.393
123, 254.64, 8.75, 10.59, 9.12, 0.000, 0.000, 0.000, 15:53:52.414
124, -123.52, 12.04, 5.28, 4.87, 0.000, 0.000, 0.000, 15:53:52.415
125, -476.20, 3.36, 12.13, 15.11, 0.000, 0.000, 0.000, 15:53:52.415
126, 167.18, 8.31, 14.38, 12.98, 0.000, 0.000, 0.000, 15:53:52.415
127, 105.20, 9.01, 5.47, 9.20, 0.000, 0.000, 0.000, 15:53:52.437
128, -516.34, 11.28, 8.81, 11.29, 0.000, 0.000, 0.000, 15:53:52.437
129, -61.98, 5.63, 14.27, 15.41, 0.000, 0.000, 0.000, 15:53:52.437
130, 256.77, 6.65, 10.82, 9.91, 0.000, 0.000, 0.000, 15:53:52.438
131, -381.12, 11.30, 4.32, 8.40, 0.000, 0.000, 0.000, 15:53:52.459
132, -291.72, 7.63, 20.84, 16.45, 0.000, 0.000, 0.000, 15:53:52.460
133, 253.36, 5.22, 13.64, 13.99, 0.000, 0.000, 0.000, 15:53:52.460
134, -126.37, 12.73, 6.83, 5.08, 0.000, 0.000, 0.000, 15:53:52.460
135, -468.30, 2.66, 15.75, 17.99, 0.000, 0.000, 0.000, 15:53:52.482
136, 167.03, 7.24, 15.78, 16.28, 0.000, 0.000, 0.000, 15:53:52.482
137, 98.53, 8.55, 1.22, 8.21, 0.000, 0.000, 0.000, 15:53:52.482
138, -507.85, 10.24, 9.26, 7.95, 0.000, 0.000, 0.000, 15:53:52.482
139, -72.06, 1.66, 16.03, 18.37, 0.000, 0.000, 0.000, 15:53:52.483
140, 252.05, 11.42, 13.11, 11.53, 0.000, 0.000, 0.000, 15:53:52.483
141, -365.75, 17.66, 11.88, 7.09, 0.000, 0.000, 0.000, 15:53:52.504
142, -287.01, 1.44, 16.03, 14.47, 0.000, 0.000, 0.000, 15:53:52.505
143, 256.66, 7.01, 11.60, 10.75, 0.000, 0.000, 0.000, 15:53:52.505
144, -130.78, 12.12, 3.43, 7.73, 0.000, 0.000, 0.000, 15:53:52.505
145, -482.99, 11.06, 17.61, 16.04, 0.000, 0.000, 0.000, 15:53:52.527
146, 161.13, 8.12, 12.73, 12.01, 0.000, 0.000, 0.000, 15:53:52.527
147, 121.07, 10.85, 10.34, 6.53, 0.000, 0.000, 0.000, 15:53:52.527
148, -499.18, 10.75, 8.23, 11.32, 0.000, 0.000, 0.000, 15:53:52.528
149, -50.42, 5.22, 14.83, 16.68, 0.000, 0.000, 0.000, 15:53:52.549
150, 249.17, 13.09, 7.67, 7.94, 0.000, 0.000, 0.000, 15:53:52.549
151, -375.05, 4.12, 5.99, 9.11, 0.000, 0.000, 0.000, 15:53:52.550
152, -281.60, -0.30, 15.49, 18.58, 0.000, 0.000, 0.000, 15:53:52.550
153, 264.50, 9.06, 10.58, 12.19, 0.000, 0.000, 0.000, 15:53:52.572
154, -134.09, 15.77, 6.58, 7.49, 0.000, 0.000, 0.000, 15:53:52.572
155, -468.97, 4.19, 16.56, 14.49, 0.000, 0.000, 0.000, 15:53:52.572
156, 168.65, 7.09, 9.84, 11.21, 0.000, 0.000, 0.000, 15:53:52.572
157, 93.19, 11.06, 9.02, 9.75, 0.000, 0.000, 0.000, 15:53:52.573
158, -499.28, 8.25, 10.10, 15.91, 0.000, 0.000, 0.000, 15:53:52.573
159, -41.17, 4.16, 17.75, 14.08, 0.000, 0.000, 0.000, 15:53:52.594
160, 251.36, 7.08, 9.45, 14.77, 0.000, 0.000, 0.000, 15:53:52.595
161, -381.56, 12.20, 9.54, 5.05, 0.000, 0.000, 0.000, 15:53:52.595
162, -279.77, 3.10, 14.17, 19.21, 0.000, 0.000, 0.000, 15:53:52.595
163, 261.07, 9.40, 11.45, 12.97, 0.000, 0.000, 0.000, 15:53:52.617
164, -129.75, 11.97, 3.71, 5.70, 0.000, 0.000, 0.000, 15:53:52.617
165, -466.40, 5.32, 13.18, 16.26, 0.000, 0.000, 0.000, 15:53:52.617
166, 169.70, 4.33, 12.57, 13.16, 0.000, 0.000, 0.000, 15:53:52.617
167, 96.63, 14.30, 10.54, 10.78, 0.000, 0.000, 0.000, 15:53:52.639
168, -511.89, 13.48, 6.74, 8.44, 0.000, 0.000, 0.000, 15:53:52.639
169, -58.64, -3.27, 15.52, 16.30, 0.000, 0.000, 0.000, 15:53:52.640
170, 234.26, 10.22, 6.50, 11.40, 0.000, 0.000, 0.000, 15:53:52.640
171, -391.74, 12.29, 3.72, 9.39, 0.000, 0.000, 0.000, 15:53:52.662
172, -298.36, 3.54, 17.00, 16.97, 0.000, 0.000, 0.000, 15:53:52.662
173, 259.02, 7.34, 10.39, 12.58, 0.000, 0.000, 0.000, 15:53:52.662
174, -151.25, 17.52, 4.30, 5.68, 0.000, 0.000, 0.000, 15:53:52.663
175, -488.77, 5.61, 13.60, 11.93, 0.000, 0.000, 0.000, 15:53:52.663
176, 159.90, 6.84, 15.08, 11.84, 0.000, 0.000, 0.000, 15:53:52.663
177, 89.86, 15.84, 6.89, 12.37, 0.000, 0.000, 0.000, 15:53:52.684
178, -517.06, 3.58, 7.58, 11.42, 0.000, 0.000, 0.000, 15:53:52.685
179, -71.87, 4.31, 15.55, 13.52, 0.000, 0.000, 0.000, 15:53:52.685
180, 229.22, 9.88, 11.64, 8.34, 0.000, 0.000, 0.000, 15:53:52.685
181, -388.89, 17.43, 7.37, 10.15, 0.000, 0.000, 0.000, 15:53:52.707
182, -298.45, 3.35, 16.29, 18.06, 0.000, 0.000, 0.000, 15:53:52.707
183, 248.89, 11.75, 11.03, 12.66, 0.000, 0.000, 0.000, 15:53:52.707
184, -154.10, 9.89, 7.46, 7.29, 0.000, 0.000, 0.000, 15:53:52.708
185, -482.06, 1.76, 14.67, 13.78, 0.000, 0.000, 0.000, 15:53:52.729
186, 157.83, 7.91, 11.02, 17.94, 0.000, 0.000, 0.000, 15:53:52.729
187, 81.18, 6.75, 7.05, 6.47, 0.000, 0.000, 0.000, 15:53:52.730
188, -518.65, 6.43, 7.61, 9.18, 0.000, 0.000, 0.000, 15:53:52.730
189, -57.29, 4.47, 16.56, 12.97, 0.000, 0.000, 0.000, 15:53:52.752
190, 234.79, 9.78, 9.55, 12.94, 0.000, 0.000, 0.000, 15:53:52.752
191, -401.11, 9.50, 7.56, 7.56, 0.000, 0.000, 0.000, 15:53:52.753
192, -291.79, 2.52, 17.64, 17.68, 0.000, 0.000, 0.000, 15:53:52.753
193, 242.91, 9.19, 10.25, 15.43, 0.000, 0.000, 0.000, 15:53:52.754
