%OpenBCI Raw EEG Data
%
%Sample Rate = 200.0 Hz
%First Column = SampleIndex
%Last Column = Timestamp 
%Other Columns = EEG data in microvolts followed by Accel Data (in G) interleaved with Aux Data
0, 354.04, 11.02, 1.31, 5.84, 0.000, 0.000, 0.000, 15:04:56.211
1, -477.42, 6.11, 9.89, 15.85, 0.000, 0.000, 0.000, 15:04:56.215
2, 3.29, 4.69, 14.45, 16.36, 0.000, 0.000, 0.000, 15:04:56.216
3, 498.06, 16.42, 4.70, 12.59, 0.000, 0.000, 0.000, 15:04:56.231
4, -264.52, 3.92, 10.13, 9.45, 0.000, 0.000, 0.000, 15:04:56.232
5, -299.30, 4.74, 19.99, 17.55, 0.000, 0.000, 0.000, 15:04:56.232
6, 473.97, 9.61, 10.80, 11.41, 0.000, 0.000, 0.000, 15:04:56.233
7, 74.47, 14.77, 5.66, 5.65, 0.000, 0.000, 0.000, 15:04:56.254
8, -489.83, 0.79, 16.33, 17.96, 0.000, 0.000, 0.000, 15:04:56.254
9, 308.18, 8.68, 13.97, 7.93, 0.000, 0.000, 0.000, 15:04:56.255
10, 349.33, 14.28, 8.55, 13.28, 0.000, 0.000, 0.000, 15:04:56.255
11, -470.06, 8.81, 12.85, 10.32, 0.000, 0.000, 0.000, 15:04:56.277
12, 9.71, 11.71, 14.12, 12.30, 0.000, 0.000, 0.000, 15:04:56.277
13, 491.12, 7.38, 6.66, 13.47, 0.000, 0.000, 0.000, 15:04:56.280
14, -246.74, 12.66, 6.64, 6.13, 0.000, 0.000, 0.000, 15:04:56.281
15, -325.69, 1.70, 17.80, 13.24, 0.000, 0.000, 0.000, 15:04:56.300
16, 495.42, 11.63, 10.93, 13.09, 0.000, 0.000, 0.000, 15:04:56.302
17, 66.94, 15.35, 9.12, 4.39, 0.000, 0.000, 0.000, 15:04:56.302
18, -471.17, 5.44, 15.75, 13.90, 0.000, 0.000, 0.000, 15:04:56.303
19, 303.07, 10.47, 10.25, 12.75, 0.000, 0.000, 0.000, 15:04:56.303
20, 372.87, 9.17, 10.99, 11.43, 0.000, 0.000, 0.000, 15:04:56.304
21, -471.81, 8.73, 10.27, 12.41, 0.000, 0.000, 0.000, 15:04:56.321
22, 10.32, -0.39, 16.41, 15.84, 0.000, 0.000, 0.000, 15:04:56.322
23, 508.26, 9.02, 9.75, 11.55, 0.000, 0.000, 0.000, 15:04:56.322
24, -249.96, 9.43, 4.36, 10.36, 0.000, 0.000, 0.000, 15:04:56.323
25, -291.83, 3.34, 14.51, 13.73, 0.000, 0.000, 0.000, 15:04:56.345
26, 473.39, 9.73, 12.24, 10.88, 0.000, 0.000, 0.000, 15:04:56.346
27, 67.29, 12.70, 5.94, 8.35, 0.000, 0.000, 0.000, 15:04:56.346
28, -476.27, 2.99, 15.39, 17.07, 0.000, 0.000, 0.000, 15:04:56.346
29, 272.49, 7.56, 9.90, 13.95, 0.000, 0.000, 0.000, 15:04:56.366
30, 367.75, 19.15, 8.44, 6.35, 0.000, 0.000, 0.000, 15:04:56.367
31, -469.43, 5.31, 14.19, 13.02, 0.000, 0.000, 0.000, 15:04:56.367
32, -7.34, 7.40, 13.47, 16.71, 0.000, 0.000, 0.000, 15:04:56.367
33, 510.90, 11.37, 11.66, 11.14, 0.000, 0.000, 0.000, 15:04:56.389
34, -273.58, 9.88, 7.19, 10.98, 0.000, 0.000, 0.000, 15:04:56.389
35, -288.03, 2.58, 17.18, 17.65, 0.000, 0.000, 0.000, 15:04:56.390
36, 457.30, 8.56, 10.37, 11.73, 0.000, 0.000, 0.000, 15:04:56.390
37, 83.79, 16.04, 9.27, 5.78, 0.000, 0.000, 0.000, 15:04:56.391
38, -505.88, 3.68, 11.92, 15.36, 0.000, 0.000, 0.000, 15:04:56.391
39, 307.38, 9.76, 15.29, 15.76, 0.000, 0.000, 0.000, 15:04:56.412
40, 321.66, 8.12, 7.14, 11.97, 0.000, 0.000, 0.000, 15:04:56.413
41, -449.49, 10.57, 11.26, 10.74, 0.000, 0.000, 0.000, 15:04:56.413
42, -15.84, 4.82, 13.53, 17.17, 0.000, 0.000, 0.000, 15:04:56.413
43, 517.21, 8.78, 8.39, 10.51, 0.000, 0.000, 0.000, 15:04:56.456
44, -265.50, 11.00, 11.07, 9.90, 0.000, 0.000, 0.000, 15:04:56.457
45, -290.41, 5.49, 13.27, 15.00, 0.000, 0.000, 0.000, 15:04:56.457
46, 462.88, 10.46, 10.20, 14.01, 0.000, 0.000, 0.000, 15:04:56.458
47, 82.23, 11.79, 5.99, 7.50, 0.000, 0.000, 0.000, 15:04:56.458
48, -484.91, 1.25, 15.34, 14.48, 0.000, 0.000, 0.000, 15:04:56.458
49, 296.77, 15.35, 14.12, 12.03, 0.000, 0.000, 0.000, 15:04:56.459
50, 368.29, 9.69, 8.81, 10.67, 0.000, 0.000, 0.000, 15:04:56.459
51, -471.79, 7.55, 12.87, 14.58, 0.000, 0.000, 0.000, 15:04:56.479
52, 26.94, 2.49, 13.73, 11.98, 0.000, 0.000, 0.000, 15:04:56.479
53, 518.65, 9.64, 8.55, 10.89, 0.000, 0.000, 0.000, 15:04:56.480
54, -235.77, 11.95, 4.55, 10.46, 0.000, 0.000, 0.000, 15:04:56.480
55, -278.39, 0.94, 13.48, 17.25, 0.000, 0.000, 0.000, 15:04:56.480
56, 461.92, 10.81, 11.17, 13.11, 0.000, 0.000, 0.000, 15:04:56.481
57, 64.23, 22.77, 5.44, 4.86, 0.000, 0.000, 0.000, 15:04:56.501
58, -494.79, -0.33, 14.69, 12.84, 0.000, 0.000, 0.000, 15:04:56.501
59, 280.88, 9.70, 13.67, 11.41, 0.000, 0.000, 0.000, 15:04:56.502
60, 335.19, 13.65, 7.35, 7.47, 0.000, 0.000, 0.000, 15:04:56.502
61, -487.88, 12.96, 13.89, 14.82, 0.000, 0.000, 0.000, 15:04:56.524
62, 5.07, 0.25, 14.86, 17.21, 0.000, 0.000, 0.000, 15:04:56.524
63, 488.51, 9.11, 9.64, 12.61, 0.000, 0.000, 0.000, 15:04:56.524
64, -281.10, 11.24, 4.30, 6.86, 0.000, 0.000, 0.000, 15:04:56.525
65, -283.65, 6.64, 17.11, 15.79, 0.000, 0.000, 0.000, 15:04:56.546
66, 483.56, 14.33, 8.06, 10.22, 0.000, 0.000, 0.000, 15:04:56.546
67, 68.19, 10.92, 4.64, 8.64, 0.000, 0.000, 0.000, 15:04:56.569
68, -478.05, 0.85, 14.97, 13.98, 0.000, 0.000, 0.000, 15:04:56.569
69, 315.54, 9.20, 9.60, 14.91, 0.000, 0.000, 0.000, 15:04:56.570
70, 363.12, 11.88, 14.61, 9.23, 0.000, 0.000, 0.000, 15:04:56.570
71, -468.50, 6.44, 15.98, 14.19, 0.000, 0.000, 0.000, 15:04:56.570
72, 16.20, 3.26, 16.47, 14.19, 0.000, 0.000, 0.000, 15:04:56.571
73, 507.68, 11.24, 6.42, 11.81, 0.000, 0.000, 0.000, 15:04:56.571
74, -255.81, 9.52, 8.58, 4.57, 0.000, 0.000, 0.000, 15:04:56.571
75, -288.06, 3.55, 13.91, 16.11, 0.000, 0.000, 0.000, 15:04:56.591
76, 480.22, 7.82, 7.98, 13.94, 0.000, 0.000, 0.000, 15:04:56.592
77, 64.31, 14.10, 10.16, 8.55, 0.000, 0.000, 0.000, 15:04:56.592
78, -498.06, 4.02, 13.92, 21.89, 0.000, 0.000, 0.000, 15:04:56.592
79, 307.24, 8.23, 10.38, 11.65, 0.000, 0.000, 0.000, 15:04:56.614
80, 347.45, 10.38, 7.15, 10.88, 0.000, 0.000, 0.000, 15:04:56.614
81, -493.04, 10.14, 11.65, 15.45, 0.000, 0.000, 0.000, 15:04:56.615
82, 23.12, 6.39, 14.06, 10.38, 0.000, 0.000, 0.000, 15:04:56.615
83, 501.80, 13.69, 8.22, 6.19, 0.000, 0.000, 0.000, 15:04:56.637
84, -259.86, 14.64, 4.87, 8.73, 0.000, 0.000, 0.000, 15:04:56.637
85, -290.35, -3.42, 15.66, 16.60, 0.000, 0.000, 0.000, 15:04:56.637
86, 477.41, 7.37, 9.79, 10.53, 0.000, 0.000, 0.000, 15:04:56.638
87, 75.30, 12.72, 7.85, 5.02, 0.000, 0.000, 0.000, 15:04:56.659
88, -490.00, 1.32, 14.16, 14.90, 0.000, 0.000, 0.000, 15:04:56.659
89, 313.76, 3.34, 15.25, 12.37, 0.000, 0.000, 0.000, 15:04:56.660
90, 353.38, 15.07, 8.07, 6.57, 0.000, 0.000, 0.000, 15:04:56.660
91, -474.44, 10.67, 11.72, 11.03, 0.000, 0.000, 0.000, 15:04:56.661
92, 17.12, 6.52, 15.67, 20.62, 0.000, 0.000, 0.000, 15:04:56.661
93, 511.15, 16.99, 7.14, 9.38, 0.000, 0.000, 0.000, 15:04:56.681
94, -243.92, 7.63, 8.30, 8.18, 0.000, 0.000, 0.000, 15:04:56.682
95, -295.76, -1.57, 15.38, 16.17, 0.000, 0.000, 0.000, 15:04:56.683
96, 485.84, 10.23, 8.75, 11.83, 0.000, 0.000, 0.000, 15:04:56.683
97, 80.96, 13.72, 9.67, 6.93, 0.000, 0.000, 0.000, 15:04:56.704
98, -480.83, 9.55, 19.20, 18.72, 0.000, 0.000, 0.000, 15:04:56.704
99, 308.84, 5.49, 12.17, 12.39, 0.000, 0.000, 0.000, 15:04:56.705
100, 367.24, 15.22, 8.53, 8.43, 0.000, 0.000, 0.000, 15:04:56.705
101, -478.23, 9.65, 12.24, 11.98, 0.000, 0.000, 0.000, 15:04:56.726
102, 20.02, 6.46, 14.73, 10.44, 0.000, 0.000, 0.000, 15:04:56.726
103, 502.91, 4.96, 11.73, 8.30, 0.000, 0.000, 0.000, 15:04:56.727
104, -257.80, 12.08, 5.94, 11.25, 0.000, 0.000, 0.000, 15:04:56.727
105, -303.50, 0.72, 14.49, 22.00, 0.000, 0.000, 0.000, 15:04:56.749
106, 469.42, 11.69, 5.54, 11.95, 0.000, 0.000, 0.000, 15:04:56.749
107, 67.40, 12.96, 9.54, 7.65, 0.000, 0.000, 0.000, 15:04:56.750
108, -483.82, 4.49, 13.00, 11.96, 0.000, 0.000, 0.000, 15:04:56.750
109, 295.25, 8.21, 13.61, 9.41, 0.000, 0.000, 0.000, 15:04:56.751
110, 364.92, 16.75, 7.34, 8.26, 0.000, 0.000, 0.000, 15:04:56.751
111, -481.45, 9.05, 12.90, 14.33, 0.000, 0.000, 0.000, 15:04:56.771
112, -4.92, -2.82, 19.62, 14.62, 0.000, 0.000, 0.000, 15:04:56.772
113, 503.88, 14.37, 8.86, 11.31, 0.000, 0.000, 0.000, 15:04:56.772
114, -269.57, 12.06, 12.55, 10.33, 0.000, 0.000, 0.000, 15:04:56.772
115, -298.86, 7.25, 19.72, 14.00, 0.000, 0.000, 0.000, 15:04:56.794
116, 483.77, 7.87, 8.17, 11.44, 0.000, 0.000, 0.000, 15:04:56.794
117, 61.02, 13.31, 2.08, 4.90, 0.000, 0.000, 0.000, 15:04:56.794
118, -476.12, 4.34, 12.05, 15.88, 0.000, 0.000, 0.000, 15:04:56.795
119, 286.52, 0.47, 10.78, 14.10, 0.000, 0.000, 0.000, 15:04:56.816
120, 352.55, 14.51, 7.26, 6.98, 0.000, 0.000, 0.000, 15:04:56.817
121, -476.48, 2.07, 14.46, 9.55, 0.000, 0.000, 0.000, 15:04:56.817
122, 4.70, 4.45, 15.49, 18.30, 0.000, 0.000, 0.000, 15:04:56.818
123, 504.87, 9.69, 7.78, 10.25, 0.000, 0.000, 0.000, 15:04:56.839
124, -263.64, 11.26, 8.28, 7.84, 0.000, 0.000, 0.000, 15:04:56.839
125, -291.38, 1.32, 14.17, 15.93, 0.000, 0.000, 0.000, 15:04:56.842
126, 469.31, 10.80, 10.28, 13.16, 0.000, 0.000, 0.000, 15:04:56.842
127, 66.96, 11.85, 3.73, 12.45, 0.000, 0.000, 0.000, 15:04:56.844
128, -494.79, 4.62, 18.23, 19.37, 0.000, 0.000, 0.000, 15:04:56.844
129, 292.72, 8.45, 10.33, 13.04, 0.000, 0.000, 0.000, 15:04:56.863
130, 356.74, 7.08, 2.58, 9.53, 0.000, 0.000, 0.000, 15:04:56.863
131, -474.17, 8.81, 10.42, 15.20, 0.000, 0.000, 0.000, 15:04:56.864
132, 7.74, 4.21, 13.57, 14.89, 0.000, 0.000, 0.000, 15:04:56.864
133, 497.36, 14.47, 13.72, 8.93, 0.000, 0.000, 0.000, 15:04:56.884
134, -271.66, 13.98, 7.35, 8.70, 0.000, 0.000, 0.000, 15:04:56.885
135, -293.52, 6.96, 16.01, 13.01, 0.000, 0.000, 0.000, 15:04:56.885
136, 461.86, 10.97, 7.64, 9.66, 0.000, 0.000, 0.000, 15:04:56.885
137, 71.33, 16.26, 7.52, 9.11, 0.000, 0.000, 0.000, 15:04:56.906
138, -488.71, 8.06, 17.38, 11.34, 0.000, 0.000, 0.000, 15:04:56.906
139, 289.69, 3.41, 10.06, 13.81, 0.000, 0.000, 0.000, 15:04:56.907
140, 357.07, 12.81, 8.38, 9.97, 0.000, 0.000, 0.000, 15:04:56.907
141, -482.28, 5.37, 10.48, 11.92, 0.000, 0.000, 0.000, 15:04:56.929
142, -0.47, 10.58, 13.88, 15.67, 0.000, 0.000, 0.000, 15:04:56.929
143, 509.47, 9.09, 8.69, 8.77, 0.000, 0.000, 0.000, 15:04:56.929
144, -266.37, 12.71, 7.30, 8.16, 0.000, 0.000, 0.000, 15:04:56.930
145, -299.13, -0.12, 17.36, 16.94, 0.000, 0.000, 0.000, 15:04:56.930
146, 485.24, 9.77, 12.06, 10.24, 0.000, 0.000, 0.000, 15:04:56.930
147, 59.44, 20.87, 5.31, 8.73, 0.000, 0.000, 0.000, 15:04:56.951
148, -480.82, 2.86, 14.39, 13.77, 0.000, 0.000, 0.000, 15:04:56.952
149, 301.19, 8.94, 12.55, 14.42, 0.000, 0.000, 0.000, 15:04:56.952
150, 343.60, 10.94, 5.50, 8.47, 0.000, 0.000, 0.000, 15:04:56.952
151, -467.69, 9.62, 12.95, 10.87, 0.000, 0.000, 0.000, 15:04:56.974
152, 0.54, 4.50, 11.89, 19.28, 0.000, 0.000, 0.000, 15:04:56.974
153, 517.65, 13.55, 7.89, 12.60, 0.000, 0.000, 0.000, 15:04:56.975
154, -265.23, 12.01, 8.30, 6.86, 0.000, 0.000, 0.000, 15:04:56.975
155, -293.72, -0.05, 19.77, 20.84, 0.000, 0.000, 0.000, 15:04:56.996
156, 484.28, 13.06, 8.08, 10.81, 0.000, 0.000, 0.000, 15:04:56.996
157, 72.47, 5.85, 5.26, 8.22, 0.000, 0.000, 0.000, 15:04:56.997
158, -485.20, 5.32, 17.27, 15.43, 0.000, 0.000, 0.000, 15:04:56.997
159, 307.76, 9.86, 11.91, 12.42, 0.000, 0.000, 0.000, 15:04:57.019
160, 360.08, 13.41, 6.01, 6.93, 0.000, 0.000, 0.000, 15:04:57.019
161, -461.74, 10.45, 14.41, 12.25, 0.000, 0.000, 0.000, 15:04:57.020
162, 13.93, 6.20, 14.13, 18.75, 0.000, 0.000, 0.000, 15:04:57.020
163, 493.00, 11.04, 11.19, 11.65, 0.000, 0.000, 0.000, 15:04:57.021
164, -266.55, 9.73, 9.35, 10.11, 0.000, 0.000, 0.000, 15:04:57.022
165, -290.48, 1.64, 17.10, 17.39, 0.000, 0.000, 0.000, 15:04:57.041
166, 470.95, 6.98, 6.88, 15.52, 0.000, 0.000, 0.000, 15:04:57.042
167, 76.51, 13.21, 5.08, 7.20, 0.000, 0.000, 0.000, 15:04:57.065
168, -472.84, 1.87, 15.69, 16.05, 0.000, 0.000, 0.000, 15:04:57.066
169, 289.70, 8.04, 11.99, 8.43, 0.000, 0.000, 0.000, 15:04:57.066
170, 351.03, 13.49, 5.64, 10.42, 0.000, 0.000, 0.000, 15:04:57.066
171, -505.29, 9.83, 9.16, 9.83, 0.000, 0.000, 0.000, 15:04:57.067
172, 5.65, 5.14, 15.63, 14.49, 0.000, 0.000, 0.000, 15:04:57.067
173, 511.11, 12.08, 7.98, 10.75, 0.000, 0.000, 0.000, 15:04:57.086
174, -254.94, 17.26, 8.89, 7.11, 0.000, 0.000, 0.000, 15:04:57.087
175, -301.51, -6.71, 16.61, 13.06, 0.000, 0.000, 0.000, 15:04:57.087
176, 467.57, 11.26, 9.94, 10.00, 0.000, 0.000, 0.000, 15:04:57.087
177, 66.30, 16.21, 8.35, 9.72, 0.000, 0.000, 0.000, 15:04:57.109
178, -511.28, 7.16, 20.09, 15.38, 0.000, 0.000, 0.000, 15:04:57.109
179, 300.40, 7.12, 11.25, 12.13, 0.000, 0.000, 0.000, 15:04:57.110
180, 348.63, 11.57, 9.65, 7.15, 0.000, 0.000, 0.000, 15:04:57.110
181, -484.26, 6.23, 10.03, 11.13, 0.000, 0.000, 0.000, 15:04:57.111
182, 1.63, 0.92, 13.87, 14.41, 0.000, 0.000, 0.000, 15:04:57.111
183, 511.26, 17.82, 9.21, 8.36, 0.000, 0.000, 0.000, 15:04:57.132
184, -245.45, 8.51, 11.72, 10.69, 0.000, 0.000, 0.000, 15:04:57.132
185, -296.99, 2.29, 20.36, 13.76, 0.000, 0.000, 0.000, 15:04:57.132
186, 489.61, 11.39, 10.63, 13.72, 0.000, 0.000, 0.000, 15:04:57.133
187, 68.28, 12.44, 5.28, 8.72, 0.000, 0.000, 0.000, 15:04:57.154
188, -489.42, 3.70, 16.22, 18.20, 0.000, 0.000, 0.000, 15:04:57.154
189, 294.13, 7.94, 10.98, 11.71, 0.000, 0.000, 0.000, 15:04:57.155
190, 346.18, 12.69, 9.72, 10.25, 0.000, 0.000, 0.000, 15:04:57.155
191, -477.29, 14.08, 8.84, 11.93, 0.000, 0.000, 0.000, 15:04:57.177
192, -0.33, 11.23, 10.71, 14.23, 0.000, 0.000, 0.000, 15:04:57.177
193, 496.62, 4.19, 8.56, 8.10, 0.000, 0.000, 0.000, 15:04:57.178
194, -270.57, 9.85, 8.61, 10.59, 0.000, 0.000, 0.000, 15:04:57.178
195, -299.40, 0.58, 17.49, 16.58, 0.000, 0.000, 0.000, 15:04:57.200
196, 478.63, 9.53, 10.97, 14.19, 0.000, 0.000, 0.000, 15:04:57.200
197, 78.10, 13.63, 8.05, 13.71, 0.000, 0.000, 0.000, 15:04:57.200
198, -456.09, 5.45, 17.64, 19.36, 0.000, 0.000, 0.000, 15:04:57.201
199, 309.76, 8.67, 9.42, 10.68, 0.000, 0.000, 0.000, 15:04:57.202
200, 371.42, 11.11, 5.79, 7.65, 0.000, 0.000, 0.000, 15:04:57.202
0, -493.16, 10.82, 8.95, 13.50, 0.000, 0.000, 0.000, 15:04:57.224
1, 63.72, 3.09, 17.62, 15.54, 0.000, 0.000, 0.000, 15:04:57.224
2, 503.00, 9.65, 7.12, 10.82, 0.000, 0.000, 0.000, 15:04:57.225
3, -279.56, 11.03, 4.30, 5.18, 0.000, 0.000, 0.000, 15:04:57.244
4, -306.68, 6.42, 14.09, 16.29, 0.000, 0.000, 0.000, 15:04:57.244
5, 458.56, 8.61, 10.54, 13.23, 0.000, 0.000, 0.000, 15:04:57.245
6, 41.73, 13.52, 7.25, 9.47, 0.000, 0.000, 0.000, 15:04:57.245
7, -480.75, 1.94, 16.38, 15.06, 0.000, 0.000, 0.000, 15:04:57.246
8, 301.60, 7.89, 15.43, 11.63, 0.000, 0.000, 0.000, 15:04:57.246
9, 380.89, 12.40, 6.94, 7.91, 0.000, 0.000, 0.000, 15:04:57.268
10, -481.49, 8.07, 10.23, 11.95, 0.000, 0.000, 0.000, 15:04:57.269
11, -9.00, 3.92, 15.14, 18.28, 0.000, 0.000, 0.000, 15:04:57.269
12, 492.10, 8.66, 9.50, 10.52, 0.000, 0.000, 0.000, 15:04:57.269
13, -258.24, 10.85, 10.98, 9.62, 0.000, 0.000, 0.000, 15:04:57.289
14, -292.66, 1.18, 20.76, 18.21, 0.000, 0.000, 0.000, 15:04:57.289
15, 475.04, 10.56, 11.06, 9.90, 0.000, 0.000, 0.000, 15:04:57.311
16, 49.94, 10.62, 5.42, 10.22, 0.000, 0.000, 0.000, 15:04:57.312
17, -451.45, 5.71, 13.95, 15.07, 0.000, 0.000, 0.000, 15:04:57.312
18, 314.88, 6.68, 12.81, 8.97, 0.000, 0.000, 0.000, 15:04:57.312
19, 354.11, 15.11, 4.55, 7.65, 0.000, 0.000, 0.000, 15:04:57.313
20, -495.31, 9.91, 7.69, 13.56, 0.000, 0.000, 0.000, 15:04:57.313
21, -7.91, 2.84, 15.53, 13.52, 0.000, 0.000, 0.000, 15:04:57.314
22, 546.95, 9.93, 8.33, 5.07, 0.000, 0.000, 0.000, 15:04:57.314
23, -229.38, 11.33, 6.54, 8.32, 0.000, 0.000, 0.000, 15:04:57.334
24, -359.43, 6.23, 16.82, 16.61, 0.000, 0.000, 0.000, 15:04:57.334
25, 475.34, 10.35, 10.90, 16.16, 0.000, 0.000, 0.000, 15:04:57.335
26, 83.03, 15.26, 6.29, 9.91, 0.000, 0.000, 0.000, 15:04:57.335
27, -541.17, 8.13, 14.67, 13.25, 0.000, 0.000, 0.000, 15:04:57.379
28, 288.65, -1.47, 18.02, 11.53, 0.000, 0.000, 0.000, 15:04:57.379
29, 357.40, 12.13, 3.96, 7.04, 0.000, 0.000, 0.000, 15:04:57.380
30, -475.57, 12.06, 7.84, 11.48, 0.000, 0.000, 0.000, 15:04:57.380
31, 35.26, 4.69, 13.69, 13.85, 0.000, 0.000, 0.000, 15:04:57.380
32, 535.22, 7.75, 11.73, 13.82, 0.000, 0.000, 0.000, 15:04:57.381
33, -213.56, 9.43, 8.77, 8.81, 0.000, 0.000, 0.000, 15:04:57.381
34, -283.34, 4.19, 16.45, 17.81, 0.000, 0.000, 0.000, 15:04:57.381
35, 508.15, 8.31, 8.20, 11.74, 0.000, 0.000, 0.000, 15:04:57.401
36, 45.57, 12.95, 6.21, 6.53, 0.000, 0.000, 0.000, 15:04:57.402
37, -499.09, 4.18, 19.47, 18.79, 0.000, 0.000, 0.000, 15:04:57.402
38, 270.37, 5.56, 11.23, 14.87, 0.000, 0.000, 0.000, 15:04:57.402
39, 320.93, 13.04, 3.09, 7.14, 0.000, 0.000, 0.000, 15:04:57.424
40, -490.40, 11.09, 11.85, 13.43, 0.000, 0.000, 0.000, 15:04:57.425
41, 19.91, 3.86, 13.62, 16.28, 0.000, 0.000, 0.000, 15:04:57.425
42, 511.03, 13.18, 7.35, 5.84, 0.000, 0.000, 0.000, 15:04:57.425
43, -285.94, 10.30, 5.40, 10.95, 0.000, 0.000, 0.000, 15:04:57.426
44, -250.88, 0.25, 16.66, 18.71, 0.000, 0.000, 0.000, 15:04:57.426
45, 498.80, 14.29, 8.78, 8.52, 0.000, 0.000, 0.000, 15:04:57.449
46, 78.75, 13.35, 10.06, 6.23, 0.000, 0.000, 0.000, 15:04:57.449
47, -462.73, 4.01, 20.75, 18.49, 0.000, 0.000, 0.000, 15:04:57.450
48, 363.51, 6.01, 12.61, 11.02, 0.000, 0.000, 0.000, 15:04:57.450
49, 339.59, 13.02, 9.17, 9.08, 0.000, 0.000, 0.000, 15:04:57.469
50, -528.58, 10.56, 11.98, 14.65, 0.000, 0.000, 0.000, 15:04:57.469
51, 56.18, 5.17, 16.82, 16.99, 0.000, 0.000, 0.000, 15:04:57.470
52, 501.72, 9.10, 8.68, 11.66, 0.000, 0.000, 0.000, 15:04:57.470
53, -315.82, 11.34, 11.93, 10.46, 0.000, 0.000, 0.000, 15:04:57.514
54, -310.89, 6.43, 19.13, 19.20, 0.000, 0.000, 0.000, 15:04:57.514
55, 459.36, 4.80, 6.20, 9.40, 0.000, 0.000, 0.000, 15:04:57.536
56, 59.34, 11.58, 4.49, 5.88, 0.000, 0.000, 0.000, 15:04:57.537
57, -478.02, 3.00, 16.28, 14.34, 0.000, 0.000, 0.000, 15:04:57.537
58, 318.14, 8.27, 9.79, 11.52, 0.000, 0.000, 0.000, 15:04:57.537
59, 357.26, 14.14, 7.09, 10.76, 0.000, 0.000, 0.000, 15:04:57.538
60, -464.44, 11.06, 15.00, 9.20, 0.000, 0.000, 0.000, 15:04:57.538
61, 57.70, 3.04, 15.54, 17.53, 0.000, 0.000, 0.000, 15:04:57.539
62, 517.62, 12.61, 4.44, 9.99, 0.000, 0.000, 0.000, 15:04:57.539
63, -277.68, 19.44, 7.89, 7.87, 0.000, 0.000, 0.000, 15:04:57.559
64, -275.43, -3.13, 17.27, 18.00, 0.000, 0.000, 0.000, 15:04:57.559
65, 570.72, 7.68, 6.52, 9.95, 0.000, 0.000, 0.000, 15:04:57.604
66, 111.35, 12.96, 6.27, 8.01, 0.000, 0.000, 0.000, 15:04:57.604
67, -551.28, 0.75, 17.03, 14.34, 0.000, 0.000, 0.000, 15:04:57.605
68, 233.65, 8.77, 12.81, 13.67, 0.000, 0.000, 0.000, 15:04:57.605
69, 319.82, 12.90, 5.73, 11.61, 0.000, 0.000, 0.000, 15:04:57.605
70, -483.82, 9.43, 12.12, 11.53, 0.000, 0.000, 0.000, 15:04:57.606
71, 34.54, 4.81, 18.07, 18.19, 0.000, 0.000, 0.000, 15:04:57.626
72, 531.24, 17.93, 8.27, 10.27, 0.000, 0.000, 0.000, 15:04:57.627
73, -249.29, 3.93, 11.89, 13.14, 0.000, 0.000, 0.000, 15:04:57.649
74, -281.84, 4.78, 20.36, 17.95, 0.000, 0.000, 0.000, 15:04:57.649
75, 467.67, 10.89, 7.63, 11.68, 0.000, 0.000, 0.000, 15:04:57.650
76, 54.28, 16.39, 7.46, 5.12, 0.000, 0.000, 0.000, 15:04:57.650
77, -488.52, 4.89, 14.51, 12.41, 0.000, 0.000, 0.000, 15:04:57.650
78, 328.76, 10.07, 10.30, 12.42, 0.000, 0.000, 0.000, 15:04:57.651
81, 802.00, 2.77, 11.81, 17.28, 0.000, 0.000, 0.000, 15:04:57.651
82, 1213.25, 6.82, 5.83, 8.58, 0.000, 0.000, 0.000, 15:04:57.652
83, 435.49, 12.46, 1.36, 11.36, 0.000, 0.000, 0.000, 15:04:57.672
84, 462.16, 1.01, 13.79, 24.43, 0.000, 0.000, 0.000, 15:04:57.673
85, 1219.75, 9.19, 8.19, 14.70, 0.000, 0.000, 0.000, 15:04:57.673
86, 800.81, 13.41, -0.90, 11.79, 0.000, 0.000, 0.000, 15:04:57.673
87, 264.77, 1.40, 14.06, 23.19, 0.000, 0.000, 0.000, 15:04:57.674
88, 1141.73, 6.56, 5.01, 11.52, 0.000, 0.000, 0.000, 15:04:57.674
89, 1147.07, 12.68, 2.37, 12.54, 0.000, 0.000, 0.000, 15:04:57.674
90, 204.88, 8.24, 10.43, 15.78, 0.000, 0.000, 0.000, 15:04:57.675
91, 723.37, 5.17, 11.24, 17.08, 0.000, 0.000, 0.000, 15:04:57.694
92, 1239.95, 12.60, 5.83, 14.70, 0.000, 0.000, 0.000, 15:04:57.694
93, 458.47, 11.28, 1.81, 11.65, 0.000, 0.000, 0.000, 15:04:57.694
94, 447.37, 6.40, 17.60, 23.31, 0.000, 0.000, 0.000, 15:04:57.694
95, 1231.32, 12.22, 6.96, 13.30, 0.000, 0.000, 0.000, 15:04:57.695
96, 804.78, 11.39, 0.35, 10.41, 0.000, 0.000, 0.000, 15:04:57.695
97, 252.34, -0.49, 15.37, 14.70, 0.000, 0.000, 0.000, 15:04:57.696
98, 1085.32, 10.62, 7.38, 14.81, 0.000, 0.000, 0.000, 15:04:57.696
99, 1085.08, 10.09, 0.52, 10.39, 0.000, 0.000, 0.000, 15:04:57.716
100, 217.81, 6.68, 3.06, 13.31, 0.000, 0.000, 0.000, 15:04:57.717
101, 743.62, 4.03, 11.52, 18.07, 0.000, 0.000, 0.000, 15:04:57.717
102, 1257.68, 13.27, 4.03, 12.76, 0.000, 0.000, 0.000, 15:04:57.717
103, 463.24, 13.53, 2.52, 11.12, 0.000, 0.000, 0.000, 15:04:57.739
104, 456.98, 2.61, 12.15, 22.02, 0.000, 0.000, 0.000, 15:04:57.739
105, 1251.70, 11.17, 5.76, 15.45, 0.000, 0.000, 0.000, 15:04:57.740
106, 832.23, 17.52, 1.62, 11.38, 0.000, 0.000, 0.000, 15:04:57.740
107, 261.30, 4.52, 13.67, 22.31, 0.000, 0.000, 0.000, 15:04:57.761
108, 1065.88, 9.96, 8.22, 19.08, 0.000, 0.000, 0.000, 15:04:57.762
109, 1081.72, 6.08, 6.92, 13.10, 0.000, 0.000, 0.000, 15:04:57.762
110, 229.80, 5.60, 5.91, 13.80, 0.000, 0.000, 0.000, 15:04:57.762
111, 763.04, 2.60, 13.73, 21.75, 0.000, 0.000, 0.000, 15:04:57.784
112, 1267.79, 12.61, 5.57, 12.44, 0.000, 0.000, 0.000, 15:04:57.784
113, 457.95, 7.51, 0.64, 12.23, 0.000, 0.000, 0.000, 15:04:57.785
114, 440.60, 3.38, 11.95, 17.79, 0.000, 0.000, 0.000, 15:04:57.785
115, 1266.29, 9.67, 4.38, 12.63, 0.000, 0.000, 0.000, 15:04:57.785
116, 819.12, 14.71, -0.14, 8.72, 0.000, 0.000, 0.000, 15:04:57.785
117, 235.98, 6.23, 12.64, 19.47, 0.000, 0.000, 0.000, 15:04:57.806
118, 1074.45, 3.92, 7.19, 11.07, 0.000, 0.000, 0.000, 15:04:57.807
119, 1109.08, 13.45, 3.95, 13.54, 0.000, 0.000, 0.000, 15:04:57.807
120, 245.33, 6.43, 8.37, 17.76, 0.000, 0.000, 0.000, 15:04:57.808
121, 766.27, 2.04, 7.51, 13.12, 0.000, 0.000, 0.000, 15:04:57.829
122, 1265.03, 7.57, 6.43, 10.38, 0.000, 0.000, 0.000, 15:04:57.829
123, 464.02, 13.20, 5.54, 12.68, 0.000, 0.000, 0.000, 15:04:57.829
124, 449.84, 3.37, 19.31, 21.88, 0.000, 0.000, 0.000, 15:04:57.830
125, 1244.13, 9.54, 10.60, 15.00, 0.000, 0.000, 0.000, 15:04:57.851
126, 808.64, 19.33, 0.09, 8.78, 0.000, 0.000, 0.000, 15:04:57.852
127, 255.78, -0.13, 10.22, 19.32, 0.000, 0.000, 0.000, 15:04:57.852
128, 1056.71, 11.09, 7.65, 19.08, 0.000, 0.000, 0.000, 15:04:57.852
129, 1118.71, 12.05, 0.03, 13.85, 0.000, 0.000, 0.000, 15:04:57.874
130, 260.37, 7.61, 7.94, 10.83, 0.000, 0.000, 0.000, 15:04:57.874
131, 759.12, 1.51, 10.63, 17.04, 0.000, 0.000, 0.000, 15:04:57.874
132, 1262.60, 12.22, 4.03, 10.51, 0.000, 0.000, 0.000, 15:04:57.875
133, 472.17, 10.64, 0.05, 9.30, 0.000, 0.000, 0.000, 15:04:57.875
134, 445.04, 2.65, 13.26, 19.76, 0.000, 0.000, 0.000, 15:04:57.875
135, 1231.13, 12.90, 4.99, 13.93, 0.000, 0.000, 0.000, 15:04:57.896
136, 809.09, 13.33, 1.10, 8.12, 0.000, 0.000, 0.000, 15:04:57.897
137, 260.44, 8.15, 15.08, 18.98, 0.000, 0.000, 0.000, 15:04:57.897
138, 1077.97, 8.42, 10.05, 16.22, 0.000, 0.000, 0.000, 15:04:57.897
139, 1122.40, 14.35, 4.36, 9.80, 0.000, 0.000, 0.000, 15:04:57.919
140, 247.74, 6.77, 8.78, 15.87, 0.000, 0.000, 0.000, 15:04:57.919
141, 747.42, 4.18, 8.84, 17.35, 0.000, 0.000, 0.000, 15:04:57.919
142, 1273.79, 10.63, 4.65, 11.92, 0.000, 0.000, 0.000, 15:04:57.919
143, 505.20, 12.04, 1.46, 10.80, 0.000, 0.000, 0.000, 15:04:57.941
144, 441.47, 7.14, 10.79, 17.32, 0.000, 0.000, 0.000, 15:04:57.942
145, 1234.91, 4.94, 5.24, 13.84, 0.000, 0.000, 0.000, 15:04:57.942
146, 810.21, 15.72, 4.56, 10.62, 0.000, 0.000, 0.000, 15:04:57.942
147, 273.28, 2.33, 12.96, 20.36, 0.000, 0.000, 0.000, 15:04:57.986
148, 1066.31, 7.59, 6.23, 15.66, 0.000, 0.000, 0.000, 15:04:57.987
149, 1089.49, 15.69, 1.51, 11.98, 0.000, 0.000, 0.000, 15:04:57.987
150, 271.67, 14.28, 6.96, 15.02, 0.000, 0.000, 0.000, 15:04:57.987
151, 777.47, 1.35, 11.32, 19.97, 0.000, 0.000, 0.000, 15:04:57.988
152, 1244.08, 11.01, 6.24, 12.55, 0.000, 0.000, 0.000, 15:04:57.988
153, 460.19, 6.40, 1.93, 10.90, 0.000, 0.000, 0.000, 15:04:57.988
154, 445.51, 3.13, 13.86, 16.74, 0.000, 0.000, 0.000, 15:04:57.988
155, 1211.77, 6.94, 7.57, 13.48, 0.000, 0.000, 0.000, 15:04:58.010
156, 807.84, 13.42, 1.59, 11.57, 0.000, 0.000, 0.000, 15:04:58.011
157, 248.10, 3.45, 12.49, 13.68, 0.000, 0.000, 0.000, 15:04:58.011
158, 1050.82, 7.72, 10.91, 15.61, 0.000, 0.000, 0.000, 15:04:58.011
159, 1091.54, 15.35, 7.04, 12.22, 0.000, 0.000, 0.000, 15:04:58.012
160, 255.77, 10.74, 5.91, 15.30, 0.000, 0.000, 0.000, 15:04:58.012
161, 760.68, 8.50, 9.76, 20.20, 0.000, 0.000, 0.000, 15:04:58.031
162, 1253.11, 14.51, 4.65, 13.14, 0.000, 0.000, 0.000, 15:04:58.032
163, 473.02, 8.02, 3.26, 14.22, 0.000, 0.000, 0.000, 15:04:58.032
164, 452.40, -1.79, 14.38, 21.80, 0.000, 0.000, 0.000, 15:04:58.032
165, 1230.41, 6.17, 6.04, 17.17, 0.000, 0.000, 0.000, 15:04:58.054
166, 814.95, 15.11, 4.78, 14.00, 0.000, 0.000, 0.000, 15:04:58.054
167, 272.17, 0.75, 10.78, 20.09, 0.000, 0.000, 0.000, 15:04:58.076
168, 1071.53, 9.60, 9.81, 10.52, 0.000, 0.000, 0.000, 15:04:58.077
169, 1094.42, 9.97, 4.97, 11.78, 0.000, 0.000, 0.000, 15:04:58.077
170, 284.12, 7.87, 5.52, 12.94, 0.000, 0.000, 0.000, 15:04:58.077
171, 771.44, 8.40, 11.20, 12.78, 0.000, 0.000, 0.000, 15:04:58.078
172, 1253.95, 3.80, 8.34, 15.46, 0.000, 0.000, 0.000, 15:04:58.078
173, 485.84, 11.08, 3.30, 6.08, 0.000, 0.000, 0.000, 15:04:58.079
174, 476.56, 3.93, 12.25, 22.14, 0.000, 0.000, 0.000, 15:04:58.079
175, 1234.22, 8.42, 5.42, 15.71, 0.000, 0.000, 0.000, 15:04:58.099
176, 796.36, 12.18, 0.11, 11.12, 0.000, 0.000, 0.000, 15:04:58.099
177, 274.27, 3.88, 11.28, 18.96, 0.000, 0.000, 0.000, 15:04:58.100
178, 1064.46, 6.77, 4.10, 14.41, 0.000, 0.000, 0.000, 15:04:58.100
179, 1088.70, 12.99, 0.11, 14.13, 0.000, 0.000, 0.000, 15:04:58.121
180, 273.08, 9.22, 7.69, 15.17, 0.000, 0.000, 0.000, 15:04:58.123
181, 787.48, -0.39, 13.12, 17.98, 0.000, 0.000, 0.000, 15:04:58.123
182, 1249.69, 12.13, 3.55, 10.52, 0.000, 0.000, 0.000, 15:04:58.124
183, 474.32, 13.81, 4.90, 12.03, 0.000, 0.000, 0.000, 15:04:58.144
184, 471.66, 7.04, 14.07, 16.42, 0.000, 0.000, 0.000, 15:04:58.145
185, 1236.77, 7.53, 6.57, 14.49, 0.000, 0.000, 0.000, 15:04:58.145
186, 812.81, 15.65, -1.70, 9.84, 0.000, 0.000, 0.000, 15:04:58.145
187, 268.35, 3.46, 12.77, 17.95, 0.000, 0.000, 0.000, 15:04:58.166
188, 1069.72, 4.87, 9.26, 19.16, 0.000, 0.000, 0.000, 15:04:58.167
189, 1111.29, 13.66, 3.33, 13.13, 0.000, 0.000, 0.000, 15:04:58.168
190, 266.55, 8.29, 5.95, 15.77, 0.000, 0.000, 0.000, 15:04:58.168
191, 773.92, 5.79, 14.61, 17.21, 0.000, 0.000, 0.000, 15:04:58.168
192, 1268.32, 11.87, 7.06, 10.46, 0.000, 0.000, 0.000, 15:04:58.169
193, 468.02, 14.27, 3.70, 10.17, 0.000, 0.000, 0.000, 15:04:58.189
194, 455.26, -0.61, 16.74, 19.64, 0.000, 0.000, 0.000, 15:04:58.189
195, 1222.62, 8.65, 5.02, 14.55, 0.000, 0.000, 0.000, 15:04:58.211
196, 790.80, 17.43, 3.06, 9.82, 0.000, 0.000, 0.000, 15:04:58.211
197, 240.30, 8.21, 13.81, 20.55, 0.000, 0.000, 0.000, 15:04:58.234
198, 1056.24, 12.14, 7.95, 9.33, 0.000, 0.000, 0.000, 15:04:58.234
199, 1099.85, 8.84, 4.99, 10.81, 0.000, 0.000, 0.000, 15:04:58.234
200, 248.84, 7.86, 6.74, 15.97, 0.000, 0.000, 0.000, 15:04:58.235
0, 35.56, -0.03, 13.96, 19.85, 0.000, 0.000, 0.000, 15:04:58.235
1, 495.66, 9.52, 6.95, 11.46, 0.000, 0.000, 0.000, 15:04:58.236
2, -293.94, 10.04, 6.11, 7.78, 0.000, 0.000, 0.000, 15:04:58.237
3, -279.89, 3.41, 17.65, 18.31, 0.000, 0.000, 0.000, 15:04:58.279
4, 486.01, 9.38, 10.14, 10.45, 0.000, 0.000, 0.000, 15:04:58.279
5, 44.81, 12.40, 4.52, 7.08, 0.000, 0.000, 0.000, 15:04:58.279
6, -495.74, 1.95, 11.65, 17.56, 0.000, 0.000, 0.000, 15:04:58.280
7, 321.36, 7.41, 10.25, 9.00, 0.000, 0.000, 0.000, 15:04:58.280
8, 346.30, 12.27, 10.40, 8.82, 0.000, 0.000, 0.000, 15:04:58.280
9, -500.34, 11.74, 13.51, 11.87, 0.000, 0.000, 0.000, 15:04:58.281
10, 24.40, 5.19, 14.05, 14.35, 0.000, 0.000, 0.000, 15:04:58.282
11, 512.89, 11.72, 8.90, 13.65, 0.000, 0.000, 0.000, 15:04:58.301
12, -265.12, 11.62, 8.99, 8.60, 0.000, 0.000, 0.000, 15:04:58.302
13, -283.47, 4.34, 16.36, 14.47, 0.000, 0.000, 0.000, 15:04:58.302
14, 482.98, 8.57, 6.47, 10.96, 0.000, 0.000, 0.000, 15:04:58.303
15, 55.66, 10.15, 4.26, 5.55, 0.000, 0.000, 0.000, 15:04:58.303
16, -482.03, 9.65, 16.74, 16.79, 0.000, 0.000, 0.000, 15:04:58.303
17, 308.76, 10.16, 12.57, 15.67, 0.000, 0.000, 0.000, 15:04:58.303
18, 337.42, 13.16, 3.99, 6.55, 0.000, 0.000, 0.000, 15:04:58.304
19, -472.33, 8.74, 13.90, 14.14, 0.000, 0.000, 0.000, 15:04:58.324
20, 29.29, 5.42, 17.78, 13.81, 0.000, 0.000, 0.000, 15:04:58.325
21, 507.47, 11.92, 5.23, 8.71, 0.000, 0.000, 0.000, 15:04:58.325
22, -240.45, 8.99, 5.23, 12.31, 0.000, 0.000, 0.000, 15:04:58.325
23, -267.69, 3.24, 18.56, 16.25, 0.000, 0.000, 0.000, 15:04:58.346
24, 511.54, 14.20, 11.20, 11.64, 0.000, 0.000, 0.000, 15:04:58.347
25, 78.06, 11.44, 7.10, 6.34, 0.000, 0.000, 0.000, 15:04:58.347
26, -481.95, 2.70, 17.52, 17.10, 0.000, 0.000, 0.000, 15:04:58.347
27, 307.09, 5.73, 14.23, 12.63, 0.000, 0.000, 0.000, 15:04:58.369
28, 315.66, 14.69, 6.09, 9.79, 0.000, 0.000, 0.000, 15:04:58.369
29, -489.39, 9.82, 11.18, 16.98, 0.000, 0.000, 0.000, 15:04:58.369
30, -1.34, 4.64, 16.23, 15.34, 0.000, 0.000, 0.000, 15:04:58.370
31, 498.37, 13.84, 7.33, 9.14, 0.000, 0.000, 0.000, 15:04:58.370
32, -298.68, 11.95, 7.87, 9.83, 0.000, 0.000, 0.000, 15:04:58.370
33, -282.48, 10.47, 19.67, 14.55, 0.000, 0.000, 0.000, 15:04:58.391
34, 465.69, 3.95, 15.17, 13.95, 0.000, 0.000, 0.000, 15:04:58.392
35, 76.96, 14.08, 6.01, 8.64, 0.000, 0.000, 0.000, 15:04:58.392
36, -487.19, 3.96, 15.22, 17.01, 0.000, 0.000, 0.000, 15:04:58.392
37, 332.85, 4.92, 10.95, 10.70, 0.000, 0.000, 0.000, 15:04:58.414
38, 332.19, 9.02, 8.43, 10.09, 0.000, 0.000, 0.000, 15:04:58.414
39, -462.41, 8.25, 10.44, 13.11, 0.000, 0.000, 0.000, 15:04:58.414
40, 7.47, 4.14, 13.65, 11.69, 0.000, 0.000, 0.000, 15:04:58.415
41, 522.36, 8.67, 7.20, 5.60, 0.000, 0.000, 0.000, 15:04:58.436
42, -267.40, 14.47, 9.22, 10.56, 0.000, 0.000, 0.000, 15:04:58.436
43, -274.88, -5.95, 18.60, 18.34, 0.000, 0.000, 0.000, 15:04:58.437
44, 481.69, 9.13, 13.06, 14.65, 0.000, 0.000, 0.000, 15:04:58.437
45, 44.53, 11.17, 7.61, 5.73, 0.000, 0.000, 0.000, 15:04:58.459
46, -482.50, 2.75, 12.96, 15.87, 0.000, 0.000, 0.000, 15:04:58.460
47, 294.95, 3.34, 12.75, 14.97, 0.000, 0.000, 0.000, 15:04:58.460
48, 368.97, 11.40, 5.87, 11.45, 0.000, 0.000, 0.000, 15:04:58.460
49, -532.18, 11.40, 11.03, 8.64, 0.000, 0.000, 0.000, 15:04:58.461
50, 64.58, 4.53, 11.96, 12.16, 0.000, 0.000, 0.000, 15:04:58.461
51, 495.75, 14.31, 6.08, 8.57, 0.000, 0.000, 0.000, 15:04:58.481
52, -258.68, 9.17, 10.16, 6.27, 0.000, 0.000, 0.000, 15:04:58.482
53, -297.64, 3.40, 18.25, 17.65, 0.000, 0.000, 0.000, 15:04:58.482
54, 484.66, 9.41, 7.89, 6.90, 0.000, 0.000, 0.000, 15:04:58.482
55, 54.16, 12.79, 3.42, 9.19, 0.000, 0.000, 0.000, 15:04:58.504
56, -498.88, 1.27, 17.85, 15.46, 0.000, 0.000, 0.000, 15:04:58.504
57, 337.26, 6.03, 13.87, 12.69, 0.000, 0.000, 0.000, 15:04:58.505
58, 345.96, 18.31, 7.44, 11.76, 0.000, 0.000, 0.000, 15:04:58.505
59, -492.03, 8.04, 11.49, 12.80, 0.000, 0.000, 0.000, 15:04:58.526
60, 37.88, 5.48, 17.83, 14.33, 0.000, 0.000, 0.000, 15:04:58.526
61, 513.79, 7.59, 6.25, 10.01, 0.000, 0.000, 0.000, 15:04:58.527
62, -269.97, 13.32, 8.18, 11.34, 0.000, 0.000, 0.000, 15:04:58.527
63, -297.60, 6.14, 18.91, 13.65, 0.000, 0.000, 0.000, 15:04:58.549
64, 512.44, 7.60, 12.70, 13.92, 0.000, 0.000, 0.000, 15:04:58.549
65, 73.38, 15.37, 7.52, 6.25, 0.000, 0.000, 0.000, 15:04:58.549
66, -483.33, 7.97, 16.04, 14.37, 0.000, 0.000, 0.000, 15:04:58.549
67, 324.55, 7.33, 13.13, 14.12, 0.000, 0.000, 0.000, 15:04:58.550
68, 362.50, 11.28, 5.90, 9.54, 0.000, 0.000, 0.000, 15:04:58.550
69, -485.87, 12.83, 7.35, 14.24, 0.000, 0.000, 0.000, 15:04:58.572
70, 27.59, 2.20, 12.74, 16.03, 0.000, 0.000, 0.000, 15:04:58.572
71, 508.76, 10.67, 9.49, 10.62, 0.000, 0.000, 0.000, 15:04:58.572
72, -279.63, 11.93, 7.32, 7.68, 0.000, 0.000, 0.000, 15:04:58.573
73, -274.76, 7.37, 17.40, 20.09, 0.000, 0.000, 0.000, 15:04:58.594
74, 463.12, 7.03, 9.02, 13.20, 0.000, 0.000, 0.000, 15:04:58.594
75, 77.16, 15.87, 3.47, 8.29, 0.000, 0.000, 0.000, 15:04:58.616
76, -497.04, 3.78, 14.70, 15.57, 0.000, 0.000, 0.000, 15:04:58.616
77, 324.78, 6.50, 12.36, 11.54, 0.000, 0.000, 0.000, 15:04:58.617
78, 353.81, 9.15, 4.48, 11.94, 0.000, 0.000, 0.000, 15:04:58.617
79, -497.92, 11.23, 12.97, 10.84, 0.000, 0.000, 0.000, 15:04:58.618
80, 32.77, 4.29, 18.10, 13.59, 0.000, 0.000, 0.000, 15:04:58.618
81, 495.86, 10.85, 6.79, 10.64, 0.000, 0.000, 0.000, 15:04:58.619
82, -257.83, 12.06, 10.21, 7.89, 0.000, 0.000, 0.000, 15:04:58.619
83, -302.59, 6.43, 17.79, 16.33, 0.000, 0.000, 0.000, 15:04:58.639
84, 483.84, 2.88, 10.53, 12.73, 0.000, 0.000, 0.000, 15:04:58.639
85, 59.46, 11.28, 4.42, 9.20, 0.000, 0.000, 0.000, 15:04:58.639
86, -490.48, 6.58, 14.08, 18.00, 0.000, 0.000, 0.000, 15:04:58.640
87, 318.06, 14.48, 11.46, 12.20, 0.000, 0.000, 0.000, 15:04:58.661
88, 347.56, 8.70, 7.56, 10.96, 0.000, 0.000, 0.000, 15:04:58.662
89, -498.62, 12.84, 10.90, 13.24, 0.000, 0.000, 0.000, 15:04:58.662
90, 17.51, 2.43, 14.90, 13.73, 0.000, 0.000, 0.000, 15:04:58.662
91, 506.92, 9.92, 8.28, 6.34, 0.000, 0.000, 0.000, 15:04:58.684
92, -280.25, 8.59, 7.51, 10.14, 0.000, 0.000, 0.000, 15:04:58.684
93, -303.45, 3.92, 17.80, 15.51, 0.000, 0.000, 0.000, 15:04:58.684
94, 490.51, 10.28, 12.24, 9.47, 0.000, 0.000, 0.000, 15:04:58.685
95, 44.27, 10.60, 0.96, 5.81, 0.000, 0.000, 0.000, 15:04:58.706
96, -490.23, 6.96, 18.61, 12.33, 0.000, 0.000, 0.000, 15:04:58.707
97, 296.96, 2.72, 9.83, 16.75, 0.000, 0.000, 0.000, 15:04:58.707
98, 325.25, 10.64, 8.45, 13.31, 0.000, 0.000, 0.000, 15:04:58.708
99, -484.75, 10.16, 11.61, 10.74, 0.000, 0.000, 0.000, 15:04:58.729
100, 11.43, 9.07, 14.94, 12.55, 0.000, 0.000, 0.000, 15:04:58.730
101, 505.77, 9.81, 9.91, 8.37, 0.000, 0.000, 0.000, 15:04:58.730
102, -266.41, 17.17, 6.98, 12.31, 0.000, 0.000, 0.000, 15:04:58.730
103, -304.82, -0.77, 20.43, 20.33, 0.000, 0.000, 0.000, 15:04:58.731
104, 496.79, 11.28, 15.33, 14.60, 0.000, 0.000, 0.000, 15:04:58.731
105, 37.63, 14.38, 6.53, 5.45, 0.000, 0.000, 0.000, 15:04:58.752
106, -485.56, -0.36, 16.56, 18.64, 0.000, 0.000, 0.000, 15:04:58.753
107, 317.70, 6.65, 10.99, 14.56, 0.000, 0.000, 0.000, 15:04:58.754
108, 339.12, 8.38, 10.70, 7.09, 0.000, 0.000, 0.000, 15:04:58.754
109, -470.36, 5.66, 9.79, 11.87, 0.000, 0.000, 0.000, 15:04:58.774
110, 12.68, 1.19, 12.84, 11.50, 0.000, 0.000, 0.000, 15:04:58.775
111, 530.61, 8.76, 8.31, 8.67, 0.000, 0.000, 0.000, 15:04:58.798
112, -307.85, 14.42, 7.98, 6.03, 0.000, 0.000, 0.000, 15:04:58.799
113, -270.26, 2.79, 16.89, 19.08, 0.000, 0.000, 0.000, 15:04:58.799
114, 451.87, 4.78, 4.82, 9.27, 0.000, 0.000, 0.000, 15:04:58.799
115, 57.54, 16.70, 3.98, 8.02, 0.000, 0.000, 0.000, 15:04:58.799
116, -520.52, 7.73, 17.78, 13.43, 0.000, 0.000, 0.000, 15:04:58.800
117, 345.39, 9.69, 13.69, 13.33, 0.000, 0.000, 0.000, 15:04:58.800
118, 325.42, 12.78, 5.50, 10.27, 0.000, 0.000, 0.000, 15:04:58.800
119, -472.42, 13.24, 9.91, 13.39, 0.000, 0.000, 0.000, 15:04:58.819
120, 7.98, 3.61, 18.28, 14.10, 0.000, 0.000, 0.000, 15:04:58.819
121, 516.69, 11.80, 8.11, 9.35, 0.000, 0.000, 0.000, 15:04:58.820
122, -294.66, 13.80, 6.30, 10.98, 0.000, 0.000, 0.000, 15:04:58.820
123, -297.37, 9.74, 18.43, 20.02, 0.000, 0.000, 0.000, 15:04:58.841
124, 486.90, 6.56, 13.51, 13.34, 0.000, 0.000, 0.000, 15:04:58.842
125, 75.06, 17.27, 4.67, 11.59, 0.000, 0.000, 0.000, 15:04:58.842
126, -478.47, 4.51, 21.23, 16.57, 0.000, 0.000, 0.000, 15:04:58.842
127, 322.04, 3.82, 12.46, 12.72, 0.000, 0.000, 0.000, 15:04:58.864
128, 346.92, 13.93, 5.64, 9.59, 0.000, 0.000, 0.000, 15:04:58.864
129, -491.55, 4.29, 10.40, 9.63, 0.000, 0.000, 0.000, 15:04:58.864
130, 19.81, -2.31, 14.80, 13.85, 0.000, 0.000, 0.000, 15:04:58.865
131, 503.40, 13.57, 10.74, 10.84, 0.000, 0.000, 0.000, 15:04:58.886
132, -298.09, 12.26, 8.80, 11.22, 0.000, 0.000, 0.000, 15:04:58.887
133, -285.15, -0.04, 20.10, 15.29, 0.000, 0.000, 0.000, 15:04:58.887
134, 503.73, 12.50, 6.93, 12.40, 0.000, 0.000, 0.000, 15:04:58.887
135, 74.58, 11.68, 6.14, 8.14, 0.000, 0.000, 0.000, 15:04:58.909
136, -497.95, 5.44, 15.79, 17.36, 0.000, 0.000, 0.000, 15:04:58.909
137, 333.70, 3.22, 13.69, 11.62, 0.000, 0.000, 0.000, 15:04:58.909
138, 331.24, 12.44, 8.08, 8.24, 0.000, 0.000, 0.000, 15:04:58.909
139, -473.79, 9.68, 12.48, 12.37, 0.000, 0.000, 0.000, 15:04:58.910
140, 16.08, 6.33, 15.85, 12.65, 0.000, 0.000, 0.000, 15:04:58.910
141, 509.74, 16.48, 8.79, 7.75, 0.000, 0.000, 0.000, 15:04:58.931
142, -278.99, 7.89, 9.32, 9.97, 0.000, 0.000, 0.000, 15:04:58.931
143, -275.16, 2.49, 16.96, 14.57, 0.000, 0.000, 0.000, 15:04:58.932
144, 502.27, 6.51, 7.98, 13.28, 0.000, 0.000, 0.000, 15:04:58.932
145, 58.87, 15.52, 4.42, 9.53, 0.000, 0.000, 0.000, 15:04:58.954
146, -488.73, 0.37, 18.07, 18.08, 0.000, 0.000, 0.000, 15:04:58.954
147, 315.70, 5.01, 10.75, 10.23, 0.000, 0.000, 0.000, 15:04:58.954
148, 346.35, 11.12, 8.44, 10.58, 0.000, 0.000, 0.000, 15:04:58.954
149, -488.89, 9.74, 10.76, 12.89, 0.000, 0.000, 0.000, 15:04:58.976
150, 1.55, 6.09, 13.90, 14.41, 0.000, 0.000, 0.000, 15:04:58.977
151, 526.96, 6.28, 11.11, 8.95, 0.000, 0.000, 0.000, 15:04:58.977
152, -273.59, 11.36, 7.18, 8.89, 0.000, 0.000, 0.000, 15:04:58.977
153, -290.69, 3.24, 16.41, 13.63, 0.000, 0.000, 0.000, 15:04:58.999
154, 478.48, 11.31, 11.70, 12.71, 0.000, 0.000, 0.000, 15:04:58.999
155, 40.62, 13.58, 2.82, 5.96, 0.000, 0.000, 0.000, 15:04:58.999
156, -476.26, 7.55, 14.92, 12.39, 0.000, 0.000, 0.000, 15:04:59.000
157, 310.80, 5.18, 11.08, 14.34, 0.000, 0.000, 0.000, 15:04:59.000
158, 357.64, 11.04, 6.75, 8.45, 0.000, 0.000, 0.000, 15:04:59.000
159, -486.23, 11.23, 11.13, 8.59, 0.000, 0.000, 0.000, 15:04:59.021
160, 27.15, 2.14, 14.03, 13.56, 0.000, 0.000, 0.000, 15:04:59.021
161, 509.17, 9.58, 6.19, 13.78, 0.000, 0.000, 0.000, 15:04:59.022
162, -271.21, 9.60, 7.03, 8.79, 0.000, 0.000, 0.000, 15:04:59.022
163, -289.47, 2.60, 17.09, 19.03, 0.000, 0.000, 0.000, 15:04:59.044
164, 487.24, 10.64, 12.41, 15.56, 0.000, 0.000, 0.000, 15:04:59.044
165, 50.76, 14.30, 8.77, 9.23, 0.000, 0.000, 0.000, 15:04:59.045
166, -487.92, 3.86, 16.12, 15.36, 0.000, 0.000, 0.000, 15:04:59.045
167, 318.44, 12.47, 13.91, 13.55, 0.000, 0.000, 0.000, 15:04:59.066
168, 346.61, 17.55, 7.16, 7.53, 0.000, 0.000, 0.000, 15:04:59.066
169, -500.74, 5.15, 11.01, 8.41, 0.000, 0.000, 0.000, 15:04:59.067
170, 25.82, 3.19, 12.69, 14.81, 0.000, 0.000, 0.000, 15:04:59.067
171, 523.58, 11.86, 11.31, 11.67, 0.000, 0.000, 0.000, 15:04:59.089
172, -282.17, 9.61, 9.16, 9.73, 0.000, 0.000, 0.000, 15:04:59.089
173, -307.11, -1.05, 18.95, 18.35, 0.000, 0.000, 0.000, 15:04:59.089
174, 495.42, 11.97, 8.67, 13.07, 0.000, 0.000, 0.000, 15:04:59.089
175, 26.73, 15.95, 4.34, 7.71, 0.000, 0.000, 0.000, 15:04:59.090
176, -480.49, 5.50, 14.75, 16.45, 0.000, 0.000, 0.000, 15:04:59.090
177, 298.87, 12.64, 15.75, 12.33, 0.000, 0.000, 0.000, 15:04:59.111
178, 366.63, 10.68, 5.63, 11.41, 0.000, 0.000, 0.000, 15:04:59.112
179, -511.31, 6.41, 13.94, 14.23, 0.000, 0.000, 0.000, 15:04:59.112
180, 46.05, 3.28, 14.03, 16.00, 0.000, 0.000, 0.000, 15:04:59.112
181, 489.52, 13.07, 10.72, 6.10, 0.000, 0.000, 0.000, 15:04:59.133
182, -262.76, 10.37, 4.34, 6.34, 0.000, 0.000, 0.000, 15:04:59.134
183, -310.39, 3.45, 16.30, 16.67, 0.000, 0.000, 0.000, 15:04:59.134
184, 501.29, 7.90, 8.83, 7.05, 0.000, 0.000, 0.000, 15:04:59.134
185, 28.94, 16.89, 6.11, 6.90, 0.000, 0.000, 0.000, 15:04:59.156
186, -464.86, 5.61, 15.75, 17.45, 0.000, 0.000, 0.000, 15:04:59.156
187, 327.15, 6.47, 14.46, 13.56, 0.000, 0.000, 0.000, 15:04:59.157
188, 360.50, 11.70, 9.42, 9.22, 0.000, 0.000, 0.000, 15:04:59.157
189, -490.42, 8.19, 9.36, 13.53, 0.000, 0.000, 0.000, 15:04:59.179
190, 36.27, 3.48, 16.62, 11.25, 0.000, 0.000, 0.000, 15:04:59.179
191, 501.58, 9.30, 8.09, 11.76, 0.000, 0.000, 0.000, 15:04:59.180
192, -281.07, 14.26, 8.69, 8.02, 0.000, 0.000, 0.000, 15:04:59.180
193, -269.85, 0.34, 18.74, 15.54, 0.000, 0.000, 0.000, 15:04:59.180
194, 496.85, 8.58, 10.51, 8.55, 0.000, 0.000, 0.000, 15:04:59.180
195, 52.09, 17.47, 6.34, 10.97, 0.000, 0.000, 0.000, 15:04:59.201
196, -483.41, 2.57, 17.66, 16.95, 0.000, 0.000, 0.000, 15:04:59.201
197, 311.01, 5.05, 13.79, 10.80, 0.000, 0.000, 0.000, 15:04:59.202
198, 349.20, 16.73, 6.49, 9.71, 0.000, 0.000, 0.000, 15:04:59.202
199, -481.08, 10.07, 10.96, 11.55, 0.000, 0.000, 0.000, 15:04:59.224
200, -8.21, 4.04, 14.85, 19.15, 0.000, 0.000, 0.000, 15:04:59.224
0, 516.46, 11.10, 7.68, 13.10, 0.000, 0.000, 0.000, 15:04:59.224
1, -307.93, 12.61, 6.66, 7.17, 0.000, 0.000, 0.000, 15:04:59.225
2, -280.34, 2.78, 18.34, 18.59, 0.000, 0.000, 0.000, 15:04:59.225
3, 467.20, 14.52, 10.42, 8.31, 0.000, 0.000, 0.000, 15:04:59.246
4, 56.05, 8.36, 3.84, 8.85, 0.000, 0.000, 0.000, 15:04:59.247
5, -490.99, 1.88, 15.74, 16.53, 0.000, 0.000, 0.000, 15:04:59.247
6, 313.81, 7.98, 10.40, 10.41, 0.000, 0.000, 0.000, 15:04:59.247
7, 354.66, 12.80, 5.83, 5.31, 0.000, 0.000, 0.000, 15:04:59.269
8, -504.79, 7.10, 11.26, 11.36, 0.000, 0.000, 0.000, 15:04:59.270
9, 49.87, 2.91, 14.06, 16.00, 0.000, 0.000, 0.000, 15:04:59.270
10, 496.06, 13.04, 6.86, 15.06, 0.000, 0.000, 0.000, 15:04:59.270
11, -269.03, 11.85, 8.76, 8.52, 0.000, 0.000, 0.000, 15:04:59.291
12, -298.22, 6.71, 15.56, 15.26, 0.000, 0.000, 0.000, 15:04:59.292
13, 502.89, 7.03, 8.56, 9.18, 0.000, 0.000, 0.000, 15:04:59.292
14, 50.15, 14.49, 5.54, 6.39, 0.000, 0.000, 0.000, 15:04:59.292
15, -485.17, -0.15, 17.17, 17.85, 0.000, 0.000, 0.000, 15:04:59.314
16, 321.15, 10.32, 14.82, 12.46, 0.000, 0.000, 0.000, 15:04:59.314
17, 343.77, 13.93, 8.83, 7.17, 0.000, 0.000, 0.000, 15:04:59.315
18, -489.97, 10.60, 17.31, 14.12, 0.000, 0.000, 0.000, 15:04:59.315
19, 29.12, 1.44, 15.65, 19.53, 0.000, 0.000, 0.000, 15:04:59.315
20, 503.10, 8.44, 6.80, 7.30, 0.000, 0.000, 0.000, 15:04:59.315
21, -273.78, 13.76, 8.71, 7.30, 0.000, 0.000, 0.000, 15:04:59.336
22, -275.54, 1.66, 16.25, 17.10, 0.000, 0.000, 0.000, 15:04:59.337
23, 514.77, 9.95, 10.37, 11.31, 0.000, 0.000, 0.000, 15:04:59.337
24, 78.26, 12.06, 5.95, 11.42, 0.000, 0.000, 0.000, 15:04:59.337
25, -473.43, 8.98, 13.99, 16.60, 0.000, 0.000, 0.000, 15:04:59.359
26, 318.65, 10.52, 14.89, 10.14, 0.000, 0.000, 0.000, 15:04:59.359
27, 343.52, 12.98, 8.06, 9.59, 0.000, 0.000, 0.000, 15:04:59.359
28, -521.41, 7.11, 8.91, 12.90, 0.000, 0.000, 0.000, 15:04:59.360
29, 6.94, 4.64, 13.63, 14.82, 0.000, 0.000, 0.000, 15:04:59.381
30, 496.41, 11.59, 9.17, 11.52, 0.000, 0.000, 0.000, 15:04:59.381
31, -317.75, 7.34, 4.89, 9.76, 0.000, 0.000, 0.000, 15:04:59.382
32, -291.93, 3.81, 16.53, 14.15, 0.000, 0.000, 0.000, 15:04:59.382
33, 466.80, 7.56, 10.79, 12.50, 0.000, 0.000, 0.000, 15:04:59.404
34, 44.36, 12.74, 3.14, 8.84, 0.000, 0.000, 0.000, 15:04:59.404
35, -486.43, 6.87, 20.37, 17.92, 0.000, 0.000, 0.000, 15:04:59.404
36, 324.95, 6.06, 9.40, 10.65, 0.000, 0.000, 0.000, 15:04:59.405
37, 352.98, 13.28, 9.34, 8.05, 0.000, 0.000, 0.000, 15:04:59.405
38, -482.18, 9.15, 13.35, 12.52, 0.000, 0.000, 0.000, 15:04:59.405
39, 19.20, 7.78, 13.87, 15.00, 0.000, 0.000, 0.000, 15:04:59.426
40, 511.86, 7.86, 9.95, 13.38, 0.000, 0.000, 0.000, 15:04:59.426
41, -270.79, 10.27, 7.84, 9.31, 0.000, 0.000, 0.000, 15:04:59.427
42, -282.96, 1.60, 15.30, 15.95, 0.000, 0.000, 0.000, 15:04:59.427
43, 493.13, 5.90, 7.69, 11.34, 0.000, 0.000, 0.000, 15:04:59.449
44, 50.99, 12.38, 7.80, 6.75, 0.000, 0.000, 0.000, 15:04:59.449
45, -475.08, 5.48, 16.22, 14.57, 0.000, 0.000, 0.000, 15:04:59.449
46, 264.40, 10.23, 9.29, 11.30, 0.000, 0.000, 0.000, 15:04:59.449
47, 378.58, 15.82, 7.65, 7.26, 0.000, 0.000, 0.000, 15:04:59.471
48, -505.26, 11.70, 9.36, 11.62, 0.000, 0.000, 0.000, 15:04:59.471
49, 20.30, -0.71, 12.66, 14.71, 0.000, 0.000, 0.000, 15:04:59.472
50, 508.31, 8.49, 9.12, 11.03, 0.000, 0.000, 0.000, 15:04:59.472
51, -277.23, 10.14, 9.99, 11.65, 0.000, 0.000, 0.000, 15:04:59.494
52, -301.12, 4.56, 16.05, 16.20, 0.000, 0.000, 0.000, 15:04:59.494
53, 502.94, 8.38, 7.60, 8.72, 0.000, 0.000, 0.000, 15:04:59.494
54, 32.65, 10.15, 6.92, 8.24, 0.000, 0.000, 0.000, 15:04:59.495
55, -477.96, 4.75, 16.24, 14.41, 0.000, 0.000, 0.000, 15:04:59.495
56, 331.70, 9.16, 9.67, 14.23, 0.000, 0.000, 0.000, 15:04:59.495
57, 366.52, 13.34, 6.33, 7.57, 0.000, 0.000, 0.000, 15:04:59.516
58, -495.05, 5.59, 12.67, 10.98, 0.000, 0.000, 0.000, 15:04:59.516
59, 43.17, 1.14, 13.80, 9.77, 0.000, 0.000, 0.000, 15:04:59.517
60, 511.73, 11.43, 8.10, 11.75, 0.000, 0.000, 0.000, 15:04:59.517
61, -273.14, 16.24, 8.34, 12.58, 0.000, 0.000, 0.000, 15:04:59.539
62, -272.64, 2.70, 18.95, 18.55, 0.000, 0.000, 0.000, 15:04:59.539
63, 497.91, 11.42, 11.76, 10.63, 0.000, 0.000, 0.000, 15:04:59.539
64, 55.02, 13.23, 5.30, 12.21, 0.000, 0.000, 0.000, 15:04:59.539
65, -479.59, 4.08, 15.38, 15.30, 0.000, 0.000, 0.000, 15:04:59.561
66, 329.58, 12.40, 11.01, 16.14, 0.000, 0.000, 0.000, 15:04:59.561
67, 355.92, 7.01, 4.84, 9.50, 0.000, 0.000, 0.000, 15:04:59.562
68, -489.01, 7.67, 14.34, 11.35, 0.000, 0.000, 0.000, 15:04:59.562
69, 33.43, 4.60, 19.45, 15.08, 0.000, 0.000, 0.000, 15:04:59.584
70, 518.54, 10.41, 8.37, 11.35, 0.000, 0.000, 0.000, 15:04:59.584
71, -278.21, 11.37, 8.26, 14.14, 0.000, 0.000, 0.000, 15:04:59.585
72, -275.54, 3.30, 19.28, 18.20, 0.000, 0.000, 0.000, 15:04:59.585
73, 501.69, 8.65, 10.96, 10.42, 0.000, 0.000, 0.000, 15:04:59.585
74, 48.72, 13.33, 10.11, 8.76, 0.000, 0.000, 0.000, 15:04:59.585
75, -484.25, 3.95, 14.83, 16.21, 0.000, 0.000, 0.000, 15:04:59.608
76, 328.31, 2.81, 9.66, 10.66, 0.000, 0.000, 0.000, 15:04:59.608
77, 355.63, 13.34, 6.47, 6.17, 0.000, 0.000, 0.000, 15:04:59.609
78, -503.61, 8.75, 13.91, 9.68, 0.000, 0.000, 0.000, 15:04:59.609
79, 30.09, 7.08, 14.61, 15.79, 0.000, 0.000, 0.000, 15:04:59.630
80, 491.57, 9.68, 6.24, 10.01, 0.000, 0.000, 0.000, 15:04:59.630
81, -285.67, 13.73, 7.83, 11.16, 0.000, 0.000, 0.000, 15:04:59.630
82, -294.09, 1.82, 20.70, 20.14, 0.000, 0.000, 0.000, 15:04:59.630
83, 475.43, 12.35, 11.69, 10.52, 0.000, 0.000, 0.000, 15:04:59.652
84, 45.37, 16.68, 8.93, 8.03, 0.000, 0.000, 0.000, 15:04:59.652
85, -505.09, -1.47, 12.75, 16.49, 0.000, 0.000, 0.000, 15:04:59.652
86, 309.33, 8.19, 12.01, 9.77, 0.000, 0.000, 0.000, 15:04:59.652
87, 319.54, 15.12, 6.15, 6.92, 0.000, 0.000, 0.000, 15:04:59.674
88, -484.36, 8.83, 11.58, 14.61, 0.000, 0.000, 0.000, 15:04:59.674
89, 11.63, 2.19, 11.87, 16.98, 0.000, 0.000, 0.000, 15:04:59.674
90, 515.83, 9.63, 11.57, 11.96, 0.000, 0.000, 0.000, 15:04:59.674
91, -310.99, 11.49, 6.61, 8.40, 0.000, 0.000, 0.000, 15:04:59.675
92, -269.90, -0.91, 16.07, 15.36, 0.000, 0.000, 0.000, 15:04:59.675
93, 456.30, 14.07, 5.52, 8.15, 0.000, 0.000, 0.000, 15:04:59.696
94, 58.56, 9.48, 5.63, 7.50, 0.000, 0.000, 0.000, 15:04:59.696
95, -503.95, 5.51, 16.24, 12.63, 0.000, 0.000, 0.000, 15:04:59.696
96, 341.16, 6.45, 11.45, 10.87, 0.000, 0.000, 0.000, 15:04:59.697
97, 330.15, 13.30, 11.36, 8.97, 0.000, 0.000, 0.000, 15:04:59.719
98, -480.25, 8.36, 12.55, 10.71, 0.000, 0.000, 0.000, 15:04:59.720
99, 31.39, 1.59, 17.50, 14.48, 0.000, 0.000, 0.000, 15:04:59.720
100, 508.62, 12.12, 9.60, 8.38, 0.000, 0.000, 0.000, 15:04:59.721
101, -283.58, 10.45, 8.42, 7.00, 0.000, 0.000, 0.000, 15:04:59.744
102, -278.11, 6.39, 15.01, 11.98, 0.000, 0.000, 0.000, 15:04:59.744
103, 501.98, 1.44, 9.79, 11.81, 0.000, 0.000, 0.000, 15:04:59.744
104, 47.02, 13.99, 5.83, 9.19, 0.000, 0.000, 0.000, 15:04:59.744
105, -487.44, 3.99, 19.38, 14.98, 0.000, 0.000, 0.000, 15:04:59.764
106, 307.85, 12.55, 6.84, 12.80, 0.000, 0.000, 0.000, 15:04:59.764
107, 344.14, 13.95, 8.32, 4.83, 0.000, 0.000, 0.000, 15:04:59.764
108, -490.97, 10.70, 6.97, 14.23, 0.000, 0.000, 0.000, 15:04:59.764
109, 47.03, 2.57, 13.61, 17.24, 0.000, 0.000, 0.000, 15:04:59.765
110, 469.32, 12.71, 7.77, 10.38, 0.000, 0.000, 0.000, 15:04:59.765
111, -272.28, 12.82, 7.86, 8.85, 0.000, 0.000, 0.000, 15:04:59.786
112, -311.31, -2.07, 19.45, 19.76, 0.000, 0.000, 0.000, 15:04:59.786
113, 502.46, 10.18, 8.65, 11.14, 0.000, 0.000, 0.000, 15:04:59.787
114, 33.11, 11.39, 9.77, 7.72, 0.000, 0.000, 0.000, 15:04:59.787
115, -479.76, 8.85, 15.67, 15.95, 0.000, 0.000, 0.000, 15:04:59.809
116, 309.77, 6.59, 11.63, 13.84, 0.000, 0.000, 0.000, 15:04:59.809
117, 339.70, 14.31, 5.96, 10.25, 0.000, 0.000, 0.000, 15:04:59.809
118, -488.69, 5.39, 15.23, 14.18, 0.000, 0.000, 0.000, 15:04:59.809
119, 19.72, 5.73, 13.02, 16.43, 0.000, 0.000, 0.000, 15:04:59.831
120, 497.88, 14.78, 7.12, 13.56, 0.000, 0.000, 0.000, 15:04:59.832
121, -285.76, 7.61, 7.73, 9.52, 0.000, 0.000, 0.000, 15:04:59.832
122, -277.16, 3.60, 19.02, 16.01, 0.000, 0.000, 0.000, 15:04:59.832
123, 480.15, 12.39, 9.16, 9.73, 0.000, 0.000, 0.000, 15:04:59.854
124, 55.98, 15.03, 5.38, 4.87, 0.000, 0.000, 0.000, 15:04:59.854
125, -503.10, 1.96, 12.67, 12.12, 0.000, 0.000, 0.000, 15:04:59.854
126, 335.00, 9.06, 12.80, 10.71, 0.000, 0.000, 0.000, 15:04:59.855
127, 333.97, 9.90, 10.02, 8.47, 0.000, 0.000, 0.000, 15:04:59.855
128, -469.63, 6.57, 7.48, 10.99, 0.000, 0.000, 0.000, 15:04:59.855
129, 11.10, 6.33, 17.47, 18.16, 0.000, 0.000, 0.000, 15:04:59.876
130, 525.84, 12.99, 8.96, 10.27, 0.000, 0.000, 0.000, 15:04:59.876
131, -287.45, 10.67, 12.25, 7.91, 0.000, 0.000, 0.000, 15:04:59.877
132, -260.93, 2.89, 15.93, 14.75, 0.000, 0.000, 0.000, 15:04:59.877
133, 481.37, 9.55, 8.08, 9.84, 0.000, 0.000, 0.000, 15:04:59.899
134, 57.24, 13.59, 5.14, 9.08, 0.000, 0.000, 0.000, 15:04:59.899
135, -491.37, 2.94, 17.34, 14.66, 0.000, 0.000, 0.000, 15:04:59.900
136, 330.72, 8.18, 8.95, 14.54, 0.000, 0.000, 0.000, 15:04:59.900
137, 342.66, 10.86, 7.52, 5.36, 0.000, 0.000, 0.000, 15:04:59.921
138, -493.83, 14.70, 13.07, 10.95, 0.000, 0.000, 0.000, 15:04:59.921
139, 31.68, 2.07, 17.37, 16.62, 0.000, 0.000, 0.000, 15:04:59.922
140, 506.83, 8.10, 6.47, 14.55, 0.000, 0.000, 0.000, 15:04:59.922
141, -270.58, 12.10, 4.64, 10.29, 0.000, 0.000, 0.000, 15:04:59.944
142, -292.77, 5.35, 13.68, 13.23, 0.000, 0.000, 0.000, 15:04:59.944
143, 507.81, 7.68, 7.72, 8.78, 0.000, 0.000, 0.000, 15:04:59.945
144, 33.93, 11.97, 6.69, 2.82, 0.000, 0.000, 0.000, 15:04:59.945
145, -475.61, 6.62, 17.18, 16.09, 0.000, 0.000, 0.000, 15:04:59.945
146, 325.96, 7.82, 13.01, 14.61, 0.000, 0.000, 0.000, 15:04:59.945
147, 349.02, 14.55, 8.45, 6.03, 0.000, 0.000, 0.000, 15:04:59.967
148, -490.39, 3.25, 13.04, 13.49, 0.000, 0.000, 0.000, 15:04:59.967
149, 25.29, 1.78, 14.69, 16.84, 0.000, 0.000, 0.000, 15:04:59.967
150, 512.43, 11.45, 7.34, 12.46, 0.000, 0.000, 0.000, 15:04:59.967
151, -294.16, 10.32, 8.12, 8.14, 0.000, 0.000, 0.000, 15:04:59.989
152, -265.02, 0.04, 17.04, 21.30, 0.000, 0.000, 0.000, 15:04:59.989
153, 474.18, 10.15, 10.76, 11.61, 0.000, 0.000, 0.000, 15:04:59.989
154, 50.55, 11.22, 6.85, 12.88, 0.000, 0.000, 0.000, 15:04:59.990
155, -515.73, 4.29, 16.73, 16.92, 0.000, 0.000, 0.000, 15:05:00.011
156, 324.96, 10.54, 11.66, 16.44, 0.000, 0.000, 0.000, 15:05:00.012
157, 318.01, 6.94, 7.91, 8.61, 0.000, 0.000, 0.000, 15:05:00.012
158, -482.38, 8.49, 10.48, 11.24, 0.000, 0.000, 0.000, 15:05:00.012
159, 8.69, 3.61, 14.93, 12.47, 0.000, 0.000, 0.000, 15:05:00.034
160, 512.41, 14.22, 8.30, 10.70, 0.000, 0.000, 0.000, 15:05:00.034
161, -304.12, 7.76, 6.75, 8.62, 0.000, 0.000, 0.000, 15:05:00.036
162, -269.01, 3.23, 13.46, 20.43, 0.000, 0.000, 0.000, 15:05:00.036
163, 478.61, 10.26, 12.56, 9.79, 0.000, 0.000, 0.000, 15:05:00.037
164, 48.26, 13.51, 4.79, 2.99, 0.000, 0.000, 0.000, 15:05:00.037
165, -495.87, 8.08, 17.28, 12.78, 0.000, 0.000, 0.000, 15:05:00.056
166, 334.23, 6.84, 16.13, 12.21, 0.000, 0.000, 0.000, 15:05:00.057
167, 328.80, 11.93, 8.37, 7.69, 0.000, 0.000, 0.000, 15:05:00.057
168, -485.47, 8.04, 9.49, 14.11, 0.000, 0.000, 0.000, 15:05:00.057
169, 23.39, 5.88, 15.28, 14.03, 0.000, 0.000, 0.000, 15:05:00.079
170, 508.35, 12.49, 8.77, 8.01, 0.000, 0.000, 0.000, 15:05:00.079
171, -299.65, 11.26, 7.48, 6.88, 0.000, 0.000, 0.000, 15:05:00.079
172, -261.50, 3.05, 17.24, 16.13, 0.000, 0.000, 0.000, 15:05:00.079
173, 482.61, 5.47, 10.24, 12.02, 0.000, 0.000, 0.000, 15:05:00.101
174, 59.07, 17.52, 5.87, 12.93, 0.000, 0.000, 0.000, 15:05:00.102
175, -502.61, -1.80, 13.85, 22.60, 0.000, 0.000, 0.000, 15:05:00.102
176, 342.41, 8.56, 12.69, 10.46, 0.000, 0.000, 0.000, 15:05:00.102
177, 324.17, 13.58, 9.45, 11.18, 0.000, 0.000, 0.000, 15:05:00.124
178, -481.00, 13.11, 10.41, 16.71, 0.000, 0.000, 0.000, 15:05:00.124
179, 24.70, 5.12, 15.61, 17.62, 0.000, 0.000, 0.000, 15:05:00.124
180, 539.24, 10.76, 5.52, 11.36, 0.000, 0.000, 0.000, 15:05:00.124
181, -294.55, 16.74, 6.62, 12.87, 0.000, 0.000, 0.000, 15:05:00.125
182, -255.43, 3.35, 21.50, 17.21, 0.000, 0.000, 0.000, 15:05:00.126
183, 484.78, 11.10, 8.69, 10.32, 0.000, 0.000, 0.000, 15:05:00.147
184, 41.42, 11.77, 7.89, 3.13, 0.000, 0.000, 0.000, 15:05:00.147
185, -485.83, 4.47, 16.30, 13.45, 0.000, 0.000, 0.000, 15:05:00.147
186, 328.46, 5.35, 10.57, 16.97, 0.000, 0.000, 0.000, 15:05:00.147
187, 340.10, 14.38, 9.27, 14.22, 0.000, 0.000, 0.000, 15:05:00.169
188, -495.68, 8.81, 9.68, 8.76, 0.000, 0.000, 0.000, 15:05:00.169
189, 52.82, 5.15, 13.38, 12.13, 0.000, 0.000, 0.000, 15:05:00.169
190, 481.95, 10.97, 7.52, 9.51, 0.000, 0.000, 0.000, 15:05:00.170
191, -271.96, 12.47, 9.88, 9.39, 0.000, 0.000, 0.000, 15:05:00.191
192, -294.07, 9.58, 19.85, 15.73, 0.000, 0.000, 0.000, 15:05:00.191
193, 498.15, 3.10, 10.27, 13.99, 0.000, 0.000, 0.000, 15:05:00.192
194, 10.73, 11.25, 8.30, 8.50, 0.000, 0.000, 0.000, 15:05:00.192
195, -461.72, 3.95, 16.32, 13.88, 0.000, 0.000, 0.000, 15:05:00.214
196, 314.62, 9.16, 11.23, 8.58, 0.000, 0.000, 0.000, 15:05:00.214
197, 345.09, 10.10, 7.37, 10.77, 0.000, 0.000, 0.000, 15:05:00.214
198, -489.30, 6.73, 11.21, 10.41, 0.000, 0.000, 0.000, 15:05:00.215
199, 41.00, 1.08, 15.48, 16.29, 0.000, 0.000, 0.000, 15:05:00.215
200, 511.56, 8.21, 5.68, 7.23, 0.000, 0.000, 0.000, 15:05:00.215
0, -290.43, 13.02, 10.96, 8.75, 0.000, 0.000, 0.000, 15:05:00.236
1, -267.57, 2.70, 18.00, 19.21, 0.000, 0.000, 0.000, 15:05:00.237
2, 488.51, 10.72, 9.05, 11.65, 0.000, 0.000, 0.000, 15:05:00.237
3, 36.12, 16.14, 3.48, 4.74, 0.000, 0.000, 0.000, 15:05:00.259
4, -472.34, 3.14, 19.48, 18.01, 0.000, 0.000, 0.000, 15:05:00.260
5, 332.62, 6.16, 13.62, 12.62, 0.000, 0.000, 0.000, 15:05:00.260
6, 342.68, 13.67, 9.19, 9.05, 0.000, 0.000, 0.000, 15:05:00.260
7, -481.08, 9.31, 12.40, 16.18, 0.000, 0.000, 0.000, 15:05:00.260
8, 49.74, 1.95, 11.47, 17.53, 0.000, 0.000, 0.000, 15:05:00.261
9, 518.45, 13.14, 7.93, 10.48, 0.000, 0.000, 0.000, 15:05:00.281
10, -262.77, 9.25, 4.04, 6.34, 0.000, 0.000, 0.000, 15:05:00.282
11, -244.07, 8.02, 15.70, 16.77, 0.000, 0.000, 0.000, 15:05:00.282
12, 509.19, 9.28, 10.91, 10.81, 0.000, 0.000, 0.000, 15:05:00.282
13, 30.73, 13.80, 8.05, 7.28, 0.000, 0.000, 0.000, 15:05:00.304
14, -498.18, 3.69, 20.00, 15.79, 0.000, 0.000, 0.000, 15:05:00.304
15, 304.50, 2.46, 7.31, 9.50, 0.000, 0.000, 0.000, 15:05:00.304
16, 313.74, 14.28, 6.76, 7.82, 0.000, 0.000, 0.000, 15:05:00.305
17, -514.74, 10.34, 9.55, 10.82, 0.000, 0.000, 0.000, 15:05:00.326
18, 26.77, 6.93, 14.73, 14.16, 0.000, 0.000, 0.000, 15:05:00.326
19, 494.36, 6.24, 9.34, 12.07, 0.000, 0.000, 0.000, 15:05:00.327
20, -297.74, 12.60, 7.88, 7.15, 0.000, 0.000, 0.000, 15:05:00.327
21, -272.20, 2.77, 20.30, 16.68, 0.000, 0.000, 0.000, 15:05:00.349
22, 490.16, 8.71, 10.80, 11.54, 0.000, 0.000, 0.000, 15:05:00.349
23, 39.69, 13.59, 7.39, 3.07, 0.000, 0.000, 0.000, 15:05:00.350
24, -479.82, 6.84, 20.20, 15.30, 0.000, 0.000, 0.000, 15:05:00.350
25, 333.55, 8.41, 15.67, 14.34, 0.000, 0.000, 0.000, 15:05:00.350
26, 344.19, 14.63, 6.27, 10.75, 0.000, 0.000, 0.000, 15:05:00.351
27, -488.59, 10.02, 12.80, 10.04, 0.000, 0.000, 0.000, 15:05:00.371
28, 48.70, 3.08, 12.40, 14.67, 0.000, 0.000, 0.000, 15:05:00.372
29, 502.82, 9.69, 8.94, 11.91, 0.000, 0.000, 0.000, 15:05:00.372
30, -296.06, 12.79, 7.21, 6.01, 0.000, 0.000, 0.000, 15:05:00.372
31, -264.32, 2.29, 18.05, 17.60, 0.000, 0.000, 0.000, 15:05:00.394
32, 494.86, 8.45, 9.57, 10.07, 0.000, 0.000, 0.000, 15:05:00.394
33, 35.94, 10.35, 5.35, 4.50, 0.000, 0.000, 0.000, 15:05:00.395
34, -479.80, 3.98, 17.40, 15.65, 0.000, 0.000, 0.000, 15:05:00.395
35, 334.13, 9.56, 11.09, 13.76, 0.000, 0.000, 0.000, 15:05:00.416
36, 341.91, 17.90, 5.77, 9.04, 0.000, 0.000, 0.000, 15:05:00.417
37, -483.27, 0.84, 11.28, 15.30, 0.000, 0.000, 0.000, 15:05:00.417
38, 51.81, 4.43, 15.25, 17.59, 0.000, 0.000, 0.000, 15:05:00.417
39, 501.50, 12.94, 7.52, 9.50, 0.000, 0.000, 0.000, 15:05:00.439
40, -288.83, 11.80, 8.63, 6.24, 0.000, 0.000, 0.000, 15:05:00.439
41, -272.91, 2.80, 13.50, 20.46, 0.000, 0.000, 0.000, 15:05:00.439
42, 489.37, 5.95, 9.66, 11.69, 0.000, 0.000, 0.000, 15:05:00.439
43, 32.20, 17.20, 9.32, 9.06, 0.000, 0.000, 0.000, 15:05:00.440
44, -469.58, 3.86, 13.67, 15.32, 0.000, 0.000, 0.000, 15:05:00.440
45, 333.40, 4.24, 12.09, 15.57, 0.000, 0.000, 0.000, 15:05:00.461
46, 334.89, 9.59, 9.86, 11.53, 0.000, 0.000, 0.000, 15:05:00.462
47, -490.26, 10.70, 13.08, 14.83, 0.000, 0.000, 0.000, 15:05:00.462
48, 47.97, 4.36, 14.91, 18.16, 0.000, 0.000, 0.000, 15:05:00.462
49, 500.55, 10.97, 8.67, 6.05, 0.000, 0.000, 0.000, 15:05:00.494
50, -279.94, 13.98, 10.76, 8.02, 0.000, 0.000, 0.000, 15:05:00.494
51, -268.15, 2.69, 17.94, 13.94, 0.000, 0.000, 0.000, 15:05:00.494
52, 493.16, 9.28, 9.09, 10.22, 0.000, 0.000, 0.000, 15:05:00.494
53, 39.65, 12.81, 8.24, 9.34, 0.000, 0.000, 0.000, 15:05:00.506
54, -477.90, 10.79, 13.99, 14.81, 0.000, 0.000, 0.000, 15:05:00.507
55, 330.64, -1.37, 11.45, 10.99, 0.000, 0.000, 0.000, 15:05:00.507
56, 351.49, 15.89, 8.18, 5.91, 0.000, 0.000, 0.000, 15:05:00.507
57, -485.23, 9.35, 7.55, 13.61, 0.000, 0.000, 0.000, 15:05:00.529
58, 46.87, 3.65, 12.80, 18.11, 0.000, 0.000, 0.000, 15:05:00.529
59, 503.26, 9.07, 7.86, 11.99, 0.000, 0.000, 0.000, 15:05:00.530
60, -288.12, 14.20, 10.55, 9.83, 0.000, 0.000, 0.000, 15:05:00.530
61, -257.91, 0.34, 20.62, 18.96, 0.000, 0.000, 0.000, 15:05:00.530
62, 495.59, 7.44, 6.32, 12.02, 0.000, 0.000, 0.000, 15:05:00.530
63, 32.10, 16.93, 5.96, 6.17, 0.000, 0.000, 0.000, 15:05:00.551
64, -485.16, 0.40, 17.78, 19.11, 0.000, 0.000, 0.000, 15:05:00.551
65, 328.49, 4.64, 9.60, 12.09, 0.000, 0.000, 0.000, 15:05:00.552
66, 326.18, 14.05, 5.35, 6.60, 0.000, 0.000, 0.000, 15:05:00.552
67, -497.73, 4.96, 11.39, 8.43, 0.000, 0.000, 0.000, 15:05:00.574
68, 47.96, 5.40, 12.20, 13.48, 0.000, 0.000, 0.000, 15:05:00.574
69, 495.23, 9.73, 8.81, 9.70, 0.000, 0.000, 0.000, 15:05:00.574
70, -287.01, 12.19, 6.96, 10.42, 0.000, 0.000, 0.000, 15:05:00.575
71, -272.12, -0.21, 15.73, 17.83, 0.000, 0.000, 0.000, 15:05:00.598
72, 486.56, 12.01, 11.79, 14.16, 0.000, 0.000, 0.000, 15:05:00.598
73, 30.30, 9.34, 7.63, 11.21, 0.000, 0.000, 0.000, 15:05:00.598
74, -488.70, 5.52, 15.57, 14.39, 0.000, 0.000, 0.000, 15:05:00.598
75, 315.02, 11.73, 11.35, 10.24, 0.000, 0.000, 0.000, 15:05:00.619
76, 325.57, 18.83, 10.49, 6.87, 0.000, 0.000, 0.000, 15:05:00.619
77, -505.71, 7.11, 15.00, 13.70, 0.000, 0.000, 0.000, 15:05:00.619
78, 48.96, 6.07, 19.13, 16.65, 0.000, 0.000, 0.000, 15:05:00.619
79, 492.93, 9.02, 6.70, 4.69, 0.000, 0.000, 0.000, 15:05:00.620
80, -295.42, 15.51, 4.78, 6.31, 0.000, 0.000, 0.000, 15:05:00.621
81, -276.23, 5.66, 14.74, 19.36, 0.000, 0.000, 0.000, 15:05:00.641
82, 494.11, 6.52, 10.51, 7.75, 0.000, 0.000, 0.000, 15:05:00.641
83, 32.23, 10.04, 6.98, 6.29, 0.000, 0.000, 0.000, 15:05:00.642
84, -478.71, 5.97, 17.00, 17.10, 0.000, 0.000, 0.000, 15:05:00.642
85, 322.76, 5.16, 11.00, 13.54, 0.000, 0.000, 0.000, 15:05:00.664
86, 333.98, 9.68, 7.02, 12.12, 0.000, 0.000, 0.000, 15:05:00.664
87, -488.68, 11.43, 12.78, 12.34, 0.000, 0.000, 0.000, 15:05:00.664
88, 32.29, 1.04, 17.27, 15.09, 0.000, 0.000, 0.000, 15:05:00.664
89, 495.87, 10.82, 5.89, 8.66, 0.000, 0.000, 0.000, 15:05:00.686
90, -300.24, 18.15, 6.12, 10.32, 0.000, 0.000, 0.000, 15:05:00.687
91, -290.44, -0.45, 19.31, 22.41, 0.000, 0.000, 0.000, 15:05:00.687
92, 520.27, 11.52, 9.37, 10.44, 0.000, 0.000, 0.000, 15:05:00.688
93, -5.75, 12.00, 4.67, 8.32, 0.000, 0.000, 0.000, 15:05:00.709
94, -496.50, 4.50, 15.26, 15.63, 0.000, 0.000, 0.000, 15:05:00.709
95, 318.96, 5.01, 13.43, 14.10, 0.000, 0.000, 0.000, 15:05:00.709
96, 332.02, 14.57, 5.82, 8.89, 0.000, 0.000, 0.000, 15:05:00.710
97, -509.63, 8.13, 11.80, 12.73, 0.000, 0.000, 0.000, 15:05:00.710
98, 43.57, 3.26, 16.19, 11.79, 0.000, 0.000, 0.000, 15:05:00.710
99, 503.68, 11.63, 9.30, 7.92, 0.000, 0.000, 0.000, 15:05:00.731
100, -311.07, 4.91, 11.41, 8.15, 0.000, 0.000, 0.000, 15:05:00.731
101, -267.46, 2.29, 15.84, 14.28, 0.000, 0.000, 0.000, 15:05:00.732
102, 470.65, 8.34, 5.19, 11.76, 0.000, 0.000, 0.000, 15:05:00.732
103, 33.85, 14.83, 5.63, 6.34, 0.000, 0.000, 0.000, 15:05:00.754
104, -481.54, 2.31, 19.32, 15.05, 0.000, 0.000, 0.000, 15:05:00.754
105, 330.18, 7.71, 8.88, 11.92, 0.000, 0.000, 0.000, 15:05:00.754
106, 339.90, 12.19, 4.09, 10.63, 0.000, 0.000, 0.000, 15:05:00.755
107, -500.62, 5.49, 11.44, 13.72, 0.000, 0.000, 0.000, 15:05:00.776
108, 56.62, 6.39, 13.56, 14.53, 0.000, 0.000, 0.000, 15:05:00.777
109, 481.99, 8.11, 8.05, 10.62, 0.000, 0.000, 0.000, 15:05:00.777
110, -279.00, 11.98, 10.82, 4.44, 0.000, 0.000, 0.000, 15:05:00.777
111, -285.86, 3.30, 18.51, 12.48, 0.000, 0.000, 0.000, 15:05:00.799
112, 504.58, 11.16, 9.76, 9.46, 0.000, 0.000, 0.000, 15:05:00.800
113, 27.25, 14.51, 4.18, 12.06, 0.000, 0.000, 0.000, 15:05:00.800
114, -482.19, 3.71, 17.70, 20.38, 0.000, 0.000, 0.000, 15:05:00.800
115, 331.84, 6.25, 14.53, 15.14, 0.000, 0.000, 0.000, 15:05:00.801
116, 332.54, 14.65, 6.95, 8.25, 0.000, 0.000, 0.000, 15:05:00.801
117, -473.95, 12.69, 13.77, 16.12, 0.000, 0.000, 0.000, 15:05:00.821
118, 30.22, 3.00, 14.83, 12.85, 0.000, 0.000, 0.000, 15:05:00.822
119, 518.03, 12.90, 7.71, 8.89, 0.000, 0.000, 0.000, 15:05:00.822
120, -299.22, 7.58, 10.60, 7.88, 0.000, 0.000, 0.000, 15:05:00.822
121, -256.01, 2.13, 13.18, 16.73, 0.000, 0.000, 0.000, 15:05:00.844
122, 474.96, 10.50, 10.41, 15.15, 0.000, 0.000, 0.000, 15:05:00.844
123, 55.34, 16.92, 4.10, 8.32, 0.000, 0.000, 0.000, 15:05:00.844
124, -474.05, 3.60, 17.14, 17.06, 0.000, 0.000, 0.000, 15:05:00.845
125, 324.89, 6.71, 12.80, 13.09, 0.000, 0.000, 0.000, 15:05:00.867
126, 332.78, 18.23, 8.35, 7.61, 0.000, 0.000, 0.000, 15:05:00.867
127, -485.66, 4.68, 13.21, 13.44, 0.000, 0.000, 0.000, 15:05:00.867
128, 38.46, 5.46, 17.21, 11.84, 0.000, 0.000, 0.000, 15:05:00.867
129, 504.76, 12.61, 12.68, 11.45, 0.000, 0.000, 0.000, 15:05:00.889
130, -279.65, 14.59, 3.51, 6.53, 0.000, 0.000, 0.000, 15:05:00.890
131, -268.92, -1.04, 16.55, 15.98, 0.000, 0.000, 0.000, 15:05:00.890
132, 490.36, 13.51, 9.44, 11.72, 0.000, 0.000, 0.000, 15:05:00.890
133, 32.04, 10.53, 7.61, 5.19, 0.000, 0.000, 0.000, 15:05:00.890
134, -478.89, 0.96, 12.74, 15.02, 0.000, 0.000, 0.000, 15:05:00.891
135, 322.21, 8.78, 11.83, 13.33, 0.000, 0.000, 0.000, 15:05:00.911
136, 318.66, 12.79, 8.46, 6.95, 0.000, 0.000, 0.000, 15:05:00.911
137, -487.82, 5.91, 11.63, 15.21, 0.000, 0.000, 0.000, 15:05:00.912
138, 37.44, 4.71, 11.64, 15.11, 0.000, 0.000, 0.000, 15:05:00.912
139, 476.75, 13.14, 6.86, 9.56, 0.000, 0.000, 0.000, 15:05:00.934
140, -283.07, 10.35, 9.92, 9.65, 0.000, 0.000, 0.000, 15:05:00.934
141, -276.94, 1.70, 15.75, 12.65, 0.000, 0.000, 0.000, 15:05:00.934
142, 496.92, 8.02, 10.34, 12.35, 0.000, 0.000, 0.000, 15:05:00.934
143, 19.08, 13.12, 5.48, 7.39, 0.000, 0.000, 0.000, 15:05:00.957
144, -470.74, 9.42, 17.29, 15.55, 0.000, 0.000, 0.000, 15:05:00.957
145, 318.59, -0.22, 9.69, 14.58, 0.000, 0.000, 0.000, 15:05:00.957
146, 344.39, 11.39, 8.77, 11.00, 0.000, 0.000, 0.000, 15:05:00.957
147, -496.94, 8.16, 13.73, 11.80, 0.000, 0.000, 0.000, 15:05:00.979
148, 52.92, 3.76, 15.34, 11.72, 0.000, 0.000, 0.000, 15:05:00.979
149, 484.94, 10.70, 7.81, 14.39, 0.000, 0.000, 0.000, 15:05:00.980
150, -274.35, 13.07, 6.95, 11.69, 0.000, 0.000, 0.000, 15:05:00.980
151, -283.86, 5.98, 19.02, 18.26, 0.000, 0.000, 0.000, 15:05:00.980
152, 494.03, 9.35, 10.89, 10.92, 0.000, 0.000, 0.000, 15:05:00.980
153, 20.28, 17.44, 8.29, 7.14, 0.000, 0.000, 0.000, 15:05:01.002
154, -466.35, 3.91, 15.68, 13.64, 0.000, 0.000, 0.000, 15:05:01.002
155, 308.40, 8.30, 11.72, 13.95, 0.000, 0.000, 0.000, 15:05:01.004
156, 354.83, 17.00, 3.43, 9.70, 0.000, 0.000, 0.000, 15:05:01.004
157, -510.96, 9.73, 11.94, 14.83, 0.000, 0.000, 0.000, 15:05:01.024
158, 66.87, 2.94, 14.99, 15.94, 0.000, 0.000, 0.000, 15:05:01.024
159, 478.65, 13.52, 11.47, 5.96, 0.000, 0.000, 0.000, 15:05:01.025
160, -276.31, 7.33, 8.49, 9.03, 0.000, 0.000, 0.000, 15:05:01.025
161, -295.48, 2.01, 16.60, 18.12, 0.000, 0.000, 0.000, 15:05:01.046
162, 514.05, 11.54, 7.13, 11.36, 0.000, 0.000, 0.000, 15:05:01.046
163, 14.63, 7.76, 3.85, 6.73, 0.000, 0.000, 0.000, 15:05:01.047
164, -461.04, 6.77, 18.86, 17.41, 0.000, 0.000, 0.000, 15:05:01.047
165, 303.25, 7.77, 9.91, 9.45, 0.000, 0.000, 0.000, 15:05:01.069
166, 359.90, 14.43, 7.30, 13.25, 0.000, 0.000, 0.000, 15:05:01.069
167, -511.43, 5.17, 14.89, 11.13, 0.000, 0.000, 0.000, 15:05:01.069
168, 60.14, 3.88, 15.57, 16.78, 0.000, 0.000, 0.000, 15:05:01.069
169, 481.58, 13.19, 7.48, 9.42, 0.000, 0.000, 0.000, 15:05:01.070
170, -272.40, 11.16, 10.31, 9.54, 0.000, 0.000, 0.000, 15:05:01.070
171, -284.18, -0.60, 14.84, 15.14, 0.000, 0.000, 0.000, 15:05:01.091
172, 503.11, 7.15, 8.82, 10.69, 0.000, 0.000, 0.000, 15:05:01.092
173, 29.09, 12.09, 6.81, 11.39, 0.000, 0.000, 0.000, 15:05:01.092
174, -475.89, 8.62, 16.79, 14.73, 0.000, 0.000, 0.000, 15:05:01.092
175, 316.41, 10.53, 7.03, 16.29, 0.000, 0.000, 0.000, 15:05:01.114
176, 326.50, 14.55, 4.97, 6.27, 0.000, 0.000, 0.000, 15:05:01.114
177, -483.45, 10.35, 10.32, 11.86, 0.000, 0.000, 0.000, 15:05:01.114
178, 35.44, 1.14, 10.89, 14.72, 0.000, 0.000, 0.000, 15:05:01.114
179, 511.75, 11.76, 11.60, 11.23, 0.000, 0.000, 0.000, 15:05:01.136
180, -292.76, 16.37, 8.74, 6.98, 0.000, 0.000, 0.000, 15:05:01.136
181, -257.78, -2.36, 18.60, 16.32, 0.000, 0.000, 0.000, 15:05:01.137
182, 481.34, 9.94, 11.02, 6.88, 0.000, 0.000, 0.000, 15:05:01.137
183, 57.71, 10.88, 9.13, 9.68, 0.000, 0.000, 0.000, 15:05:01.159
184, -473.27, 6.59, 20.28, 18.45, 0.000, 0.000, 0.000, 15:05:01.159
185, 335.20, 9.13, 8.87, 10.48, 0.000, 0.000, 0.000, 15:05:01.159
186, 341.19, 14.20, 6.51, 8.24, 0.000, 0.000, 0.000, 15:05:01.160
187, -493.56, 7.54, 14.96, 10.37, 0.000, 0.000, 0.000, 15:05:01.160
188, 33.72, 5.28, 16.34, 14.06, 0.000, 0.000, 0.000, 15:05:01.160
189, 503.44, 11.15, 7.69, 12.24, 0.000, 0.000, 0.000, 15:05:01.182
190, -288.77, 8.28, 7.83, 12.44, 0.000, 0.000, 0.000, 15:05:01.182
191, -280.21, 3.89, 17.25, 17.13, 0.000, 0.000, 0.000, 15:05:01.182
192, 484.38, 5.92, 11.52, 11.98, 0.000, 0.000, 0.000, 15:05:01.182
193, 44.95, 15.68, 7.05, 7.81, 0.000, 0.000, 0.000, 15:05:01.204
194, -498.46, 1.83, 15.86, 12.02, 0.000, 0.000, 0.000, 15:05:01.204
195, 315.19, 6.35, 12.95, 13.07, 0.000, 0.000, 0.000, 15:05:01.204
196, 326.19, 12.08, 4.64, 9.57, 0.000, 0.000, 0.000, 15:05:01.204
197, -479.65, 7.68, 12.82, 13.01, 0.000, 0.000, 0.000, 15:05:01.227
198, -2.23, 5.31, 14.68, 18.29, 0.000, 0.000, 0.000, 15:05:01.227
199, 517.72, 8.24, 9.35, 10.73, 0.000, 0.000, 0.000, 15:05:01.227
200, -281.26, 11.33, 7.55, 10.02, 0.000, 0.000, 0.000, 15:05:01.228
0, -278.22, 4.87, 17.60, 19.23, 0.000, 0.000, 0.000, 15:05:01.228
1, 491.64, 7.89, 4.50, 9.90, 0.000, 0.000, 0.000, 15:05:01.249
2, 21.29, 16.59, 6.24, 7.74, 0.000, 0.000, 0.000, 15:05:01.249
3, -444.59, 1.20, 18.25, 17.42, 0.000, 0.000, 0.000, 15:05:01.249
4, 327.31, 8.42, 15.13, 13.99, 0.000, 0.000, 0.000, 15:05:01.250
5, 376.02, 13.21, 8.22, 6.25, 0.000, 0.000, 0.000, 15:05:01.271
6, -468.77, 15.50, 15.17, 13.76, 0.000, 0.000, 0.000, 15:05:01.271
7, 77.41, 0.19, 11.86, 15.22, 0.000, 0.000, 0.000, 15:05:01.272
8, 481.28, 12.25, 9.90, 11.06, 0.000, 0.000, 0.000, 15:05:01.272
9, -283.02, 10.30, 5.34, 8.50, 0.000, 0.000, 0.000, 15:05:01.294
10, -297.60, -2.30, 16.87, 18.59, 0.000, 0.000, 0.000, 15:05:01.294
11, 473.64, 7.60, 8.15, 8.43, 0.000, 0.000, 0.000, 15:05:01.294
12, 23.27, 16.55, 4.39, 4.27, 0.000, 0.000, 0.000, 15:05:01.295
13, -504.39, 5.70, 16.61, 17.60, 0.000, 0.000, 0.000, 15:05:01.295
14, 289.49, 4.93, 9.33, 11.99, 0.000, 0.000, 0.000, 15:05:01.295
15, 361.78, 10.91, 7.30, 7.70, 0.000, 0.000, 0.000, 15:05:01.316
16, -499.97, 8.26, 13.34, 11.74, 0.000, 0.000, 0.000, 15:05:01.316
17, 44.32, 3.24, 13.16, 13.47, 0.000, 0.000, 0.000, 15:05:01.317
18, 496.20, 10.92, 7.99, 8.69, 0.000, 0.000, 0.000, 15:05:01.317
19, -268.09, 17.89, 7.93, 9.53, 0.000, 0.000, 0.000, 15:05:01.339
20, -274.37, 2.93, 17.83, 18.22, 0.000, 0.000, 0.000, 15:05:01.339
21, 498.04, 6.56, 9.22, 11.35, 0.000, 0.000, 0.000, 15:05:01.339
22, 30.90, 15.74, 2.95, 5.89, 0.000, 0.000, 0.000, 15:05:01.339
23, -458.88, 5.12, 12.74, 14.50, 0.000, 0.000, 0.000, 15:05:01.361
24, 308.37, 11.43, 11.61, 12.15, 0.000, 0.000, 0.000, 15:05:01.361
25, 343.47, 7.71, 9.16, 7.59, 0.000, 0.000, 0.000, 15:05:01.362
26, -481.03, 8.77, 9.91, 14.37, 0.000, 0.000, 0.000, 15:05:01.362
27, 66.36, 4.49, 13.59, 17.48, 0.000, 0.000, 0.000, 15:05:01.384
28, 488.27, 8.93, 8.48, 13.85, 0.000, 0.000, 0.000, 15:05:01.384
29, -286.39, 11.50, 7.77, 8.11, 0.000, 0.000, 0.000, 15:05:01.384
30, -271.84, 6.07, 18.67, 19.87, 0.000, 0.000, 0.000, 15:05:01.384
31, 496.40, 9.33, 12.27, 9.40, 0.000, 0.000, 0.000, 15:05:01.385
32, -0.03, 13.98, 7.83, 5.30, 0.000, 0.000, 0.000, 15:05:01.385
33, -443.83, 7.50, 19.63, 17.45, 0.000, 0.000, 0.000, 15:05:01.406
34, 312.55, 3.83, 11.58, 12.35, 0.000, 0.000, 0.000, 15:05:01.406
35, 344.38, 13.51, 7.15, 10.35, 0.000, 0.000, 0.000, 15:05:01.407
36, -474.01, 5.64, 13.76, 14.88, 0.000, 0.000, 0.000, 15:05:01.407
37, 60.35, 3.55, 15.05, 13.83, 0.000, 0.000, 0.000, 15:05:01.429
38, 502.13, 13.22, 9.84, 12.36, 0.000, 0.000, 0.000, 15:05:01.429
39, -242.93, 14.69, 8.67, 9.25, 0.000, 0.000, 0.000, 15:05:01.429
40, -199.49, 2.10, 18.78, 16.08, 0.000, 0.000, 0.000, 15:05:01.429
41, 501.86, 11.18, 11.15, 11.57, 0.000, 0.000, 0.000, 15:05:01.451
42, 19.43, 19.28, 6.54, 7.55, 0.000, 0.000, 0.000, 15:05:01.451
43, -475.68, -3.53, 16.58, 20.75, 0.000, 0.000, 0.000, 15:05:01.452
44, 331.42, 7.08, 7.78, 14.11, 0.000, 0.000, 0.000, 15:05:01.452
45, 286.55, 11.66, 4.70, 5.36, 0.000, 0.000, 0.000, 15:05:01.474
46, -393.57, 10.26, 12.41, 12.46, 0.000, 0.000, 0.000, 15:05:01.474
47, 84.17, -0.36, 11.72, 17.71, 0.000, 0.000, 0.000, 15:05:01.475
48, 405.62, 10.50, 9.32, 10.55, 0.000, 0.000, 0.000, 15:05:01.475
49, -313.62, 11.99, 6.62, 4.00, 0.000, 0.000, 0.000, 15:05:01.475
50, -308.83, -1.73, 18.48, 16.02, 0.000, 0.000, 0.000, 15:05:01.475
51, 426.07, 14.32, 9.07, 10.53, 0.000, 0.000, 0.000, 15:05:01.497
52, 29.63, 8.05, 5.22, 8.60, 0.000, 0.000, 0.000, 15:05:01.497
53, -468.84, 5.87, 20.32, 13.67, 0.000, 0.000, 0.000, 15:05:01.519
54, 354.94, 8.06, 14.00, 12.79, 0.000, 0.000, 0.000, 15:05:01.519
55, 360.10, 12.18, 5.53, 3.60, 0.000, 0.000, 0.000, 15:05:01.520
56, -482.64, 2.69, 10.74, 12.06, 0.000, 0.000, 0.000, 15:05:01.520
57, 63.69, 5.73, 16.34, 17.27, 0.000, 0.000, 0.000, 15:05:01.520
58, 530.52, 13.78, 6.53, 8.78, 0.000, 0.000, 0.000, 15:05:01.521
59, -239.97, 10.63, 10.51, 10.17, 0.000, 0.000, 0.000, 15:05:01.541
60, -268.43, 5.22, 20.27, 16.49, 0.000, 0.000, 0.000, 15:05:01.542
61, 498.37, 8.67, 11.44, 12.27, 0.000, 0.000, 0.000, 15:05:01.542
62, 69.76, 15.41, 5.35, 8.03, 0.000, 0.000, 0.000, 15:05:01.542
63, -501.13, 5.26, 19.85, 17.60, 0.000, 0.000, 0.000, 15:05:01.564
64, 338.66, 6.97, 9.92, 12.36, 0.000, 0.000, 0.000, 15:05:01.564
65, 282.57, 12.76, 4.59, 8.52, 0.000, 0.000, 0.000, 15:05:01.586
66, -488.68, 5.04, 12.28, 9.87, 0.000, 0.000, 0.000, 15:05:01.587
67, 16.45, 2.57, 17.26, 16.31, 0.000, 0.000, 0.000, 15:05:01.587
68, 467.19, 13.59, 6.72, 9.88, 0.000, 0.000, 0.000, 15:05:01.587
69, -324.73, 8.74, 7.96, 4.62, 0.000, 0.000, 0.000, 15:05:01.588
70, -271.33, 4.76, 20.08, 15.29, 0.000, 0.000, 0.000, 15:05:01.588
71, 472.60, 10.91, 9.65, 9.68, 0.000, 0.000, 0.000, 15:05:01.588
72, 33.23, 12.68, 3.93, 9.92, 0.000, 0.000, 0.000, 15:05:01.588
73, -494.87, 1.44, 15.92, 17.37, 0.000, 0.000, 0.000, 15:05:01.609
74, 323.30, 7.43, 10.50, 11.09, 0.000, 0.000, 0.000, 15:05:01.609
75, 327.41, 13.37, 4.64, 11.93, 0.000, 0.000, 0.000, 15:05:01.609
76, -431.04, 7.15, 12.80, 13.87, 0.000, 0.000, 0.000, 15:05:01.609
77, 121.99, 3.53, 17.38, 18.94, 0.000, 0.000, 0.000, 15:05:01.631
78, 543.82, 17.61, 9.51, 8.51, 0.000, 0.000, 0.000, 15:05:01.632
79, -348.04, 7.28, 4.30, 6.13, 0.000, 0.000, 0.000, 15:05:01.632
80, -295.81, 3.44, 17.91, 20.13, 0.000, 0.000, 0.000, 15:05:01.632
81, 427.73, 12.13, 9.79, 9.85, 0.000, 0.000, 0.000, 15:05:01.654
82, 39.04, 7.15, 6.00, 5.37, 0.000, 0.000, 0.000, 15:05:01.654
83, -501.90, 3.43, 14.72, 16.15, 0.000, 0.000, 0.000, 15:05:01.655
84, 386.42, 8.56, 12.38, 13.84, 0.000, 0.000, 0.000, 15:05:01.655
85, 311.08, 13.50, 10.14, 10.00, 0.000, 0.000, 0.000, 15:05:01.655
86, -488.20, 8.87, 12.35, 11.56, 0.000, 0.000, 0.000, 15:05:01.655
87, 25.74, 6.52, 14.17, 12.34, 0.000, 0.000, 0.000, 15:05:01.677
88, 514.21, 6.16, 9.29, 10.01, 0.000, 0.000, 0.000, 15:05:01.677
89, -306.25, 14.85, 8.40, 12.28, 0.000, 0.000, 0.000, 15:05:01.677
90, -297.96, 4.72, 17.24, 16.44, 0.000, 0.000, 0.000, 15:05:01.677
91, 524.85, 7.54, 9.03, 12.02, 0.000, 0.000, 0.000, 15:05:01.699
92, 22.69, 12.64, 7.47, 10.56, 0.000, 0.000, 0.000, 15:05:01.699
93, -455.67, 5.04, 16.46, 16.89, 0.000, 0.000, 0.000, 15:05:01.699
94, 383.58, 7.81, 10.51, 11.00, 0.000, 0.000, 0.000, 15:05:01.700
95, 376.79, 12.80, 3.77, 6.48, 0.000, 0.000, 0.000, 15:05:01.721
96, -513.12, 11.92, 10.36, 13.36, 0.000, 0.000, 0.000, 15:05:01.722
97, -19.96, -3.38, 17.30, 16.01, 0.000, 0.000, 0.000, 15:05:01.722
98, 470.62, 17.91, 7.13, 9.43, 0.000, 0.000, 0.000, 15:05:01.722
99, -289.28, 15.04, 8.95, 10.94, 0.000, 0.000, 0.000, 15:05:01.744
100, -267.37, 3.24, 17.99, 16.41, 0.000, 0.000, 0.000, 15:05:01.744
101, 535.42, 8.66, 8.96, 10.77, 0.000, 0.000, 0.000, 15:05:01.744
102, -11.40, 12.87, 8.41, 5.69, 0.000, 0.000, 0.000, 15:05:01.744
103, -470.56, -0.50, 20.34, 19.49, 0.000, 0.000, 0.000, 15:05:01.745
104, 357.07, 9.09, 10.58, 13.70, 0.000, 0.000, 0.000, 15:05:01.745
105, 341.95, 16.96, 7.52, 6.71, 0.000, 0.000, 0.000, 15:05:01.766
106, -499.42, 4.07, 10.29, 8.20, 0.000, 0.000, 0.000, 15:05:01.766
107, 54.32, 5.94, 14.22, 11.66, 0.000, 0.000, 0.000, 15:05:01.767
108, 512.15, 11.26, 6.96, 13.35, 0.000, 0.000, 0.000, 15:05:01.767
109, -344.45, 10.70, 5.78, 11.26, 0.000, 0.000, 0.000, 15:05:01.789
110, -292.40, 4.57, 17.71, 17.59, 0.000, 0.000, 0.000, 15:05:01.789
111, 547.18, 12.89, 9.91, 10.19, 0.000, 0.000, 0.000, 15:05:01.790
112, 10.86, 16.97, 6.63, 4.55, 0.000, 0.000, 0.000, 15:05:01.790
113, -460.40, 6.49, 16.08, 19.74, 0.000, 0.000, 0.000, 15:05:01.811
114, 353.26, 9.37, 11.13, 9.53, 0.000, 0.000, 0.000, 15:05:01.812
115, 344.94, 9.22, 4.84, 11.27, 0.000, 0.000, 0.000, 15:05:01.812
116, -525.85, 8.85, 13.25, 10.77, 0.000, 0.000, 0.000, 15:05:01.812
117, 122.01, 1.08, 16.75, 15.10, 0.000, 0.000, 0.000, 15:05:01.834
118, 538.23, 10.55, 7.29, 10.46, 0.000, 0.000, 0.000, 15:05:01.834
119, -334.71, 6.07, 6.61, 8.24, 0.000, 0.000, 0.000, 15:05:01.835
120, -309.42, -1.78, 20.98, 18.17, 0.000, 0.000, 0.000, 15:05:01.835
121, 511.08, 6.91, 6.81, 8.01, 0.000, 0.000, 0.000, 15:05:01.835
122, 37.77, 12.14, 5.30, 5.85, 0.000, 0.000, 0.000, 15:05:01.835
123, -504.42, 3.32, 15.49, 17.33, 0.000, 0.000, 0.000, 15:05:01.856
124, 339.25, 6.60, 12.32, 11.11, 0.000, 0.000, 0.000, 15:05:01.856
125, 374.43, 15.97, 6.72, 12.17, 0.000, 0.000, 0.000, 15:05:01.857
126, -512.66, 8.63, 12.80, 13.85, 0.000, 0.000, 0.000, 15:05:01.857
127, -5.88, -1.70, 16.00, 16.53, 0.000, 0.000, 0.000, 15:05:01.879
128, 518.11, 14.86, 6.72, 6.02, 0.000, 0.000, 0.000, 15:05:01.879
129, -337.25, 13.65, 5.52, 7.78, 0.000, 0.000, 0.000, 15:05:01.879
130, -304.92, 0.70, 16.49, 17.12, 0.000, 0.000, 0.000, 15:05:01.879
131, 532.76, 8.90, 14.59, 12.38, 0.000, 0.000, 0.000, 15:05:01.901
132, 2.82, 21.26, 9.26, 6.60, 0.000, 0.000, 0.000, 15:05:01.902
133, -548.57, 0.18, 18.68, 19.87, 0.000, 0.000, 0.000, 15:05:01.902
134, 374.87, 7.59, 11.25, 11.51, 0.000, 0.000, 0.000, 15:05:01.902
135, 336.55, 13.73, 4.39, 7.92, 0.000, 0.000, 0.000, 15:05:01.924
136, -556.55, 12.51, 13.41, 15.48, 0.000, 0.000, 0.000, 15:05:01.924
137, 29.95, 2.99, 17.19, 16.80, 0.000, 0.000, 0.000, 15:05:01.924
138, 563.31, 13.50, 5.07, 10.64, 0.000, 0.000, 0.000, 15:05:01.924
139, -256.19, 11.88, 6.08, 13.16, 0.000, 0.000, 0.000, 15:05:01.925
140, -239.46, -1.07, 20.43, 18.38, 0.000, 0.000, 0.000, 15:05:01.925
141, 545.45, 11.20, 14.05, 9.45, 0.000, 0.000, 0.000, 15:05:01.946
142, 24.03, 13.15, 3.08, 7.64, 0.000, 0.000, 0.000, 15:05:01.947
143, -586.14, 2.31, 16.89, 16.44, 0.000, 0.000, 0.000, 15:05:01.947
144, 286.70, 6.40, 10.77, 10.81, 0.000, 0.000, 0.000, 15:05:01.947
145, 383.10, 16.74, 6.32, 12.02, 0.000, 0.000, 0.000, 15:05:01.969
146, -517.22, 4.09, 14.41, 10.77, 0.000, 0.000, 0.000, 15:05:01.969
147, -5.85, 2.95, 11.67, 18.14, 0.000, 0.000, 0.000, 15:05:01.969
148, 532.53, 15.27, 7.97, 11.49, 0.000, 0.000, 0.000, 15:05:01.969
149, -267.78, 15.11, 10.18, 9.30, 0.000, 0.000, 0.000, 15:05:01.991
150, -256.12, 5.08, 18.44, 18.56, 0.000, 0.000, 0.000, 15:05:01.991
151, 514.23, 5.06, 9.24, 11.54, 0.000, 0.000, 0.000, 15:05:01.992
152, 31.27, 15.06, 2.85, 8.29, 0.000, 0.000, 0.000, 15:05:01.992
153, -516.04, -0.00, 17.87, 13.82, 0.000, 0.000, 0.000, 15:05:02.014
154, 338.44, 9.93, 15.86, 12.38, 0.000, 0.000, 0.000, 15:05:02.015
155, 336.80, 12.18, 7.38, 7.51, 0.000, 0.000, 0.000, 15:05:02.015
156, -519.06, 8.50, 12.44, 12.75, 0.000, 0.000, 0.000, 15:05:02.015
157, 38.87, 0.96, 17.23, 15.66, 0.000, 0.000, 0.000, 15:05:02.016
158, 513.42, 13.04, 2.13, 9.33, 0.000, 0.000, 0.000, 15:05:02.016
159, -361.87, 17.66, 7.26, 5.57, 0.000, 0.000, 0.000, 15:05:02.036
160, -260.39, -1.86, 18.59, 15.47, 0.000, 0.000, 0.000, 15:05:02.037
161, 535.58, 7.67, 7.73, 9.19, 0.000, 0.000, 0.000, 15:05:02.037
162, 86.34, 14.45, 5.39, 2.42, 0.000, 0.000, 0.000, 15:05:02.037
163, -488.57, 4.84, 16.73, 18.51, 0.000, 0.000, 0.000, 15:05:02.059
164, 313.95, 5.82, 13.36, 13.63, 0.000, 0.000, 0.000, 15:05:02.059
165, 305.55, 17.48, 6.37, 4.51, 0.000, 0.000, 0.000, 15:05:02.059
166, -532.27, 6.43, 12.87, 11.55, 0.000, 0.000, 0.000, 15:05:02.059
167, 87.84, 1.47, 13.91, 14.48, 0.000, 0.000, 0.000, 15:05:02.081
168, 509.20, 17.40, 5.45, 11.91, 0.000, 0.000, 0.000, 15:05:02.082
169, -351.77, 9.41, 6.90, 8.27, 0.000, 0.000, 0.000, 15:05:02.082
170, -312.11, -2.47, 21.21, 19.43, 0.000, 0.000, 0.000, 15:05:02.082
171, 535.02, 7.84, 9.93, 9.70, 0.000, 0.000, 0.000, 15:05:02.104
172, 6.43, 17.64, 5.28, 7.88, 0.000, 0.000, 0.000, 15:05:02.104
173, -486.51, 2.90, 20.10, 19.64, 0.000, 0.000, 0.000, 15:05:02.105
174, 357.11, 7.93, 9.68, 12.18, 0.000, 0.000, 0.000, 15:05:02.105
175, 350.66, 15.60, 7.33, 7.53, 0.000, 0.000, 0.000, 15:05:02.105
176, -528.30, 7.23, 15.55, 12.52, 0.000, 0.000, 0.000, 15:05:02.105
177, 61.52, 4.50, 16.66, 13.99, 0.000, 0.000, 0.000, 15:05:02.126
178, 519.05, 9.20, 8.73, 10.85, 0.000, 0.000, 0.000, 15:05:02.126
179, -288.41, 13.40, 5.00, 9.70, 0.000, 0.000, 0.000, 15:05:02.127
180, -281.79, 2.35, 15.71, 19.01, 0.000, 0.000, 0.000, 15:05:02.127
181, 524.80, 2.64, 10.44, 13.30, 0.000, 0.000, 0.000, 15:05:02.149
182, 60.06, 9.99, 5.39, 3.92, 0.000, 0.000, 0.000, 15:05:02.149
183, -506.78, 4.03, 15.19, 15.28, 0.000, 0.000, 0.000, 15:05:02.149
184, 319.78, 2.96, 8.32, 11.57, 0.000, 0.000, 0.000, 15:05:02.150
185, 360.77, 10.42, 5.70, 10.32, 0.000, 0.000, 0.000, 15:05:02.171
186, -526.65, 11.73, 10.03, 15.66, 0.000, 0.000, 0.000, 15:05:02.172
187, 123.20, 1.16, 16.25, 11.98, 0.000, 0.000, 0.000, 15:05:02.172
188, 541.41, 12.40, 6.14, 9.96, 0.000, 0.000, 0.000, 15:05:02.172
189, -386.65, 13.64, 8.60, 10.24, 0.000, 0.000, 0.000, 15:05:02.194
190, -332.70, 5.80, 18.44, 20.45, 0.000, 0.000, 0.000, 15:05:02.194
191, 501.50, 6.69, 12.35, 9.18, 0.000, 0.000, 0.000, 15:05:02.194
192, 34.76, 13.97, 4.54, 8.92, 0.000, 0.000, 0.000, 15:05:02.195
193, -527.89, 4.37, 20.44, 17.28, 0.000, 0.000, 0.000, 15:05:02.195
194, 354.00, 7.13, 10.02, 9.82, 0.000, 0.000, 0.000, 15:05:02.195
195, 340.95, 21.21, 8.75, 8.72, 0.000, 0.000, 0.000, 15:05:02.216
196, -535.61, 3.60, 13.67, 12.73, 0.000, 0.000, 0.000, 15:05:02.217
197, 71.73, 4.15, 14.02, 15.42, 0.000, 0.000, 0.000, 15:05:02.217
198, 524.46, 12.43, 10.72, 8.03, 0.000, 0.000, 0.000, 15:05:02.217
199, -291.07, 14.37, 6.39, 11.06, 0.000, 0.000, 0.000, 15:05:02.239
200, -287.63, 1.10, 16.04, 18.57, 0.000, 0.000, 0.000, 15:05:02.239
0, 528.98, 11.31, 8.12, 9.76, 0.000, 0.000, 0.000, 15:05:02.239
1, 37.01, 14.54, 6.28, 9.99, 0.000, 0.000, 0.000, 15:05:02.240
2, -510.43, 3.58, 17.83, 22.67, 0.000, 0.000, 0.000, 15:05:02.240
3, 352.35, 7.92, 8.33, 10.97, 0.000, 0.000, 0.000, 15:05:02.261
4, 355.74, 10.11, 7.62, 10.29, 0.000, 0.000, 0.000, 15:05:02.261
5, -503.93, 7.74, 13.18, 12.65, 0.000, 0.000, 0.000, 15:05:02.262
6, 58.49, 5.51, 18.45, 15.34, 0.000, 0.000, 0.000, 15:05:02.262
7, 503.07, 14.20, 6.08, 7.75, 0.000, 0.000, 0.000, 15:05:02.284
8, -309.66, 10.55, 6.65, 8.31, 0.000, 0.000, 0.000, 15:05:02.284
9, -290.29, 2.07, 21.61, 16.41, 0.000, 0.000, 0.000, 15:05:02.284
10, 530.79, 7.99, 12.77, 13.30, 0.000, 0.000, 0.000, 15:05:02.284
11, 20.37, 13.95, 6.88, 9.16, 0.000, 0.000, 0.000, 15:05:02.306
12, -500.68, 7.32, 17.30, 16.78, 0.000, 0.000, 0.000, 15:05:02.307
13, 354.68, 3.92, 13.54, 11.49, 0.000, 0.000, 0.000, 15:05:02.307
14, 363.03, 14.11, 8.11, 8.49, 0.000, 0.000, 0.000, 15:05:02.307
15, -503.22, 7.99, 11.50, 13.72, 0.000, 0.000, 0.000, 15:05:02.329
16, 78.93, 2.56, 14.00, 15.00, 0.000, 0.000, 0.000, 15:05:02.330
17, 562.82, 12.84, 5.43, 11.28, 0.000, 0.000, 0.000, 15:05:02.330
18, -306.78, 18.07, 8.87, 8.93, 0.000, 0.000, 0.000, 15:05:02.330
19, -277.84, 2.55, 19.41, 17.82, 0.000, 0.000, 0.000, 15:05:02.331
20, 508.98, 9.08, 6.86, 6.32, 0.000, 0.000, 0.000, 15:05:02.331
21, 7.15, 14.60, 5.89, 5.22, 0.000, 0.000, 0.000, 15:05:02.351
22, -523.83, -1.61, 14.04, 16.21, 0.000, 0.000, 0.000, 15:05:02.351
23, 297.62, 3.32, 11.78, 10.28, 0.000, 0.000, 0.000, 15:05:02.352
24, 339.37, 15.98, 8.01, 7.20, 0.000, 0.000, 0.000, 15:05:02.352
25, -525.19, 5.96, 11.87, 10.97, 0.000, 0.000, 0.000, 15:05:02.374
26, 30.87, 5.03, 12.58, 12.22, 0.000, 0.000, 0.000, 15:05:02.374
27, 494.81, 15.66, 7.36, 11.74, 0.000, 0.000, 0.000, 15:05:02.374
28, -294.99, 11.63, 11.65, 16.91, 0.000, 0.000, 0.000, 15:05:02.374
29, -267.12, -2.28, 21.01, 16.13, 0.000, 0.000, 0.000, 15:05:02.396
30, 524.66, 13.02, 8.32, 9.41, 0.000, 0.000, 0.000, 15:05:02.397
31, 32.86, 9.27, 5.98, 6.44, 0.000, 0.000, 0.000, 15:05:02.397
32, -497.49, 7.04, 14.71, 19.31, 0.000, 0.000, 0.000, 15:05:02.397
33, 336.76, 9.33, 12.39, 17.13, 0.000, 0.000, 0.000, 15:05:02.419
34, 361.45, 12.76, 9.27, 6.55, 0.000, 0.000, 0.000, 15:05:02.419
35, -496.37, 6.58, 10.69, 9.36, 0.000, 0.000, 0.000, 15:05:02.419
36, 20.93, 3.02, 13.73, 15.95, 0.000, 0.000, 0.000, 15:05:02.419
37, 548.65, 14.59, 6.85, 8.78, 0.000, 0.000, 0.000, 15:05:02.441
38, -301.27, 15.91, 9.31, 6.92, 0.000, 0.000, 0.000, 15:05:02.441
39, -298.58, 9.84, 18.61, 16.75, 0.000, 0.000, 0.000, 15:05:02.442
40, 517.09, 6.91, 8.42, 9.33, 0.000, 0.000, 0.000, 15:05:02.442
41, 54.12, 15.51, 3.24, 5.88, 0.000, 0.000, 0.000, 15:05:02.442
42, -503.95, -1.32, 14.12, 16.94, 0.000, 0.000, 0.000, 15:05:02.442
43, 331.72, 7.13, 8.68, 10.75, 0.000, 0.000, 0.000, 15:05:02.464
44, 381.25, 11.84, 7.47, 10.70, 0.000, 0.000, 0.000, 15:05:02.464
45, -535.40, 8.48, 15.21, 10.71, 0.000, 0.000, 0.000, 15:05:02.464
46, 46.25, 5.35, 17.63, 18.22, 0.000, 0.000, 0.000, 15:05:02.465
47, 545.49, 12.55, 9.03, 11.22, 0.000, 0.000, 0.000, 15:05:02.486
48, -310.55, 16.41, 6.36, 10.46, 0.000, 0.000, 0.000, 15:05:02.487
49, -277.92, -2.49, 18.86, 16.98, 0.000, 0.000, 0.000, 15:05:02.487
50, 506.32, 7.66, 8.33, 11.30, 0.000, 0.000, 0.000, 15:05:02.487
51, 74.31, 17.19, 7.10, 7.08, 0.000, 0.000, 0.000, 15:05:02.509
52, -540.62, 7.02, 15.17, 16.79, 0.000, 0.000, 0.000, 15:05:02.509
53, 362.14, 2.69, 8.95, 11.43, 0.000, 0.000, 0.000, 15:05:02.509
54, 354.86, 14.21, 7.06, 8.04, 0.000, 0.000, 0.000, 15:05:02.510
55, -522.68, 6.10, 9.28, 13.36, 0.000, 0.000, 0.000, 15:05:02.510
56, 31.64, 3.54, 19.45, 14.10, 0.000, 0.000, 0.000, 15:05:02.510
57, 553.31, 12.69, 7.44, 9.44, 0.000, 0.000, 0.000, 15:05:02.531
58, -313.67, 12.80, 10.47, 7.11, 0.000, 0.000, 0.000, 15:05:02.532
59, -279.97, 3.21, 18.07, 17.86, 0.000, 0.000, 0.000, 15:05:02.532
60, 509.80, 8.92, 10.08, 14.88, 0.000, 0.000, 0.000, 15:05:02.532
61, 67.18, 17.53, 3.64, 7.53, 0.000, 0.000, 0.000, 15:05:02.554
62, -534.15, 0.48, 14.96, 11.02, 0.000, 0.000, 0.000, 15:05:02.554
63, 358.31, 7.25, 15.15, 17.53, 0.000, 0.000, 0.000, 15:05:02.554
64, 366.01, 10.13, 4.39, 11.56, 0.000, 0.000, 0.000, 15:05:02.555
65, -525.65, 9.09, 12.82, 11.60, 0.000, 0.000, 0.000, 15:05:02.576
66, 71.54, 9.50, 15.59, 15.66, 0.000, 0.000, 0.000, 15:05:02.577
67, 523.66, 5.61, 8.87, 8.81, 0.000, 0.000, 0.000, 15:05:02.577
68, -304.20, 12.34, 8.09, 11.77, 0.000, 0.000, 0.000, 15:05:02.577
69, -290.42, 0.72, 19.69, 15.80, 0.000, 0.000, 0.000, 15:05:02.599
70, 535.31, 9.14, 10.46, 11.98, 0.000, 0.000, 0.000, 15:05:02.599
71, 27.10, 9.71, 5.03, 1.56, 0.000, 0.000, 0.000, 15:05:02.600
72, -506.05, -1.02, 19.80, 16.90, 0.000, 0.000, 0.000, 15:05:02.600
73, 337.81, 6.40, 11.41, 11.27, 0.000, 0.000, 0.000, 15:05:02.600
74, 328.20, 14.08, 7.43, 8.47, 0.000, 0.000, 0.000, 15:05:02.600
75, -514.83, 13.13, 13.46, 15.42, 0.000, 0.000, 0.000, 15:05:02.621
76, 43.75, 0.28, 14.13, 12.74, 0.000, 0.000, 0.000, 15:05:02.622
77, 523.19, 13.01, 5.35, 10.45, 0.000, 0.000, 0.000, 15:05:02.622
78, -298.90, 12.68, 6.86, 8.23, 0.000, 0.000, 0.000, 15:05:02.622
79, -309.04, 0.71, 18.59, 20.53, 0.000, 0.000, 0.000, 15:05:02.644
80, 509.33, 9.44, 9.53, 10.37, 0.000, 0.000, 0.000, 15:05:02.644
81, 41.69, 16.21, 8.14, 5.69, 0.000, 0.000, 0.000, 15:05:02.644
82, -517.31, 2.92, 16.47, 19.42, 0.000, 0.000, 0.000, 15:05:02.645
83, 360.47, 5.69, 8.43, 11.18, 0.000, 0.000, 0.000, 15:05:02.666
84, 333.69, 18.87, 6.08, 8.51, 0.000, 0.000, 0.000, 15:05:02.667
85, -513.16, 8.95, 13.26, 12.98, 0.000, 0.000, 0.000, 15:05:02.667
86, 38.02, 3.84, 18.27, 14.37, 0.000, 0.000, 0.000, 15:05:02.667
87, 517.48, 15.56, 7.19, 10.18, 0.000, 0.000, 0.000, 15:05:02.689
88, -288.39, 9.03, 7.15, 10.80, 0.000, 0.000, 0.000, 15:05:02.689
89, -306.92, -1.37, 18.50, 21.84, 0.000, 0.000, 0.000, 15:05:02.690
90, 522.53, 8.49, 8.04, 11.23, 0.000, 0.000, 0.000, 15:05:02.690
91, 43.74, 11.87, 8.15, 7.78, 0.000, 0.000, 0.000, 15:05:02.690
92, -505.92, 2.22, 14.57, 10.77, 0.000, 0.000, 0.000, 15:05:02.690
93, 342.32, 12.83, 11.19, 13.63, 0.000, 0.000, 0.000, 15:05:02.712
94, 365.30, 11.81, 4.74, 6.39, 0.000, 0.000, 0.000, 15:05:02.712
95, -526.92, 8.67, 16.37, 13.02, 0.000, 0.000, 0.000, 15:05:02.712
96, 42.46, 5.73, 16.25, 14.44, 0.000, 0.000, 0.000, 15:05:02.712
97, 534.21, 12.92, 4.32, 11.00, 0.000, 0.000, 0.000, 15:05:02.734
98, -299.43, 11.40, 9.17, 7.87, 0.000, 0.000, 0.000, 15:05:02.734
99, -299.56, 0.35, 18.26, 16.82, 0.000, 0.000, 0.000, 15:05:02.734
100, 519.12, 8.55, 7.04, 8.99, 0.000, 0.000, 0.000, 15:05:02.735
101, 45.55, 14.57, 6.48, 5.41, 0.000, 0.000, 0.000, 15:05:02.756
102, -514.14, 8.72, 15.50, 18.74, 0.000, 0.000, 0.000, 15:05:02.756
103, 350.02, 2.43, 8.63, 12.96, 0.000, 0.000, 0.000, 15:05:02.757
104, 350.83, 9.65, 8.02, 7.78, 0.000, 0.000, 0.000, 15:05:02.757
105, -528.17, 3.75, 13.17, 9.81, 0.000, 0.000, 0.000, 15:05:02.779
106, 46.77, 4.19, 17.46, 17.91, 0.000, 0.000, 0.000, 15:05:02.779
107, 536.51, 10.65, 9.91, 8.58, 0.000, 0.000, 0.000, 15:05:02.779
108, -315.73, 14.56, 6.36, 10.95, 0.000, 0.000, 0.000, 15:05:02.780
109, -287.75, 1.08, 20.10, 21.22, 0.000, 0.000, 0.000, 15:05:02.780
110, 508.35, 11.19, 7.46, 7.80, 0.000, 0.000, 0.000, 15:05:02.780
111, 45.87, 14.13, 3.11, 6.69, 0.000, 0.000, 0.000, 15:05:02.801
112, -524.31, 3.57, 13.72, 14.74, 0.000, 0.000, 0.000, 15:05:02.802
113, 349.24, 8.25, 11.32, 8.87, 0.000, 0.000, 0.000, 15:05:02.802
114, 359.56, 17.59, 3.73, 10.03, 0.000, 0.000, 0.000, 15:05:02.802
115, -527.56, 8.73, 15.67, 14.50, 0.000, 0.000, 0.000, 15:05:02.824
116, 33.62, 4.21, 15.65, 15.86, 0.000, 0.000, 0.000, 15:05:02.824
117, 533.09, 13.43, 10.31, 7.78, 0.000, 0.000, 0.000, 15:05:02.824
118, -311.04, 10.25, 6.54, 11.66, 0.000, 0.000, 0.000, 15:05:02.824
119, -295.61, -1.40, 14.68, 16.06, 0.000, 0.000, 0.000, 15:05:02.846
120, 528.88, 12.72, 9.81, 5.92, 0.000, 0.000, 0.000, 15:05:02.847
121, 44.13, 11.81, 6.85, 6.08, 0.000, 0.000, 0.000, 15:05:02.847
122, -510.92, 1.16, 16.90, 16.27, 0.000, 0.000, 0.000, 15:05:02.847
123, 338.34, 6.09, 12.89, 13.93, 0.000, 0.000, 0.000, 15:05:02.869
124, 373.51, 14.27, 5.38, 8.01, 0.000, 0.000, 0.000, 15:05:02.869
125, -531.34, 5.31, 14.17, 13.10, 0.000, 0.000, 0.000, 15:05:02.891
126, 52.47, 4.77, 17.15, 18.42, 0.000, 0.000, 0.000, 15:05:02.892
127, 521.94, 12.08, 4.07, 10.04, 0.000, 0.000, 0.000, 15:05:02.892
128, -297.56, 13.62, 7.24, 10.28, 0.000, 0.000, 0.000, 15:05:02.892
129, -301.10, -1.24, 18.97, 18.36, 0.000, 0.000, 0.000, 15:05:02.893
130, 530.06, 12.00, 8.48, 7.89, 0.000, 0.000, 0.000, 15:05:02.893
131, 52.98, 11.79, 5.83, 9.62, 0.000, 0.000, 0.000, 15:05:02.894
132, -518.53, 5.44, 16.47, 19.20, 0.000, 0.000, 0.000, 15:05:02.894
133, 344.65, 7.25, 9.28, 12.90, 0.000, 0.000, 0.000, 15:05:02.914
134, 377.69, 14.06, 7.65, 9.62, 0.000, 0.000, 0.000, 15:05:02.914
135, -530.49, 9.30, 9.79, 12.64, 0.000, 0.000, 0.000, 15:05:02.914
136, 39.42, 2.34, 15.33, 16.13, 0.000, 0.000, 0.000, 15:05:02.915
137, 539.13, 13.73, 10.98, 8.52, 0.000, 0.000, 0.000, 15:05:02.937
138, -299.51, 12.78, 8.11, 5.07, 0.000, 0.000, 0.000, 15:05:02.937
139, -298.88, -2.66, 18.51, 16.49, 0.000, 0.000, 0.000, 15:05:02.937
140, 515.71, 9.33, 10.96, 13.15, 0.000, 0.000, 0.000, 15:05:02.937
141, 44.40, 15.64, 5.17, 6.84, 0.000, 0.000, 0.000, 15:05:02.961
142, -520.71, 2.83, 19.92, 19.82, 0.000, 0.000, 0.000, 15:05:02.961
143, 342.54, 8.10, 9.75, 11.09, 0.000, 0.000, 0.000, 15:05:02.973
144, 369.31, 12.86, 4.45, 6.52, 0.000, 0.000, 0.000, 15:05:02.973
145, -523.15, 7.34, 13.69, 13.50, 0.000, 0.000, 0.000, 15:05:02.973
146, 43.20, 2.63, 17.36, 15.43, 0.000, 0.000, 0.000, 15:05:02.973
147, 540.80, 13.52, 7.17, 8.80, 0.000, 0.000, 0.000, 15:05:02.984
148, -296.39, 10.02, 10.37, 9.44, 0.000, 0.000, 0.000, 15:05:02.984
149, -302.66, 4.06, 14.43, 17.44, 0.000, 0.000, 0.000, 15:05:02.984
150, 525.18, 8.99, 7.94, 9.38, 0.000, 0.000, 0.000, 15:05:02.984
151, 46.41, 15.16, 3.34, 8.14, 0.000, 0.000, 0.000, 15:05:03.010
152, -517.31, 5.35, 19.22, 17.43, 0.000, 0.000, 0.000, 15:05:03.010
153, 340.53, 4.57, 8.84, 11.15, 0.000, 0.000, 0.000, 15:05:03.010
154, 368.76, 14.86, 4.02, 8.68, 0.000, 0.000, 0.000, 15:05:03.011
155, -546.99, 9.67, 15.26, 11.47, 0.000, 0.000, 0.000, 15:05:03.028
156, 34.09, 9.94, 17.78, 15.38, 0.000, 0.000, 0.000, 15:05:03.028
157, 542.37, 11.11, 10.23, 11.86, 0.000, 0.000, 0.000, 15:05:03.028
158, -317.43, 14.84, 7.16, 6.94, 0.000, 0.000, 0.000, 15:05:03.028
159, -288.94, -0.45, 19.54, 16.51, 0.000, 0.000, 0.000, 15:05:03.052
160, 513.89, 8.96, 7.06, 12.67, 0.000, 0.000, 0.000, 15:05:03.052
161, 53.08, 12.32, 2.89, 3.78, 0.000, 0.000, 0.000, 15:05:03.052
162, -536.40, 6.00, 16.84, 14.91, 0.000, 0.000, 0.000, 15:05:03.052
163, 354.71, 7.34, 8.76, 12.56, 0.000, 0.000, 0.000, 15:05:03.071
164, 345.86, 12.27, 7.24, 8.82, 0.000, 0.000, 0.000, 15:05:03.072
165, -512.18, 12.46, 12.69, 11.73, 0.000, 0.000, 0.000, 15:05:03.073
166, 32.26, -8.04, 13.44, 15.67, 0.000, 0.000, 0.000, 15:05:03.073
167, 551.74, 8.75, 7.84, 12.05, 0.000, 0.000, 0.000, 15:05:03.074
168, -315.08, 11.52, 8.26, 7.94, 0.000, 0.000, 0.000, 15:05:03.074
169, -289.30, 1.97, 22.85, 21.82, 0.000, 0.000, 0.000, 15:05:03.094
170, 517.14, 11.99, 9.83, 14.09, 0.000, 0.000, 0.000, 15:05:03.095
171, 58.76, 16.92, 7.31, 7.85, 0.000, 0.000, 0.000, 15:05:03.095
172, -518.22, 4.09, 18.17, 16.96, 0.000, 0.000, 0.000, 15:05:03.095
173, 348.18, 8.74, 9.53, 11.24, 0.000, 0.000, 0.000, 15:05:03.116
174, 360.20, 20.30, 4.10, 5.35, 0.000, 0.000, 0.000, 15:05:03.116
175, -528.97, 1.23, 12.85, 13.49, 0.000, 0.000, 0.000, 15:05:03.117
176, 49.53, 2.80, 20.21, 18.58, 0.000, 0.000, 0.000, 15:05:03.117
177, 529.51, 9.15, 8.92, 10.07, 0.000, 0.000, 0.000, 15:05:03.139
178, -292.81, 10.36, 9.87, 9.26, 0.000, 0.000, 0.000, 15:05:03.139
179, -312.21, 1.13, 19.14, 14.82, 0.000, 0.000, 0.000, 15:05:03.140
180, 532.00, 12.65, 11.48, 7.81, 0.000, 0.000, 0.000, 15:05:03.140
181, 49.78, 14.28, 5.51, 8.97, 0.000, 0.000, 0.000, 15:05:03.141
182, -509.68, 4.73, 12.90, 15.04, 0.000, 0.000, 0.000, 15:05:03.141
183, 352.41, 9.70, 11.86, 8.06, 0.000, 0.000, 0.000, 15:05:03.161
184, 361.26, 14.00, 4.39, 8.72, 0.000, 0.000, 0.000, 15:05:03.161
185, -519.52, 5.24, 8.78, 12.61, 0.000, 0.000, 0.000, 15:05:03.162
186, 36.84, 2.58, 15.85, 18.36, 0.000, 0.000, 0.000, 15:05:03.162
187, 540.11, 10.82, 5.35, 9.47, 0.000, 0.000, 0.000, 15:05:03.184
188, -296.87, 7.50, 8.94, 10.89, 0.000, 0.000, 0.000, 15:05:03.184
189, -299.34, 3.10, 14.72, 15.67, 0.000, 0.000, 0.000, 15:05:03.184
190, 535.91, 14.69, 12.79, 14.91, 0.000, 0.000, 0.000, 15:05:03.184
191, 29.70, 10.93, 9.13, 6.96, 0.000, 0.000, 0.000, 15:05:03.206
192, -519.82, 5.99, 16.78, 18.56, 0.000, 0.000, 0.000, 15:05:03.206
193, 346.67, 0.92, 12.58, 13.78, 0.000, 0.000, 0.000, 15:05:03.207
194, 360.76, 12.86, 1.86, 5.57, 0.000, 0.000, 0.000, 15:05:03.207
195, -516.42, 11.16, 13.88, 12.71, 0.000, 0.000, 0.000, 15:05:03.229
196, 39.66, 4.86, 17.28, 12.95, 0.000, 0.000, 0.000, 15:05:03.229
197, 546.00, 10.20, 7.19, 10.26, 0.000, 0.000, 0.000, 15:05:03.229
198, -304.49, 11.41, 8.52, 8.32, 0.000, 0.000, 0.000, 15:05:03.229
199, -295.38, -1.09, 18.05, 15.86, 0.000, 0.000, 0.000, 15:05:03.230
200, 520.16, 8.09, 6.49, 12.12, 0.000, 0.000, 0.000, 15:05:03.230
0, 50.25, 16.13, 4.87, 9.05, 0.000, 0.000, 0.000, 15:05:03.251
1, -511.22, 5.98, 19.02, 18.87, 0.000, 0.000, 0.000, 15:05:03.252
2, 341.44, 6.36, 11.39, 13.82, 0.000, 0.000, 0.000, 15:05:03.252
3, 370.93, 16.61, 6.42, 4.89, 0.000, 0.000, 0.000, 15:05:03.274
4, -527.09, 5.81, 11.91, 14.39, 0.000, 0.000, 0.000, 15:05:03.274
5, 38.86, 2.84, 15.27, 15.13, 0.000, 0.000, 0.000, 15:05:03.274
6, 542.30, 15.82, 8.68, 11.69, 0.000, 0.000, 0.000, 15:05:03.274
7, -298.79, 11.76, 6.33, 10.74, 0.000, 0.000, 0.000, 15:05:03.275
8, -288.83, 2.57, 18.56, 15.69, 0.000, 0.000, 0.000, 15:05:03.275
9, 522.40, 13.84, 9.83, 10.08, 0.000, 0.000, 0.000, 15:05:03.296
10, 45.71, 11.75, 5.98, 6.23, 0.000, 0.000, 0.000, 15:05:03.296
11, -482.08, 6.86, 14.95, 15.02, 0.000, 0.000, 0.000, 15:05:03.297
12, 354.51, 5.26, 12.87, 15.04, 0.000, 0.000, 0.000, 15:05:03.297
13, 384.92, 13.78, 5.37, 7.81, 0.000, 0.000, 0.000, 15:05:03.319
14, -527.39, 4.59, 16.82, 15.43, 0.000, 0.000, 0.000, 15:05:03.319
15, 19.82, 2.06, 16.27, 18.75, 0.000, 0.000, 0.000, 15:05:03.319
16, 519.69, 10.46, 9.12, 11.51, 0.000, 0.000, 0.000, 15:05:03.320
17, -326.90, 14.87, 6.49, 9.31, 0.000, 0.000, 0.000, 15:05:03.341
18, -311.32, 7.77, 15.11, 15.65, 0.000, 0.000, 0.000, 15:05:03.341
19, 490.63, 11.36, 8.28, 10.75, 0.000, 0.000, 0.000, 15:05:03.342
20, 37.11, 13.71, 3.52, 7.64, 0.000, 0.000, 0.000, 15:05:03.342
21, -529.94, -1.67, 17.15, 14.88, 0.000, 0.000, 0.000, 15:05:03.364
22, 341.50, 9.92, 9.63, 7.43, 0.000, 0.000, 0.000, 15:05:03.364
23, 367.10, 14.18, 8.83, 10.13, 0.000, 0.000, 0.000, 15:05:03.364
24, -523.41, 9.57, 11.41, 13.29, 0.000, 0.000, 0.000, 15:05:03.364
25, 45.21, 6.58, 18.13, 15.21, 0.000, 0.000, 0.000, 15:05:03.365
26, 537.06, 14.23, 6.74, 7.68, 0.000, 0.000, 0.000, 15:05:03.365
27, -292.51, 11.58, 11.90, 9.84, 0.000, 0.000, 0.000, 15:05:03.387
28, -307.94, -2.93, 18.57, 18.30, 0.000, 0.000, 0.000, 15:05:03.388
29, 537.54, 8.35, 9.45, 10.08, 0.000, 0.000, 0.000, 15:05:03.388
30, 48.34, 10.68, 5.04, 4.10, 0.000, 0.000, 0.000, 15:05:03.388
31, -501.74, 4.99, 16.36, 19.31, 0.000, 0.000, 0.000, 15:05:03.410
32, 340.07, 7.39, 13.04, 14.96, 0.000, 0.000, 0.000, 15:05:03.410
33, 384.96, 9.42, 6.71, 11.26, 0.000, 0.000, 0.000, 15:05:03.410
34, -523.46, 4.15, 16.72, 9.87, 0.000, 0.000, 0.000, 15:05:03.410
35, 43.35, 4.44, 13.40, 14.40, 0.000, 0.000, 0.000, 15:05:03.431
36, 545.89, 14.90, 3.45, 11.85, 0.000, 0.000, 0.000, 15:05:03.431
37, -292.69, 12.02, 6.55, 11.36, 0.000, 0.000, 0.000, 15:05:03.454
38, -293.45, -0.09, 18.21, 16.50, 0.000, 0.000, 0.000, 15:05:03.454
39, 513.89, 9.83, 8.56, 8.13, 0.000, 0.000, 0.000, 15:05:03.454
40, 53.99, 15.20, 7.01, 5.90, 0.000, 0.000, 0.000, 15:05:03.454
41, -524.66, 1.34, 15.06, 19.27, 0.000, 0.000, 0.000, 15:05:03.455
42, 353.31, 8.93, 9.19, 13.53, 0.000, 0.000, 0.000, 15:05:03.455
43, 362.85, 14.31, 7.42, 5.51, 0.000, 0.000, 0.000, 15:05:03.456
44, -513.14, 9.74, 11.61, 13.09, 0.000, 0.000, 0.000, 15:05:03.456
45, 36.46, 1.83, 12.64, 12.60, 0.000, 0.000, 0.000, 15:05:03.476
46, 550.74, 13.44, 7.51, 9.77, 0.000, 0.000, 0.000, 15:05:03.476
47, -307.32, 9.47, 9.62, 9.09, 0.000, 0.000, 0.000, 15:05:03.477
48, -292.84, -0.15, 21.81, 18.93, 0.000, 0.000, 0.000, 15:05:03.477
49, 527.47, 10.02, 5.29, 12.51, 0.000, 0.000, 0.000, 15:05:03.499
50, 41.17, 15.08, 5.02, 12.87, 0.000, 0.000, 0.000, 15:05:03.501
51, -507.73, 2.08, 15.72, 13.85, 0.000, 0.000, 0.000, 15:05:03.501
52, 343.43, 6.29, 12.65, 12.38, 0.000, 0.000, 0.000, 15:05:03.501
53, 380.00, 12.94, 6.64, 8.66, 0.000, 0.000, 0.000, 15:05:03.521
54, -530.62, 9.93, 12.34, 10.17, 0.000, 0.000, 0.000, 15:05:03.521
55, 56.75, -2.20, 15.83, 18.19, 0.000, 0.000, 0.000, 15:05:03.522
56, 516.96, 12.96, 10.26, 15.35, 0.000, 0.000, 0.000, 15:05:03.522
57, -279.40, 9.18, 6.17, 5.77, 0.000, 0.000, 0.000, 15:05:03.544
58, -307.60, 5.48, 16.74, 11.23, 0.000, 0.000, 0.000, 15:05:03.544
59, 536.72, 8.48, 10.66, 8.64, 0.000, 0.000, 0.000, 15:05:03.545
60, 36.94, 19.02, 8.64, 10.94, 0.000, 0.000, 0.000, 15:05:03.545
61, -496.84, 5.66, 16.74, 15.38, 0.000, 0.000, 0.000, 15:05:03.566
62, 339.32, 6.71, 11.77, 11.91, 0.000, 0.000, 0.000, 15:05:03.566
63, 382.01, 21.86, 7.40, 9.11, 0.000, 0.000, 0.000, 15:05:03.567
64, -529.55, 0.05, 15.52, 15.41, 0.000, 0.000, 0.000, 15:05:03.567
65, 45.58, 3.70, 13.52, 15.52, 0.000, 0.000, 0.000, 15:05:03.567
66, 526.67, 13.27, 7.68, 9.89, 0.000, 0.000, 0.000, 15:05:03.568
67, -295.06, 14.05, 8.10, 10.06, 0.000, 0.000, 0.000, 15:05:03.589
68, -313.67, 0.78, 14.46, 15.05, 0.000, 0.000, 0.000, 15:05:03.589
69, 523.62, 11.58, 8.90, 13.70, 0.000, 0.000, 0.000, 15:05:03.589
70, 30.01, 13.16, 6.59, 1.24, 0.000, 0.000, 0.000, 15:05:03.589
71, -509.32, 5.82, 18.01, 14.98, 0.000, 0.000, 0.000, 15:05:03.611
72, 332.55, 12.39, 11.49, 11.26, 0.000, 0.000, 0.000, 15:05:03.612
73, 372.71, 6.85, 8.87, 12.07, 0.000, 0.000, 0.000, 15:05:03.612
74, -542.36, 5.36, 10.56, 13.67, 0.000, 0.000, 0.000, 15:05:03.612
75, 48.19, 3.75, 13.85, 17.56, 0.000, 0.000, 0.000, 15:05:03.634
76, 520.84, 6.89, 7.02, 9.35, 0.000, 0.000, 0.000, 15:05:03.634
77, -298.81, 13.59, 8.51, 12.08, 0.000, 0.000, 0.000, 15:05:03.635
78, -319.25, 2.86, 17.46, 15.53, 0.000, 0.000, 0.000, 15:05:03.637
79, 522.23, 13.50, 8.12, 9.13, 0.000, 0.000, 0.000, 15:05:03.638
80, 34.74, 15.03, 5.75, 6.17, 0.000, 0.000, 0.000, 15:05:03.638
81, -512.35, 4.63, 17.87, 18.30, 0.000, 0.000, 0.000, 15:05:03.656
82, 329.38, 3.71, 12.36, 15.36, 0.000, 0.000, 0.000, 15:05:03.657
83, 372.22, 15.83, 4.02, 6.46, 0.000, 0.000, 0.000, 15:05:03.657
84, -532.98, 7.55, 14.07, 20.57, 0.000, 0.000, 0.000, 15:05:03.657
85, 45.17, 4.28, 15.01, 19.08, 0.000, 0.000, 0.000, 15:05:03.679
86, 523.94, 6.60, 6.96, 8.43, 0.000, 0.000, 0.000, 15:05:03.679
87, -299.74, 13.72, 10.86, 4.56, 0.000, 0.000, 0.000, 15:05:03.679
88, -313.66, -2.29, 19.44, 14.84, 0.000, 0.000, 0.000, 15:05:03.679
89, 527.71, 9.50, 12.77, 9.68, 0.000, 0.000, 0.000, 15:05:03.701
90, 27.54, 20.29, 6.90, 8.72, 0.000, 0.000, 0.000, 15:05:03.701
91, -501.15, 1.16, 16.31, 14.54, 0.000, 0.000, 0.000, 15:05:03.702
92, 322.43, 10.85, 11.58, 13.30, 0.000, 0.000, 0.000, 15:05:03.702
93, 383.32, 18.20, 6.26, 7.37, 0.000, 0.000, 0.000, 15:05:03.724
94, -541.77, 9.04, 12.32, 15.48, 0.000, 0.000, 0.000, 15:05:03.724
95, 47.57, 4.45, 14.00, 15.71, 0.000, 0.000, 0.000, 15:05:03.724
96, 527.90, 15.57, 6.67, 8.11, 0.000, 0.000, 0.000, 15:05:03.725
97, -305.07, 15.23, 7.58, 7.55, 0.000, 0.000, 0.000, 15:05:03.725
98, -289.05, -3.03, 18.39, 17.76, 0.000, 0.000, 0.000, 15:05:03.725
99, 514.73, 10.34, 8.62, 14.47, 0.000, 0.000, 0.000, 15:05:03.746
100, 57.60, 12.20, 4.39, 7.36, 0.000, 0.000, 0.000, 15:05:03.746
101, -538.51, 3.72, 18.53, 13.65, 0.000, 0.000, 0.000, 15:05:03.747
102, 356.90, 4.14, 11.14, 15.92, 0.000, 0.000, 0.000, 15:05:03.747
103, 348.13, 11.95, 7.58, 14.43, 0.000, 0.000, 0.000, 15:05:03.769
104, -521.93, 6.49, 15.26, 14.68, 0.000, 0.000, 0.000, 15:05:03.769
105, 36.39, 2.66, 15.42, 12.73, 0.000, 0.000, 0.000, 15:05:03.769
106, 521.93, 11.06, 1.70, 11.14, 0.000, 0.000, 0.000, 15:05:03.769
107, -284.47, 16.71, 4.46, 5.55, 0.000, 0.000, 0.000, 15:05:03.792
108, -324.37, 5.51, 18.60, 17.15, 0.000, 0.000, 0.000, 15:05:03.792
109, 531.90, 2.21, 11.44, 9.38, 0.000, 0.000, 0.000, 15:05:03.792
110, 32.84, 14.53, 4.01, 6.62, 0.000, 0.000, 0.000, 15:05:03.792
111, -510.47, 2.77, 15.99, 18.74, 0.000, 0.000, 0.000, 15:05:03.814
112, 341.99, 5.81, 8.17, 11.46, 0.000, 0.000, 0.000, 15:05:03.814
113, 362.71, 11.14, 5.15, 6.72, 0.000, 0.000, 0.000, 15:05:03.814
114, -508.30, 8.59, 12.33, 11.28, 0.000, 0.000, 0.000, 15:05:03.815
115, 33.19, 3.15, 17.21, 16.74, 0.000, 0.000, 0.000, 15:05:03.815
116, 546.25, 15.74, 8.02, 8.36, 0.000, 0.000, 0.000, 15:05:03.815
117, -307.24, 18.11, 6.56, 4.18, 0.000, 0.000, 0.000, 15:05:03.836
118, -301.99, -2.58, 17.88, 17.70, 0.000, 0.000, 0.000, 15:05:03.836
119, 536.40, 8.98, 12.58, 11.83, 0.000, 0.000, 0.000, 15:05:03.837
120, 36.94, 14.24, 2.24, 5.30, 0.000, 0.000, 0.000, 15:05:03.837
121, -504.30, 1.32, 18.28, 17.83, 0.000, 0.000, 0.000, 15:05:03.859
122, 337.57, 5.83, 11.15, 12.97, 0.000, 0.000, 0.000, 15:05:03.859
123, 369.57, 12.53, 7.96, 7.81, 0.000, 0.000, 0.000, 15:05:03.859
124, -522.32, 5.68, 12.90, 13.36, 0.000, 0.000, 0.000, 15:05:03.859
125, 33.81, 1.61, 15.28, 11.19, 0.000, 0.000, 0.000, 15:05:03.881
126, 537.70, 17.43, 12.41, 8.49, 0.000, 0.000, 0.000, 15:05:03.881
127, -310.34, 8.30, 7.41, 11.96, 0.000, 0.000, 0.000, 15:05:03.882
128, -281.76, 1.53, 20.17, 14.76, 0.000, 0.000, 0.000, 15:05:03.882
129, 501.76, 11.88, 10.36, 12.50, 0.000, 0.000, 0.000, 15:05:03.904
130, 60.06, 14.65, 8.00, 11.53, 0.000, 0.000, 0.000, 15:05:03.904
131, -526.84, 0.92, 15.92, 11.72, 0.000, 0.000, 0.000, 15:05:03.904
132, 345.96, 7.84, 11.79, 11.10, 0.000, 0.000, 0.000, 15:05:03.904
133, 374.86, 13.86, 2.97, 9.75, 0.000, 0.000, 0.000, 15:05:03.905
134, -528.20, 4.68, 11.12, 10.06, 0.000, 0.000, 0.000, 15:05:03.905
135, 44.07, 4.36, 16.50, 17.41, 0.000, 0.000, 0.000, 15:05:03.926
136, 540.94, 12.37, 9.36, 10.68, 0.000, 0.000, 0.000, 15:05:03.926
137, -300.61, 15.45, 10.79, 9.76, 0.000, 0.000, 0.000, 15:05:03.949
138, -298.38, 1.16, 18.20, 13.46, 0.000, 0.000, 0.000, 15:05:03.949
139, 519.52, 7.40, 6.84, 9.41, 0.000, 0.000, 0.000, 15:05:03.949
140, 50.83, 13.24, 5.10, 5.11, 0.000, 0.000, 0.000, 15:05:03.950
141, -523.63, 1.18, 17.41, 16.99, 0.000, 0.000, 0.000, 15:05:03.950
142, 347.43, 7.10, 10.13, 18.02, 0.000, 0.000, 0.000, 15:05:03.950
143, 371.44, 16.97, 6.29, 9.72, 0.000, 0.000, 0.000, 15:05:03.971
144, -524.74, 4.93, 11.74, 9.80, 0.000, 0.000, 0.000, 15:05:03.972
145, 36.88, 1.79, 15.38, 16.03, 0.000, 0.000, 0.000, 15:05:03.972
146, 533.05, 16.16, 8.44, 10.34, 0.000, 0.000, 0.000, 15:05:03.972
147, -289.80, 12.39, 8.30, 15.32, 0.000, 0.000, 0.000, 15:05:03.994
148, -313.76, 4.60, 17.86, 17.69, 0.000, 0.000, 0.000, 15:05:03.994
149, 513.22, 6.06, 8.49, 10.97, 0.000, 0.000, 0.000, 15:05:03.994
150, 44.50, 16.08, 8.00, 9.47, 0.000, 0.000, 0.000, 15:05:03.995
151, -530.39, 3.35, 18.75, 18.63, 0.000, 0.000, 0.000, 15:05:03.995
152, 353.68, 4.01, 8.46, 16.00, 0.000, 0.000, 0.000, 15:05:03.995
153, 360.54, 14.84, 4.10, 7.97, 0.000, 0.000, 0.000, 15:05:04.016
154, -528.60, 3.85, 9.91, 7.49, 0.000, 0.000, 0.000, 15:05:04.017
155, 38.27, 7.82, 13.06, 14.53, 0.000, 0.000, 0.000, 15:05:04.017
156, 533.05, 12.34, 7.51, 9.86, 0.000, 0.000, 0.000, 15:05:04.017
157, -307.18, 12.54, 4.29, 9.59, 0.000, 0.000, 0.000, 15:05:04.039
158, -299.39, -2.39, 15.74, 15.79, 0.000, 0.000, 0.000, 15:05:04.039
159, 516.28, 5.77, 10.70, 8.63, 0.000, 0.000, 0.000, 15:05:04.039
160, 40.48, 10.80, 6.84, 10.77, 0.000, 0.000, 0.000, 15:05:04.039
161, -523.35, 3.33, 17.61, 19.97, 0.000, 0.000, 0.000, 15:05:04.061
162, 345.82, 15.25, 14.08, 12.86, 0.000, 0.000, 0.000, 15:05:04.061
163, 366.74, 10.07, 9.46, 8.33, 0.000, 0.000, 0.000, 15:05:04.062
164, -527.80, 10.07, 13.10, 11.17, 0.000, 0.000, 0.000, 15:05:04.062
165, 43.35, 2.19, 18.89, 16.42, 0.000, 0.000, 0.000, 15:05:04.084
166, 538.71, 12.57, 8.48, 12.43, 0.000, 0.000, 0.000, 15:05:04.084
167, -307.07, 12.96, 7.61, 7.97, 0.000, 0.000, 0.000, 15:05:04.084
168, -292.73, -1.61, 16.89, 16.89, 0.000, 0.000, 0.000, 15:05:04.085
169, 523.48, 8.96, 10.98, 9.01, 0.000, 0.000, 0.000, 15:05:04.085
170, 45.29, 11.28, 4.41, 8.73, 0.000, 0.000, 0.000, 15:05:04.085
171, -502.60, 4.68, 20.11, 16.26, 0.000, 0.000, 0.000, 15:05:04.106
172, 340.94, 5.01, 10.02, 11.63, 0.000, 0.000, 0.000, 15:05:04.106
173, 371.64, 17.13, 7.61, 5.56, 0.000, 0.000, 0.000, 15:05:04.107
174, -519.59, 8.76, 11.95, 14.82, 0.000, 0.000, 0.000, 15:05:04.107
175, 35.78, 3.69, 14.14, 14.54, 0.000, 0.000, 0.000, 15:05:04.129
176, 540.34, 9.51, 12.78, 11.63, 0.000, 0.000, 0.000, 15:05:04.129
177, -301.48, 15.01, 6.13, 7.87, 0.000, 0.000, 0.000, 15:05:04.129
178, -300.74, 0.38, 16.39, 20.74, 0.000, 0.000, 0.000, 15:05:04.130
179, 524.63, 10.63, 7.33, 9.59, 0.000, 0.000, 0.000, 15:05:04.151
180, 43.29, 22.61, 2.28, 10.05, 0.000, 0.000, 0.000, 15:05:04.152
181, -502.66, -0.06, 14.56, 16.91, 0.000, 0.000, 0.000, 15:05:04.152
182, 337.28, 6.49, 13.33, 11.14, 0.000, 0.000, 0.000, 15:05:04.152
183, 378.89, 11.39, 8.62, 8.04, 0.000, 0.000, 0.000, 15:05:04.174
184, -526.33, 6.64, 9.98, 14.21, 0.000, 0.000, 0.000, 15:05:04.174
185, 33.91, -0.66, 14.69, 15.43, 0.000, 0.000, 0.000, 15:05:04.175
186, 545.14, 14.85, 7.05, 8.60, 0.000, 0.000, 0.000, 15:05:04.175
187, -313.15, 9.39, 7.26, 6.51, 0.000, 0.000, 0.000, 15:05:04.175
188, -284.43, 0.80, 18.59, 18.22, 0.000, 0.000, 0.000, 15:05:04.176
189, 513.93, 13.63, 8.52, 13.76, 0.000, 0.000, 0.000, 15:05:04.196
190, 56.76, 13.18, 8.53, 3.53, 0.000, 0.000, 0.000, 15:05:04.196
191, -533.02, 1.08, 17.50, 18.50, 0.000, 0.000, 0.000, 15:05:04.197
192, 344.16, 6.46, 14.28, 12.87, 0.000, 0.000, 0.000, 15:05:04.197
193, 355.24, 14.82, 5.64, 8.33, 0.000, 0.000, 0.000, 15:05:04.219
194, -514.56, 10.10, 11.65, 15.61, 0.000, 0.000, 0.000, 15:05:04.219
195, 25.61, 5.44, 16.83, 18.59, 0.000, 0.000, 0.000, 15:05:04.219
196, 547.23, 13.86, 8.36, 9.52, 0.000, 0.000, 0.000, 15:05:04.219
197, -312.88, 13.14, 3.67, 9.81, 0.000, 0.000, 0.000, 15:05:04.241
198, -288.34, 6.47, 19.69, 17.94, 0.000, 0.000, 0.000, 15:05:04.241
199, 503.33, 4.00, 10.37, 11.20, 0.000, 0.000, 0.000, 15:05:04.242
200, 57.20, 14.55, 8.99, 4.78, 0.000, 0.000, 0.000, 15:05:04.242
0, -529.32, 6.17, 21.07, 16.79, 0.000, 0.000, 0.000, 15:05:04.243
1, 354.38, 9.28, 11.92, 15.77, 0.000, 0.000, 0.000, 15:05:04.264
2, 346.61, 14.80, 8.31, 6.43, 0.000, 0.000, 0.000, 15:05:04.264
3, -512.04, 4.62, 8.16, 14.07, 0.000, 0.000, 0.000, 15:05:04.264
4, 36.02, 1.71, 15.91, 13.63, 0.000, 0.000, 0.000, 15:05:04.264
5, 540.90, 8.69, 3.61, 5.78, 0.000, 0.000, 0.000, 15:05:04.286
6, -297.74, 14.94, 8.96, 6.91, 0.000, 0.000, 0.000, 15:05:04.286
7, -300.91, -6.91, 16.69, 16.59, 0.000, 0.000, 0.000, 15:05:04.287
8, 523.90, 7.69, 8.45, 9.71, 0.000, 0.000, 0.000, 15:05:04.287
9, 52.30, 14.86, 4.27, 7.49, 0.000, 0.000, 0.000, 15:05:04.309
10, -506.87, 2.61, 15.79, 15.19, 0.000, 0.000, 0.000, 15:05:04.309
11, 342.46, 6.35, 13.59, 13.80, 0.000, 0.000, 0.000, 15:05:04.309
12, 372.96, 16.09, 7.62, 7.70, 0.000, 0.000, 0.000, 15:05:04.310
13, -522.54, 4.50, 15.97, 11.72, 0.000, 0.000, 0.000, 15:05:04.310
14, 40.62, 3.90, 12.94, 14.65, 0.000, 0.000, 0.000, 15:05:04.310
15, 540.07, 14.15, 7.58, 6.69, 0.000, 0.000, 0.000, 15:05:04.331
16, -282.95, 10.66, 8.03, 7.93, 0.000, 0.000, 0.000, 15:05:04.331
17, -289.01, -2.03, 20.65, 20.42, 0.000, 0.000, 0.000, 15:05:04.332
18, 551.76, 9.81, 10.74, 11.05, 0.000, 0.000, 0.000, 15:05:04.332
19, 71.20, 11.69, 4.73, 9.28, 0.000, 0.000, 0.000, 15:05:04.354
20, -512.18, 0.98, 18.90, 18.01, 0.000, 0.000, 0.000, 15:05:04.354
21, 326.04, 7.05, 9.08, 13.18, 0.000, 0.000, 0.000, 15:05:04.354
22, 363.22, 15.92, 5.82, 8.18, 0.000, 0.000, 0.000, 15:05:04.354
23, -556.93, 11.22, 10.37, 10.90, 0.000, 0.000, 0.000, 15:05:04.376
24, 20.43, 8.25, 14.43, 13.31, 0.000, 0.000, 0.000, 15:05:04.377
25, 509.02, 9.94, 5.55, 13.14, 0.000, 0.000, 0.000, 15:05:04.377
26, -319.69, 15.37, 9.33, 11.28, 0.000, 0.000, 0.000, 15:05:04.377
27, -322.86, 5.34, 19.08, 18.90, 0.000, 0.000, 0.000, 15:05:04.399
28, 520.19, 10.03, 11.41, 10.05, 0.000, 0.000, 0.000, 15:05:04.399
29, 42.90, 14.04, 7.49, 8.58, 0.000, 0.000, 0.000, 15:05:04.399
30, -517.00, 2.79, 16.80, 15.53, 0.000, 0.000, 0.000, 15:05:04.400
31, 344.84, 8.53, 11.32, 11.20, 0.000, 0.000, 0.000, 15:05:04.400
32, 372.92, 13.17, 6.92, 7.87, 0.000, 0.000, 0.000, 15:05:04.400
33, -515.24, 12.03, 14.46, 13.02, 0.000, 0.000, 0.000, 15:05:04.421
34, 43.73, 3.50, 16.21, 13.00, 0.000, 0.000, 0.000, 15:05:04.421
35, 548.88, 12.16, 7.79, 7.62, 0.000, 0.000, 0.000, 15:05:04.422
36, -302.14, 11.13, 8.59, 7.37, 0.000, 0.000, 0.000, 15:05:04.422
37, -300.99, 3.77, 16.55, 14.99, 0.000, 0.000, 0.000, 15:05:04.444
38, 528.45, 7.40, 8.79, 10.35, 0.000, 0.000, 0.000, 15:05:04.444
39, 45.84, 15.70, 4.01, 4.70, 0.000, 0.000, 0.000, 15:05:04.444
40, -515.07, 6.78, 16.75, 15.29, 0.000, 0.000, 0.000, 15:05:04.444
41, 349.07, 6.98, 10.84, 13.35, 0.000, 0.000, 0.000, 15:05:04.466
42, 367.10, 18.09, 4.59, 9.48, 0.000, 0.000, 0.000, 15:05:04.466
43, -515.34, 3.84, 14.76, 20.01, 0.000, 0.000, 0.000, 15:05:04.467
44, 37.51, 0.24, 13.88, 18.03, 0.000, 0.000, 0.000, 15:05:04.467
45, 541.44, 16.06, 6.79, 12.60, 0.000, 0.000, 0.000, 15:05:04.489
46, -290.50, 12.08, 7.89, 6.32, 0.000, 0.000, 0.000, 15:05:04.489
47, -300.92, 4.84, 18.92, 15.40, 0.000, 0.000, 0.000, 15:05:04.490
48, 529.84, 10.94, 8.71, 10.74, 0.000, 0.000, 0.000, 15:05:04.490
49, 49.76, 12.05, 5.30, 8.32, 0.000, 0.000, 0.000, 15:05:04.491
50, -519.27, 3.63, 19.95, 18.66, 0.000, 0.000, 0.000, 15:05:04.491
51, 354.59, 9.78, 12.65, 14.07, 0.000, 0.000, 0.000, 15:05:04.511
52, 367.22, 10.91, 7.77, 10.99, 0.000, 0.000, 0.000, 15:05:04.511
53, -503.18, 8.54, 12.17, 14.76, 0.000, 0.000, 0.000, 15:05:04.512
54, 23.27, 1.39, 15.34, 17.10, 0.000, 0.000, 0.000, 15:05:04.512
55, 545.84, 14.87, 8.26, 10.16, 0.000, 0.000, 0.000, 15:05:04.534
56, -307.98, 7.08, 8.82, 9.45, 0.000, 0.000, 0.000, 15:05:04.534
57, -282.97, 0.22, 18.11, 19.43, 0.000, 0.000, 0.000, 15:05:04.534
58, 513.81, 6.70, 9.61, 12.20, 0.000, 0.000, 0.000, 15:05:04.534
59, 60.70, 12.76, 7.31, 4.31, 0.000, 0.000, 0.000, 15:05:04.557
60, -524.85, 6.37, 19.20, 16.13, 0.000, 0.000, 0.000, 15:05:04.557
61, 355.93, 2.11, 10.96, 11.28, 0.000, 0.000, 0.000, 15:05:04.557
62, 352.67, 12.19, 7.34, 5.27, 0.000, 0.000, 0.000, 15:05:04.558
63, -502.65, 8.86, 10.90, 8.51, 0.000, 0.000, 0.000, 15:05:04.579
64, 21.36, 4.25, 12.75, 15.49, 0.000, 0.000, 0.000, 15:05:04.579
65, 562.38, 12.30, 6.75, 8.18, 0.000, 0.000, 0.000, 15:05:04.579
66, -311.27, 11.06, 6.86, 8.61, 0.000, 0.000, 0.000, 15:05:04.579
67, -291.54, -0.47, 16.47, 16.16, 0.000, 0.000, 0.000, 15:05:04.580
68, 519.09, 7.81, 9.76, 15.20, 0.000, 0.000, 0.000, 15:05:04.580
69, 43.26, 19.04, 4.75, 7.16, 0.000, 0.000, 0.000, 15:05:04.601
70, -495.34, 2.69, 21.71, 14.03, 0.000, 0.000, 0.000, 15:05:04.601
71, 330.81, 5.71, 12.16, 10.23, 0.000, 0.000, 0.000, 15:05:04.602
72, 382.30, 17.47, 7.02, 8.10, 0.000, 0.000, 0.000, 15:05:04.602
73, -528.79, 8.36, 11.54, 11.62, 0.000, 0.000, 0.000, 15:05:04.624
74, 40.80, 0.07, 14.08, 17.34, 0.000, 0.000, 0.000, 15:05:04.624
75, 540.18, 11.36, 7.29, 10.54, 0.000, 0.000, 0.000, 15:05:04.624
76, -311.91, 9.72, 9.12, 10.76, 0.000, 0.000, 0.000, 15:05:04.624
77, -280.14, 3.01, 18.79, 16.84, 0.000, 0.000, 0.000, 15:05:04.646
78, 497.65, 15.80, 10.89, 11.16, 0.000, 0.000, 0.000, 15:05:04.646
79, 49.31, 9.72, 4.07, 8.56, 0.000, 0.000, 0.000, 15:05:04.647
80, -528.11, -1.21, 18.64, 20.66, 0.000, 0.000, 0.000, 15:05:04.647
81, 332.04, 7.21, 10.40, 13.43, 0.000, 0.000, 0.000, 15:05:04.669
82, 377.31, 8.75, 10.69, 6.97, 0.000, 0.000, 0.000, 15:05:04.669
83, -545.98, 6.07, 10.10, 13.70, 0.000, 0.000, 0.000, 15:05:04.669
84, 46.00, 6.05, 11.12, 13.12, 0.000, 0.000, 0.000, 15:05:04.669
85, 514.13, 11.68, 9.22, 10.93, 0.000, 0.000, 0.000, 15:05:04.670
86, -303.00, 13.33, 4.70, 8.85, 0.000, 0.000, 0.000, 15:05:04.670
87, -308.64, 4.31, 20.76, 16.75, 0.000, 0.000, 0.000, 15:05:04.691
88, 516.34, 8.45, 7.35, 12.57, 0.000, 0.000, 0.000, 15:05:04.691
89, 54.03, 16.03, 4.03, 8.07, 0.000, 0.000, 0.000, 15:05:04.692
90, -541.35, 3.83, 13.73, 16.17, 0.000, 0.000, 0.000, 15:05:04.692
91, 350.22, 4.89, 10.85, 12.06, 0.000, 0.000, 0.000, 15:05:04.714
92, 350.82, 12.13, 7.08, 6.23, 0.000, 0.000, 0.000, 15:05:04.714
93, -514.96, 8.60, 13.47, 11.88, 0.000, 0.000, 0.000, 15:05:04.714
94, 14.63, 4.14, 14.78, 17.58, 0.000, 0.000, 0.000, 15:05:04.714
95, 549.58, 11.95, 7.22, 6.98, 0.000, 0.000, 0.000, 15:05:04.736
96, -312.16, 17.40, 6.47, 6.01, 0.000, 0.000, 0.000, 15:05:04.737
97, -299.37, -1.96, 18.19, 17.42, 0.000, 0.000, 0.000, 15:05:04.737
98, 515.83, 7.83, 10.83, 8.27, 0.000, 0.000, 0.000, 15:05:04.737
99, 47.45, 16.58, 0.94, 5.94, 0.000, 0.000, 0.000, 15:05:04.759
100, -519.26, 5.18, 17.81, 14.75, 0.000, 0.000, 0.000, 15:05:04.759
101, 343.13, 7.85, 11.56, 10.52, 0.000, 0.000, 0.000, 15:05:04.759
102, 355.98, 13.27, 6.55, 7.08, 0.000, 0.000, 0.000, 15:05:04.760
103, -515.39, 7.65, 14.55, 11.90, 0.000, 0.000, 0.000, 15:05:04.760
104, 31.59, 1.34, 15.57, 15.28, 0.000, 0.000, 0.000, 15:05:04.760
105, 552.29, 12.68, 7.01, 13.80, 0.000, 0.000, 0.000, 15:05:04.781
106, -312.82, 11.71, 4.57, 11.49, 0.000, 0.000, 0.000, 15:05:04.781
107, -284.08, 3.64, 16.14, 18.67, 0.000, 0.000, 0.000, 15:05:04.782
108, 511.37, 7.59, 8.47, 13.19, 0.000, 0.000, 0.000, 15:05:04.782
109, 58.57, 13.50, 8.24, 5.51, 0.000, 0.000, 0.000, 15:05:04.804
110, -519.06, 0.10, 16.90, 13.66, 0.000, 0.000, 0.000, 15:05:04.804
111, 342.88, 10.69, 13.36, 13.32, 0.000, 0.000, 0.000, 15:05:04.804
112, 374.04, 12.35, 5.83, 8.60, 0.000, 0.000, 0.000, 15:05:04.804
113, -520.62, 4.08, 13.79, 10.48, 0.000, 0.000, 0.000, 15:05:04.826
114, 39.76, 7.11, 13.85, 15.81, 0.000, 0.000, 0.000, 15:05:04.826
115, 542.00, 3.58, 10.28, 6.33, 0.000, 0.000, 0.000, 15:05:04.827
116, -298.92, 15.31, 9.36, 10.02, 0.000, 0.000, 0.000, 15:05:04.827
117, -298.63, 3.66, 17.26, 19.20, 0.000, 0.000, 0.000, 15:05:04.849
118, 517.90, 12.80, 7.33, 14.02, 0.000, 0.000, 0.000, 15:05:04.849
119, 53.71, 13.20, 5.97, 8.06, 0.000, 0.000, 0.000, 15:05:04.849
120, -516.50, 3.43, 18.49, 17.41, 0.000, 0.000, 0.000, 15:05:04.850
121, 333.85, 6.62, 8.15, 14.62, 0.000, 0.000, 0.000, 15:05:04.850
122, 360.93, 13.20, 5.22, 6.36, 0.000, 0.000, 0.000, 15:05:04.850
123, -521.25, 10.90, 12.46, 13.99, 0.000, 0.000, 0.000, 15:05:04.871
124, 20.22, 3.06, 14.56, 13.82, 0.000, 0.000, 0.000, 15:05:04.872
125, 534.51, 12.66, 10.12, 7.38, 0.000, 0.000, 0.000, 15:05:04.872
126, -301.91, 12.16, 11.95, 10.05, 0.000, 0.000, 0.000, 15:05:04.872
127, -311.18, 2.62, 16.28, 17.38, 0.000, 0.000, 0.000, 15:05:04.894
128, 520.00, 10.40, 12.89, 11.41, 0.000, 0.000, 0.000, 15:05:04.894
129, 39.30, 16.78, 8.55, 9.34, 0.000, 0.000, 0.000, 15:05:04.894
130, -513.66, 3.59, 21.40, 19.13, 0.000, 0.000, 0.000, 15:05:04.894
131, 339.23, 8.41, 13.38, 13.35, 0.000, 0.000, 0.000, 15:05:04.916
132, 363.88, 12.17, 3.18, 6.11, 0.000, 0.000, 0.000, 15:05:04.916
133, -519.25, -0.51, 11.53, 10.76, 0.000, 0.000, 0.000, 15:05:04.917
134, 36.86, 1.77, 16.96, 12.03, 0.000, 0.000, 0.000, 15:05:04.917
135, 538.43, 15.74, 8.70, 10.25, 0.000, 0.000, 0.000, 15:05:04.939
136, -300.23, 13.05, 3.98, 9.13, 0.000, 0.000, 0.000, 15:05:04.940
137, -307.02, 3.53, 19.18, 16.59, 0.000, 0.000, 0.000, 15:05:04.940
138, 526.61, 10.36, 7.08, 7.31, 0.000, 0.000, 0.000, 15:05:04.940
139, 41.89, 16.13, 3.59, 6.19, 0.000, 0.000, 0.000, 15:05:04.940
140, -510.57, 4.32, 18.63, 17.96, 0.000, 0.000, 0.000, 15:05:04.940
141, 341.22, 6.26, 13.42, 11.01, 0.000, 0.000, 0.000, 15:05:04.962
142, 368.60, 11.75, 6.04, 5.54, 0.000, 0.000, 0.000, 15:05:04.962
143, -513.73, 7.82, 14.31, 14.45, 0.000, 0.000, 0.000, 15:05:04.962
144, 30.18, 5.43, 19.06, 20.03, 0.000, 0.000, 0.000, 15:05:04.962
145, 536.46, 14.98, 8.07, 11.01, 0.000, 0.000, 0.000, 15:05:04.984
146, -294.25, 11.72, 6.57, 9.20, 0.000, 0.000, 0.000, 15:05:04.984
147, -311.95, 0.34, 19.68, 17.56, 0.000, 0.000, 0.000, 15:05:04.984
148, 525.71, 10.52, 4.44, 12.81, 0.000, 0.000, 0.000, 15:05:04.984
149, 34.03, 12.41, 5.32, 6.87, 0.000, 0.000, 0.000, 15:05:05.006
150, -508.32, 6.43, 17.32, 19.49, 0.000, 0.000, 0.000, 15:05:05.007
151, 340.90, 0.04, 13.27, 11.39, 0.000, 0.000, 0.000, 15:05:05.007
152, 377.37, 13.79, 8.57, 10.79, 0.000, 0.000, 0.000, 15:05:05.007
153, -528.81, 4.45, 12.13, 11.52, 0.000, 0.000, 0.000, 15:05:05.029
154, 37.72, 5.87, 12.64, 16.23, 0.000, 0.000, 0.000, 15:05:05.029
155, 536.48, 11.94, 9.87, 8.67, 0.000, 0.000, 0.000, 15:05:05.029
156, -296.22, 11.83, 6.01, 8.98, 0.000, 0.000, 0.000, 15:05:05.030
157, -302.96, 1.37, 17.24, 17.69, 0.000, 0.000, 0.000, 15:05:05.030
158, 521.97, 10.19, 10.42, 9.32, 0.000, 0.000, 0.000, 15:05:05.030
159, 47.75, 14.65, 5.56, 6.89, 0.000, 0.000, 0.000, 15:05:05.052
160, -515.10, 0.11, 18.80, 16.98, 0.000, 0.000, 0.000, 15:05:05.052
161, 349.67, 7.44, 11.53, 12.48, 0.000, 0.000, 0.000, 15:05:05.052
162, 376.16, 12.50, 4.61, 10.12, 0.000, 0.000, 0.000, 15:05:05.052
163, -519.45, 8.96, 12.26, 12.26, 0.000, 0.000, 0.000, 15:05:05.074
164, 38.18, 1.45, 13.34, 16.69, 0.000, 0.000, 0.000, 15:05:05.074
165, 539.37, 16.30, 7.06, 13.06, 0.000, 0.000, 0.000, 15:05:05.075
166, -297.39, 11.05, 4.31, 4.80, 0.000, 0.000, 0.000, 15:05:05.075
167, -305.73, 1.68, 17.63, 16.15, 0.000, 0.000, 0.000, 15:05:05.096
168, 524.54, 16.53, 12.37, 8.56, 0.000, 0.000, 0.000, 15:05:05.096
169, 48.30, 9.82, 6.26, 8.96, 0.000, 0.000, 0.000, 15:05:05.119
170, -511.96, 1.42, 22.41, 19.47, 0.000, 0.000, 0.000, 15:05:05.119
171, 321.92, 7.56, 10.64, 10.80, 0.000, 0.000, 0.000, 15:05:05.120
172, 391.04, 11.74, 7.49, 8.05, 0.000, 0.000, 0.000, 15:05:05.120
173, -545.99, 7.72, 13.16, 10.86, 0.000, 0.000, 0.000, 15:05:05.120
174, 45.05, 2.43, 14.75, 15.92, 0.000, 0.000, 0.000, 15:05:05.120
175, 517.02, 10.63, 8.80, 9.51, 0.000, 0.000, 0.000, 15:05:05.120
176, -292.83, 11.46, 11.25, 10.12, 0.000, 0.000, 0.000, 15:05:05.120
177, -321.06, 2.47, 17.36, 14.97, 0.000, 0.000, 0.000, 15:05:05.141
178, 527.78, 13.66, 6.73, 6.90, 0.000, 0.000, 0.000, 15:05:05.141
179, 39.60, 16.09, 4.56, 9.47, 0.000, 0.000, 0.000, 15:05:05.142
180, -511.30, 1.95, 15.36, 16.57, 0.000, 0.000, 0.000, 15:05:05.142
181, 334.55, 6.69, 10.25, 10.36, 0.000, 0.000, 0.000, 15:05:05.164
182, 371.60, 14.17, 2.77, 7.98, 0.000, 0.000, 0.000, 15:05:05.164
183, -525.14, 9.23, 15.22, 13.23, 0.000, 0.000, 0.000, 15:05:05.165
184, 22.36, 2.42, 19.37, 16.87, 0.000, 0.000, 0.000, 15:05:05.165
185, 541.62, 11.31, 4.94, 8.74, 0.000, 0.000, 0.000, 15:05:05.186
186, -294.19, 13.01, 5.46, 12.75, 0.000, 0.000, 0.000, 15:05:05.186
187, -304.51, -3.55, 17.08, 21.32, 0.000, 0.000, 0.000, 15:05:05.187
188, 517.97, 8.33, 10.83, 12.44, 0.000, 0.000, 0.000, 15:05:05.187
189, 50.46, 13.93, 6.11, 6.75, 0.000, 0.000, 0.000, 15:05:05.209
190, -515.44, 1.67, 17.94, 17.84, 0.000, 0.000, 0.000, 15:05:05.209
191, 332.73, 5.10, 13.44, 11.55, 0.000, 0.000, 0.000, 15:05:05.209
192, 372.64, 15.19, 3.60, 7.48, 0.000, 0.000, 0.000, 15:05:05.209
193, -528.01, 8.68, 11.88, 13.13, 0.000, 0.000, 0.000, 15:05:05.210
194, 47.45, 2.60, 14.80, 14.79, 0.000, 0.000, 0.000, 15:05:05.210
195, 523.40, 13.04, 5.89, 8.35, 0.000, 0.000, 0.000, 15:05:05.231
196, -294.98, 14.49, 7.88, 10.49, 0.000, 0.000, 0.000, 15:05:05.232
197, -312.94, 2.93, 17.33, 16.78, 0.000, 0.000, 0.000, 15:05:05.232
198, 530.91, 9.79, 9.66, 10.37, 0.000, 0.000, 0.000, 15:05:05.232
199, 42.73, 13.20, 4.41, 6.74, 0.000, 0.000, 0.000, 15:05:05.254
