%OpenBCI Raw EEG Data
%
%Sample Rate = 200.0 Hz
%First Column = SampleIndex
%Last Column = Timestamp 
%Other Columns = EEG data in microvolts followed by Accel Data (in G) interleaved with Aux Data
0, 169.04, 7.01, 3.87, 9.02, 0.000, 0.000, 0.000, 15:59:49.228
1, -236.40, 14.26, 7.02, 10.67, 0.000, 0.000, 0.000, 15:59:49.232
2, -303.95, 1.92, 18.41, 19.28, 0.000, 0.000, 0.000, 15:59:49.233
3, 178.35, 8.15, 8.25, 13.98, 0.000, 0.000, 0.000, 15:59:49.234
4, -87.73, 8.60, 4.35, 3.95, 0.000, 0.000, 0.000, 15:59:49.235
5, -387.22, 5.83, 11.43, 16.00, 0.000, 0.000, 0.000, 15:59:49.248
6, 50.29, -2.12, 19.58, 21.17, 0.000, 0.000, 0.000, 15:59:49.249
7, 62.01, 13.79, 5.16, 3.26, 0.000, 0.000, 0.000, 15:59:49.249
8, -354.49, 12.42, 6.31, 8.51, 0.000, 0.000, 0.000, 15:59:49.250
9, -143.41, 1.24, 18.82, 22.79, 0.000, 0.000, 0.000, 15:59:49.251
10, 166.45, 9.61, 11.61, 10.16, 0.000, 0.000, 0.000, 15:59:49.251
11, -242.86, 15.73, 6.07, 4.30, 0.000, 0.000, 0.000, 15:59:49.270
12, -312.09, 6.01, 15.92, 17.99, 0.000, 0.000, 0.000, 15:59:49.271
13, 166.15, 3.64, 17.76, 15.37, 0.000, 0.000, 0.000, 15:59:49.271
14, -97.24, 14.28, 7.16, 6.87, 0.000, 0.000, 0.000, 15:59:49.271
15, -385.49, 6.99, 10.82, 8.70, 0.000, 0.000, 0.000, 15:59:49.295
16, 48.34, -0.30, 19.83, 18.43, 0.000, 0.000, 0.000, 15:59:49.295
17, 63.59, 10.65, 3.48, 7.73, 0.000, 0.000, 0.000, 15:59:49.296
18, -351.89, 11.39, 6.20, 10.18, 0.000, 0.000, 0.000, 15:59:49.296
19, -144.09, 2.32, 22.06, 17.88, 0.000, 0.000, 0.000, 15:59:49.296
20, 157.50, 9.74, 9.28, 9.53, 0.000, 0.000, 0.000, 15:59:49.297
21, -245.72, 14.89, 6.02, 7.47, 0.000, 0.000, 0.000, 15:59:49.318
22, -315.15, -0.18, 13.09, 17.29, 0.000, 0.000, 0.000, 15:59:49.319
23, 161.34, 0.70, 10.64, 15.08, 0.000, 0.000, 0.000, 15:59:49.320
24, -86.25, 16.69, 4.38, 7.27, 0.000, 0.000, 0.000, 15:59:49.320
25, -396.59, 7.77, 7.41, 7.46, 0.000, 0.000, 0.000, 15:59:49.338
26, 48.33, 3.44, 18.10, 12.42, 0.000, 0.000, 0.000, 15:59:49.338
27, 65.78, 16.47, 3.92, 8.53, 0.000, 0.000, 0.000, 15:59:49.338
28, -344.07, 11.94, 8.66, 10.69, 0.000, 0.000, 0.000, 15:59:49.339
29, -121.52, -1.46, 25.13, 22.36, 0.000, 0.000, 0.000, 15:59:49.360
30, 184.19, 16.84, 7.33, 9.57, 0.000, 0.000, 0.000, 15:59:49.361
31, -204.48, 12.03, 1.57, 7.10, 0.000, 0.000, 0.000, 15:59:49.361
32, -269.89, 4.29, 18.69, 17.40, 0.000, 0.000, 0.000, 15:59:49.362
33, 188.47, 6.60, 13.13, 13.55, 0.000, 0.000, 0.000, 15:59:49.389
34, -80.21, 8.99, 2.04, 7.83, 0.000, 0.000, 0.000, 15:59:49.389
35, -389.15, 9.39, 10.02, 11.92, 0.000, 0.000, 0.000, 15:59:49.390
36, 21.13, 3.38, 17.95, 21.52, 0.000, 0.000, 0.000, 15:59:49.390
37, 39.08, 15.88, 8.45, 8.15, 0.000, 0.000, 0.000, 15:59:49.391
38, -373.85, 9.03, 8.44, 10.86, 0.000, 0.000, 0.000, 15:59:49.392
39, -162.47, 3.21, 20.40, 17.50, 0.000, 0.000, 0.000, 15:59:49.405
40, 140.87, 8.83, 5.59, 11.40, 0.000, 0.000, 0.000, 15:59:49.405
41, -261.73, 12.80, 3.53, 7.84, 0.000, 0.000, 0.000, 15:59:49.406
42, -322.66, 3.69, 14.21, 13.48, 0.000, 0.000, 0.000, 15:59:49.406
43, 156.39, 1.10, 12.46, 14.00, 0.000, 0.000, 0.000, 15:59:49.428
44, -98.23, 15.38, 5.49, 3.56, 0.000, 0.000, 0.000, 15:59:49.428
45, -383.27, 11.96, 13.58, 15.14, 0.000, 0.000, 0.000, 15:59:49.428
46, 60.25, 1.74, 22.56, 17.47, 0.000, 0.000, 0.000, 15:59:49.429
47, 62.21, 10.82, 3.70, 5.86, 0.000, 0.000, 0.000, 15:59:49.450
48, -349.26, 12.71, 6.39, 4.88, 0.000, 0.000, 0.000, 15:59:49.451
49, -128.79, -2.31, 20.11, 22.26, 0.000, 0.000, 0.000, 15:59:49.451
50, 162.70, 8.25, 8.44, 9.56, 0.000, 0.000, 0.000, 15:59:49.451
51, -241.03, 15.69, 3.86, 2.00, 0.000, 0.000, 0.000, 15:59:49.473
52, -297.72, 7.53, 13.24, 15.95, 0.000, 0.000, 0.000, 15:59:49.473
53, 172.24, 5.97, 13.00, 14.36, 0.000, 0.000, 0.000, 15:59:49.473
54, -91.79, 13.79, 4.78, 7.17, 0.000, 0.000, 0.000, 15:59:49.474
55, -380.05, 7.23, 9.23, 9.71, 0.000, 0.000, 0.000, 15:59:49.474
56, 54.71, 2.56, 17.50, 17.92, 0.000, 0.000, 0.000, 15:59:49.474
57, 59.28, 16.89, 5.95, 7.76, 0.000, 0.000, 0.000, 15:59:49.495
58, -348.42, 8.36, 7.26, 8.92, 0.000, 0.000, 0.000, 15:59:49.496
59, -130.51, 0.42, 16.45, 14.62, 0.000, 0.000, 0.000, 15:59:49.496
60, 165.02, 7.33, 7.29, 6.77, 0.000, 0.000, 0.000, 15:59:49.497
61, -234.95, 16.82, 3.57, 8.63, 0.000, 0.000, 0.000, 15:59:49.518
62, -298.28, 4.46, 16.61, 16.38, 0.000, 0.000, 0.000, 15:59:49.518
63, 174.20, 2.81, 13.72, 12.90, 0.000, 0.000, 0.000, 15:59:49.519
64, -87.53, 10.29, 4.49, 5.20, 0.000, 0.000, 0.000, 15:59:49.519
65, -382.22, 10.14, 11.15, 12.03, 0.000, 0.000, 0.000, 15:59:49.542
66, 58.29, 7.10, 17.09, 16.08, 0.000, 0.000, 0.000, 15:59:49.543
67, 66.44, 9.52, 7.18, 9.10, 0.000, 0.000, 0.000, 15:59:49.543
68, -347.37, 16.18, 8.33, 9.25, 0.000, 0.000, 0.000, 15:59:49.543
69, -126.18, 1.78, 21.45, 18.88, 0.000, 0.000, 0.000, 15:59:49.564
70, 168.14, 9.22, 11.77, 5.98, 0.000, 0.000, 0.000, 15:59:49.564
71, -235.78, 12.17, 3.87, 10.09, 0.000, 0.000, 0.000, 15:59:49.564
72, -292.66, 7.38, 18.49, 13.28, 0.000, 0.000, 0.000, 15:59:49.564
73, 178.57, 6.98, 11.29, 14.30, 0.000, 0.000, 0.000, 15:59:49.565
74, -90.34, 15.54, 3.99, 6.73, 0.000, 0.000, 0.000, 15:59:49.565
75, -382.96, 11.92, 8.94, 12.64, 0.000, 0.000, 0.000, 15:59:49.585
76, 63.32, -2.22, 21.22, 19.91, 0.000, 0.000, 0.000, 15:59:49.585
77, 68.71, 11.00, 3.80, 6.34, 0.000, 0.000, 0.000, 15:59:49.586
78, -346.15, 14.98, 5.56, 13.13, 0.000, 0.000, 0.000, 15:59:49.586
79, -124.52, -0.09, 22.28, 20.10, 0.000, 0.000, 0.000, 15:59:49.608
80, 171.72, 9.60, 7.91, 9.21, 0.000, 0.000, 0.000, 15:59:49.608
81, -238.46, 13.89, 7.59, 5.11, 0.000, 0.000, 0.000, 15:59:49.608
82, -295.42, 1.72, 13.34, 14.04, 0.000, 0.000, 0.000, 15:59:49.609
83, 173.11, 9.41, 13.80, 12.28, 0.000, 0.000, 0.000, 15:59:49.630
84, -85.51, 16.67, 1.08, 7.78, 0.000, 0.000, 0.000, 15:59:49.630
85, -375.36, 2.51, 12.87, 13.13, 0.000, 0.000, 0.000, 15:59:49.631
86, 57.84, 1.67, 19.86, 18.43, 0.000, 0.000, 0.000, 15:59:49.631
87, 58.46, 11.73, 5.59, 8.17, 0.000, 0.000, 0.000, 15:59:49.653
88, -346.88, 11.49, 5.37, 6.11, 0.000, 0.000, 0.000, 15:59:49.653
89, -126.90, 0.55, 21.28, 23.66, 0.000, 0.000, 0.000, 15:59:49.654
90, 159.85, 12.59, 7.11, 7.36, 0.000, 0.000, 0.000, 15:59:49.654
91, -242.81, 12.74, 7.77, 3.86, 0.000, 0.000, 0.000, 15:59:49.654
92, -304.24, 0.91, 15.72, 17.76, 0.000, 0.000, 0.000, 15:59:49.654
93, 161.53, 8.69, 17.83, 11.51, 0.000, 0.000, 0.000, 15:59:49.676
94, -100.00, 12.14, 3.89, 9.22, 0.000, 0.000, 0.000, 15:59:49.676
95, -395.93, 9.59, 13.21, 9.41, 0.000, 0.000, 0.000, 15:59:49.676
96, 45.11, 2.09, 15.56, 17.55, 0.000, 0.000, 0.000, 15:59:49.677
97, 45.60, 11.36, 4.53, 11.15, 0.000, 0.000, 0.000, 15:59:49.698
98, -367.35, 12.89, 7.34, 9.12, 0.000, 0.000, 0.000, 15:59:49.698
99, -140.14, 1.88, 20.45, 21.58, 0.000, 0.000, 0.000, 15:59:49.698
100, 151.72, 6.15, 6.27, 10.56, 0.000, 0.000, 0.000, 15:59:49.699
101, -256.89, 13.08, 8.73, 6.26, 0.000, 0.000, 0.000, 15:59:49.720
102, -313.44, 10.71, 17.00, 16.45, 0.000, 0.000, 0.000, 15:59:49.721
103, 161.12, 0.20, 12.46, 15.41, 0.000, 0.000, 0.000, 15:59:49.721
104, -101.81, 9.85, 7.09, 8.10, 0.000, 0.000, 0.000, 15:59:49.721
105, -390.05, 10.47, 10.83, 12.44, 0.000, 0.000, 0.000, 15:59:49.743
106, 46.89, 4.57, 21.23, 17.97, 0.000, 0.000, 0.000, 15:59:49.743
107, 50.17, 10.79, 3.83, 8.73, 0.000, 0.000, 0.000, 15:59:49.744
108, -361.09, 9.50, 4.99, 6.52, 0.000, 0.000, 0.000, 15:59:49.744
109, -136.47, 0.94, 22.36, 17.75, 0.000, 0.000, 0.000, 15:59:49.745
110, 153.35, 12.32, 7.63, 9.62, 0.000, 0.000, 0.000, 15:59:49.745
111, -259.28, 17.41, 3.46, 4.45, 0.000, 0.000, 0.000, 15:59:49.765
112, -310.94, -3.09, 18.00, 12.56, 0.000, 0.000, 0.000, 15:59:49.766
113, 163.41, 5.52, 12.87, 12.06, 0.000, 0.000, 0.000, 15:59:49.766
114, -100.54, 11.64, 2.21, 6.59, 0.000, 0.000, 0.000, 15:59:49.766
115, -379.44, 8.56, 9.92, 9.33, 0.000, 0.000, 0.000, 15:59:49.788
116, 58.68, -0.43, 22.11, 18.24, 0.000, 0.000, 0.000, 15:59:49.788
117, 55.81, 12.24, 4.97, 11.31, 0.000, 0.000, 0.000, 15:59:49.788
118, -360.46, 15.29, 6.37, 5.41, 0.000, 0.000, 0.000, 15:59:49.789
119, -136.11, -1.50, 20.14, 18.59, 0.000, 0.000, 0.000, 15:59:49.810
120, 164.34, 14.21, 2.81, 11.28, 0.000, 0.000, 0.000, 15:59:49.810
121, -248.85, 9.76, 1.94, 10.21, 0.000, 0.000, 0.000, 15:59:49.811
122, -301.68, 4.44, 14.83, 16.91, 0.000, 0.000, 0.000, 15:59:49.811
123, 169.37, 4.97, 17.73, 14.36, 0.000, 0.000, 0.000, 15:59:49.914
124, -96.75, 14.21, 3.55, 4.47, 0.000, 0.000, 0.000, 15:59:49.914
125, -382.67, 4.59, 12.52, 11.73, 0.000, 0.000, 0.000, 15:59:49.916
126, 48.24, 1.78, 22.34, 20.34, 0.000, 0.000, 0.000, 15:59:49.917
127, 51.00, 15.38, 7.86, 7.07, 0.000, 0.000, 0.000, 15:59:49.917
128, -358.21, 11.09, 6.71, 9.36, 0.000, 0.000, 0.000, 15:59:49.918
129, -134.47, 6.79, 21.59, 19.06, 0.000, 0.000, 0.000, 15:59:49.918
130, 169.61, 9.92, 8.74, 10.66, 0.000, 0.000, 0.000, 15:59:49.920
131, -252.54, 15.53, 6.93, 6.57, 0.000, 0.000, 0.000, 15:59:49.921
132, -298.20, 3.05, 16.22, 13.87, 0.000, 0.000, 0.000, 15:59:49.922
133, 162.41, 5.11, 13.88, 12.12, 0.000, 0.000, 0.000, 15:59:49.922
134, -97.19, 16.84, 3.69, 2.20, 0.000, 0.000, 0.000, 15:59:49.923
135, -378.83, 7.81, 9.99, 12.90, 0.000, 0.000, 0.000, 15:59:49.923
136, 51.00, 2.75, 16.25, 23.11, 0.000, 0.000, 0.000, 15:59:49.923
137, 51.41, 12.00, 3.48, 7.68, 0.000, 0.000, 0.000, 15:59:49.924
138, -358.00, 17.08, 6.77, 10.29, 0.000, 0.000, 0.000, 15:59:49.924
139, -126.18, -3.91, 18.02, 22.40, 0.000, 0.000, 0.000, 15:59:49.924
140, 158.59, 10.63, 11.29, 12.42, 0.000, 0.000, 0.000, 15:59:49.925
141, -248.92, 13.75, 8.74, 7.26, 0.000, 0.000, 0.000, 15:59:49.996
142, -300.21, 2.75, 16.96, 17.03, 0.000, 0.000, 0.000, 15:59:49.997
143, 165.48, 5.74, 15.00, 11.70, 0.000, 0.000, 0.000, 15:59:49.997
144, -97.58, 15.90, 4.51, 8.63, 0.000, 0.000, 0.000, 15:59:49.998
145, -381.35, 6.40, 9.19, 8.63, 0.000, 0.000, 0.000, 15:59:49.998
146, 54.14, 1.16, 18.97, 14.23, 0.000, 0.000, 0.000, 15:59:49.999
147, 49.73, 13.92, 5.57, 3.46, 0.000, 0.000, 0.000, 15:59:49.999
148, -366.83, 6.08, 10.05, 11.70, 0.000, 0.000, 0.000, 15:59:49.999
149, -124.29, 2.88, 23.68, 26.06, 0.000, 0.000, 0.000, 15:59:50.000
150, 160.85, 11.16, 9.46, 10.02, 0.000, 0.000, 0.000, 15:59:50.000
151, -247.86, 15.21, 8.24, 8.86, 0.000, 0.000, 0.000, 15:59:50.000
152, -297.85, 1.22, 14.91, 12.46, 0.000, 0.000, 0.000, 15:59:50.001
153, 167.82, 5.08, 10.53, 13.80, 0.000, 0.000, 0.000, 15:59:50.001
154, -104.34, 13.71, 4.85, 5.75, 0.000, 0.000, 0.000, 15:59:50.001
155, -380.94, 5.31, 9.14, 11.02, 0.000, 0.000, 0.000, 15:59:50.001
156, 62.57, 5.55, 19.66, 15.64, 0.000, 0.000, 0.000, 15:59:50.002
157, 54.74, 5.45, 3.63, 9.47, 0.000, 0.000, 0.000, 15:59:50.002
158, -360.36, 10.25, 6.45, 10.06, 0.000, 0.000, 0.000, 15:59:50.002
159, -128.61, -1.10, 18.97, 17.67, 0.000, 0.000, 0.000, 15:59:50.013
160, 158.15, 14.76, 0.77, 10.17, 0.000, 0.000, 0.000, 15:59:50.013
161, -251.55, 10.97, 5.58, 7.85, 0.000, 0.000, 0.000, 15:59:50.014
162, -304.91, 5.18, 13.95, 16.97, 0.000, 0.000, 0.000, 15:59:50.014
163, 172.27, 6.07, 13.15, 14.89, 0.000, 0.000, 0.000, 15:59:50.014
164, -104.66, 15.69, 4.12, 9.89, 0.000, 0.000, 0.000, 15:59:50.015
165, -385.88, 11.64, 12.72, 11.29, 0.000, 0.000, 0.000, 15:59:50.035
166, 66.09, -3.38, 18.22, 17.40, 0.000, 0.000, 0.000, 15:59:50.035
167, 62.30, 9.48, 4.24, 10.52, 0.000, 0.000, 0.000, 15:59:50.036
168, -344.39, 8.64, 6.69, 11.89, 0.000, 0.000, 0.000, 15:59:50.036
169, -117.70, 0.87, 20.60, 15.04, 0.000, 0.000, 0.000, 15:59:50.058
170, 153.01, 11.40, 11.05, 12.30, 0.000, 0.000, 0.000, 15:59:50.058
171, -259.38, 19.40, 8.83, 7.97, 0.000, 0.000, 0.000, 15:59:50.059
172, -314.54, 4.19, 15.97, 15.09, 0.000, 0.000, 0.000, 15:59:50.059
173, 156.81, 5.83, 12.35, 11.12, 0.000, 0.000, 0.000, 15:59:50.080
174, -111.56, 21.93, 3.84, 9.59, 0.000, 0.000, 0.000, 15:59:50.081
175, -380.88, 4.80, 11.54, 12.58, 0.000, 0.000, 0.000, 15:59:50.081
176, 57.10, 2.83, 17.12, 17.96, 0.000, 0.000, 0.000, 15:59:50.081
177, 59.16, 16.97, 5.37, 5.69, 0.000, 0.000, 0.000, 15:59:50.103
178, -357.26, 10.63, 7.33, 9.02, 0.000, 0.000, 0.000, 15:59:50.103
179, -104.39, -0.10, 16.19, 20.20, 0.000, 0.000, 0.000, 15:59:50.103
180, 171.65, 10.65, 8.73, 7.67, 0.000, 0.000, 0.000, 15:59:50.104
181, -250.15, 14.62, 8.01, 6.45, 0.000, 0.000, 0.000, 15:59:50.104
182, -269.42, 6.54, 15.57, 14.24, 0.000, 0.000, 0.000, 15:59:50.104
183, 185.74, 5.69, 14.19, 15.06, 0.000, 0.000, 0.000, 15:59:50.125
184, -93.44, 11.39, 5.04, 6.28, 0.000, 0.000, 0.000, 15:59:50.126
185, -402.66, 5.10, 10.12, 10.41, 0.000, 0.000, 0.000, 15:59:50.126
186, 56.26, 1.63, 18.73, 16.28, 0.000, 0.000, 0.000, 15:59:50.127
187, 63.43, 14.62, 4.31, 7.84, 0.000, 0.000, 0.000, 15:59:50.148
188, -348.81, 10.59, 9.88, 7.76, 0.000, 0.000, 0.000, 15:59:50.148
189, -156.96, 1.78, 21.87, 20.06, 0.000, 0.000, 0.000, 15:59:50.148
190, 148.68, 12.28, 7.52, 11.63, 0.000, 0.000, 0.000, 15:59:50.149
191, -242.94, 13.24, 5.41, 8.47, 0.000, 0.000, 0.000, 15:59:50.170
192, -286.60, 8.33, 16.30, 16.99, 0.000, 0.000, 0.000, 15:59:50.171
193, 171.93, 1.54, 15.00, 15.88, 0.000, 0.000, 0.000, 15:59:50.172
194, -133.33, 14.05, 3.88, 7.98, 0.000, 0.000, 0.000, 15:59:50.172
195, -398.44, 5.49, 15.08, 10.09, 0.000, 0.000, 0.000, 15:59:50.193
196, 93.08, 2.33, 21.05, 20.89, 0.000, 0.000, 0.000, 15:59:50.193
197, 67.59, 11.18, 7.69, 8.12, 0.000, 0.000, 0.000, 15:59:50.193
198, -349.33, 13.47, 6.55, 9.13, 0.000, 0.000, 0.000, 15:59:50.194
199, -104.38, -1.46, 17.92, 14.38, 0.000, 0.000, 0.000, 15:59:50.194
200, 186.11, 9.10, 8.94, 9.99, 0.000, 0.000, 0.000, 15:59:50.194
0, -210.90, 14.88, 4.87, 5.59, 0.000, 0.000, 0.000, 15:59:50.215
1, -317.38, 3.20, 14.05, 19.02, 0.000, 0.000, 0.000, 15:59:50.216
2, 124.01, 6.26, 14.63, 15.19, 0.000, 0.000, 0.000, 15:59:50.216
3, -124.78, 16.39, 1.72, 8.84, 0.000, 0.000, 0.000, 15:59:50.238
4, -379.09, 9.06, 10.92, 14.44, 0.000, 0.000, 0.000, 15:59:50.238
5, 49.58, 0.70, 13.51, 19.74, 0.000, 0.000, 0.000, 15:59:50.238
6, 14.27, 14.11, 4.07, 8.64, 0.000, 0.000, 0.000, 15:59:50.239
7, -396.60, 8.96, 4.72, 9.66, 0.000, 0.000, 0.000, 15:59:50.239
8, -105.06, 3.65, 19.71, 13.62, 0.000, 0.000, 0.000, 15:59:50.239
9, 164.42, 14.66, 11.58, 11.03, 0.000, 0.000, 0.000, 15:59:50.260
10, -252.33, 14.10, 4.68, 8.23, 0.000, 0.000, 0.000, 15:59:50.261
11, -290.79, 3.65, 14.24, 14.07, 0.000, 0.000, 0.000, 15:59:50.261
12, 177.11, 0.73, 14.72, 13.28, 0.000, 0.000, 0.000, 15:59:50.261
13, -74.21, 16.90, 7.18, 8.93, 0.000, 0.000, 0.000, 15:59:50.283
14, -312.40, 7.48, 11.03, 14.00, 0.000, 0.000, 0.000, 15:59:50.283
15, 91.20, 2.66, 16.03, 16.55, 0.000, 0.000, 0.000, 15:59:50.283
16, 1.32, 12.88, 4.89, 6.37, 0.000, 0.000, 0.000, 15:59:50.283
17, -438.19, 9.30, 10.14, 8.71, 0.000, 0.000, 0.000, 15:59:50.305
18, -130.47, 6.78, 22.15, 16.84, 0.000, 0.000, 0.000, 15:59:50.305
19, 152.04, 8.34, 7.95, 11.76, 0.000, 0.000, 0.000, 15:59:50.306
20, -264.62, 15.64, 5.30, 6.91, 0.000, 0.000, 0.000, 15:59:50.306
21, -276.24, 2.03, 18.46, 15.49, 0.000, 0.000, 0.000, 15:59:50.328
22, 183.47, 4.61, 14.52, 11.40, 0.000, 0.000, 0.000, 15:59:50.328
23, -107.98, 11.96, 5.64, 8.48, 0.000, 0.000, 0.000, 15:59:50.329
24, -412.95, 12.94, 13.26, 15.99, 0.000, 0.000, 0.000, 15:59:50.329
25, 84.32, -2.71, 19.37, 16.94, 0.000, 0.000, 0.000, 15:59:50.329
26, 175.04, 13.01, 6.93, 7.00, 0.000, 0.000, 0.000, 15:59:50.329
27, -319.57, 15.75, 7.10, 7.89, 0.000, 0.000, 0.000, 15:59:50.350
28, -99.78, -2.04, 18.42, 20.55, 0.000, 0.000, 0.000, 15:59:50.351
29, 114.58, 14.11, 5.69, 7.11, 0.000, 0.000, 0.000, 15:59:50.351
30, -310.96, 11.80, 2.08, 2.98, 0.000, 0.000, 0.000, 15:59:50.351
31, -305.73, 2.03, 20.82, 14.94, 0.000, 0.000, 0.000, 15:59:50.373
32, 184.36, 6.85, 15.03, 14.53, 0.000, 0.000, 0.000, 15:59:50.373
33, -138.95, 9.93, 3.52, 3.06, 0.000, 0.000, 0.000, 15:59:50.373
34, -425.56, 8.70, 9.07, 10.93, 0.000, 0.000, 0.000, 15:59:50.374
35, 47.26, 1.43, 17.18, 22.79, 0.000, 0.000, 0.000, 15:59:50.395
36, 41.77, 16.63, 4.21, 6.68, 0.000, 0.000, 0.000, 15:59:50.396
37, -397.87, 6.48, 5.76, 8.42, 0.000, 0.000, 0.000, 15:59:50.396
38, -99.87, -0.82, 23.22, 15.56, 0.000, 0.000, 0.000, 15:59:50.396
39, 165.27, 12.10, 8.35, 10.56, 0.000, 0.000, 0.000, 15:59:50.417
40, -268.80, 12.41, 4.21, 8.07, 0.000, 0.000, 0.000, 15:59:50.418
41, -287.98, 3.46, 16.87, 17.16, 0.000, 0.000, 0.000, 15:59:50.418
42, 169.19, 3.91, 13.27, 10.23, 0.000, 0.000, 0.000, 15:59:50.418
43, -113.27, 17.72, 7.70, 7.33, 0.000, 0.000, 0.000, 15:59:50.419
44, -369.39, 8.05, 12.63, 12.35, 0.000, 0.000, 0.000, 15:59:50.419
45, 87.23, 0.67, 17.17, 18.14, 0.000, 0.000, 0.000, 15:59:50.440
46, 36.76, 11.52, 5.65, 10.59, 0.000, 0.000, 0.000, 15:59:50.440
47, -405.57, 10.91, 8.11, 10.17, 0.000, 0.000, 0.000, 15:59:50.441
48, -150.98, 2.50, 17.85, 19.15, 0.000, 0.000, 0.000, 15:59:50.441
49, 206.16, 11.97, 7.56, 5.92, 0.000, 0.000, 0.000, 15:59:50.462
50, -229.50, 11.58, 4.71, 10.91, 0.000, 0.000, 0.000, 15:59:50.463
51, -301.38, 0.44, 15.61, 16.37, 0.000, 0.000, 0.000, 15:59:50.463
52, 165.49, 3.44, 11.33, 11.48, 0.000, 0.000, 0.000, 15:59:50.463
53, -135.17, 15.52, 2.85, 8.80, 0.000, 0.000, 0.000, 15:59:50.485
54, -391.99, 14.96, 10.64, 12.82, 0.000, 0.000, 0.000, 15:59:50.485
55, 127.47, -1.79, 19.80, 19.16, 0.000, 0.000, 0.000, 15:59:50.486
56, 75.47, 12.89, 6.83, 12.42, 0.000, 0.000, 0.000, 15:59:50.486
57, -352.63, 12.81, 9.11, 8.31, 0.000, 0.000, 0.000, 15:59:50.508
58, -137.13, 1.66, 20.49, 19.09, 0.000, 0.000, 0.000, 15:59:50.509
59, 157.31, 10.60, 8.10, 10.35, 0.000, 0.000, 0.000, 15:59:50.510
60, -257.35, 14.53, 4.92, 7.21, 0.000, 0.000, 0.000, 15:59:50.510
61, -292.41, 4.90, 17.33, 17.50, 0.000, 0.000, 0.000, 15:59:50.511
62, 171.14, 8.42, 14.98, 16.52, 0.000, 0.000, 0.000, 15:59:50.511
63, -111.62, 19.86, 8.24, 5.27, 0.000, 0.000, 0.000, 15:59:50.530
64, -376.71, 3.55, 9.00, 8.61, 0.000, 0.000, 0.000, 15:59:50.530
65, 77.71, -0.38, 16.53, 14.65, 0.000, 0.000, 0.000, 15:59:50.531
66, 53.39, 12.73, 5.85, 13.43, 0.000, 0.000, 0.000, 15:59:50.531
67, -341.22, 14.13, 9.41, 10.16, 0.000, 0.000, 0.000, 15:59:50.552
68, -122.11, 0.08, 15.26, 20.45, 0.000, 0.000, 0.000, 15:59:50.553
69, 166.99, 8.63, 6.16, 7.19, 0.000, 0.000, 0.000, 15:59:50.553
70, -264.35, 12.47, 5.91, 7.95, 0.000, 0.000, 0.000, 15:59:50.554
71, -288.92, 1.66, 15.07, 14.12, 0.000, 0.000, 0.000, 15:59:50.575
72, 200.66, 10.28, 11.67, 11.80, 0.000, 0.000, 0.000, 15:59:50.576
73, -97.28, 9.45, 6.96, 6.37, 0.000, 0.000, 0.000, 15:59:50.576
74, -381.02, 7.57, 11.29, 10.95, 0.000, 0.000, 0.000, 15:59:50.576
75, 81.17, 2.86, 19.13, 14.56, 0.000, 0.000, 0.000, 15:59:50.598
76, 49.86, 15.99, 3.83, 6.82, 0.000, 0.000, 0.000, 15:59:50.598
77, -364.31, 12.48, 8.97, 8.98, 0.000, 0.000, 0.000, 15:59:50.598
78, -113.98, -0.70, 19.37, 19.35, 0.000, 0.000, 0.000, 15:59:50.598
79, 145.73, 11.12, 6.03, 7.98, 0.000, 0.000, 0.000, 15:59:50.599
80, -243.06, 10.65, 2.87, 9.87, 0.000, 0.000, 0.000, 15:59:50.599
81, -248.70, 9.14, 19.86, 15.93, 0.000, 0.000, 0.000, 15:59:50.620
82, 215.60, 1.88, 6.63, 12.65, 0.000, 0.000, 0.000, 15:59:50.620
83, -88.31, 13.67, 4.70, 4.63, 0.000, 0.000, 0.000, 15:59:50.621
84, -425.06, 10.09, 16.94, 13.96, 0.000, 0.000, 0.000, 15:59:50.621
85, 59.68, 1.87, 18.18, 18.21, 0.000, 0.000, 0.000, 15:59:50.643
86, 62.59, 9.30, 6.92, 9.26, 0.000, 0.000, 0.000, 15:59:50.643
87, -385.63, 6.25, 5.70, 10.54, 0.000, 0.000, 0.000, 15:59:50.643
88, -132.89, 0.99, 20.59, 21.97, 0.000, 0.000, 0.000, 15:59:50.643
89, 158.77, 6.27, 5.55, 4.98, 0.000, 0.000, 0.000, 15:59:50.665
90, -251.94, 18.08, 3.13, 8.46, 0.000, 0.000, 0.000, 15:59:50.666
91, -317.57, -1.46, 19.12, 19.02, 0.000, 0.000, 0.000, 15:59:50.666
92, 180.77, 2.26, 12.82, 13.59, 0.000, 0.000, 0.000, 15:59:50.666
93, -81.40, 16.21, 3.53, 5.60, 0.000, 0.000, 0.000, 15:59:50.687
94, -406.60, 7.12, 13.78, 12.17, 0.000, 0.000, 0.000, 15:59:50.688
95, 39.08, 2.02, 22.47, 20.77, 0.000, 0.000, 0.000, 15:59:50.689
96, 16.67, 14.88, 6.58, 7.32, 0.000, 0.000, 0.000, 15:59:50.689
97, -393.23, 14.32, 4.48, 9.91, 0.000, 0.000, 0.000, 15:59:50.689
98, -79.80, 2.09, 20.41, 21.65, 0.000, 0.000, 0.000, 15:59:50.690
99, 178.50, 16.31, 7.35, 7.90, 0.000, 0.000, 0.000, 15:59:50.711
100, -299.15, 8.71, 1.01, 3.16, 0.000, 0.000, 0.000, 15:59:50.712
101, -285.32, 1.47, 16.93, 17.54, 0.000, 0.000, 0.000, 15:59:50.712
102, 137.46, 5.67, 9.94, 16.26, 0.000, 0.000, 0.000, 15:59:50.712
103, -150.89, 10.65, 3.01, 3.38, 0.000, 0.000, 0.000, 15:59:50.733
104, -383.67, 8.41, 12.18, 12.16, 0.000, 0.000, 0.000, 15:59:50.733
105, 127.01, 2.98, 19.85, 19.76, 0.000, 0.000, 0.000, 15:59:50.734
106, 50.05, 12.54, 7.72, 2.75, 0.000, 0.000, 0.000, 15:59:50.734
107, -395.89, 11.16, 5.78, 9.40, 0.000, 0.000, 0.000, 15:59:50.756
108, -117.63, 7.96, 18.33, 17.74, 0.000, 0.000, 0.000, 15:59:50.757
109, 154.78, 5.80, 7.93, 9.06, 0.000, 0.000, 0.000, 15:59:50.758
110, -271.52, 16.45, 4.83, 7.27, 0.000, 0.000, 0.000, 15:59:50.758
111, -291.50, 2.44, 16.04, 18.20, 0.000, 0.000, 0.000, 15:59:50.778
112, 194.90, 7.55, 13.56, 13.14, 0.000, 0.000, 0.000, 15:59:50.778
113, -101.36, 15.90, 6.04, 7.26, 0.000, 0.000, 0.000, 15:59:50.778
114, -368.00, 8.67, 17.41, 11.12, 0.000, 0.000, 0.000, 15:59:50.779
115, 83.47, -0.51, 20.20, 16.33, 0.000, 0.000, 0.000, 15:59:50.779
116, 19.54, 12.70, 4.77, 5.79, 0.000, 0.000, 0.000, 15:59:50.779
117, -345.28, 19.40, 7.50, 7.70, 0.000, 0.000, 0.000, 15:59:50.800
118, -108.73, -3.55, 20.39, 21.50, 0.000, 0.000, 0.000, 15:59:50.801
119, 132.44, 11.87, 6.01, 8.33, 0.000, 0.000, 0.000, 15:59:50.801
120, -277.66, 14.26, 2.40, 3.45, 0.000, 0.000, 0.000, 15:59:50.801
121, -285.73, 4.22, 18.09, 16.81, 0.000, 0.000, 0.000, 15:59:50.823
122, 162.94, 1.03, 11.17, 9.21, 0.000, 0.000, 0.000, 15:59:50.823
123, -89.15, 16.41, 2.79, 5.42, 0.000, 0.000, 0.000, 15:59:50.823
124, -393.31, 7.24, 10.77, 12.60, 0.000, 0.000, 0.000, 15:59:50.824
125, 47.59, 2.22, 19.42, 16.21, 0.000, 0.000, 0.000, 15:59:50.845
126, 23.97, 14.60, 1.80, 9.68, 0.000, 0.000, 0.000, 15:59:50.846
127, -314.91, 7.49, 6.19, 9.98, 0.000, 0.000, 0.000, 15:59:50.846
128, -89.45, 3.57, 19.61, 18.31, 0.000, 0.000, 0.000, 15:59:50.846
129, 160.91, 12.08, 9.79, 10.09, 0.000, 0.000, 0.000, 15:59:50.868
130, -263.51, 13.16, 5.90, 6.69, 0.000, 0.000, 0.000, 15:59:50.868
131, -281.56, 2.87, 18.73, 15.72, 0.000, 0.000, 0.000, 15:59:50.869
132, 135.58, 9.26, 12.84, 16.28, 0.000, 0.000, 0.000, 15:59:50.869
133, -127.10, 14.81, 2.67, 11.52, 0.000, 0.000, 0.000, 15:59:50.869
134, -370.03, 5.32, 11.77, 11.17, 0.000, 0.000, 0.000, 15:59:50.869
135, 78.45, 10.28, 21.89, 18.26, 0.000, 0.000, 0.000, 15:59:50.890
136, 53.17, 12.45, 4.83, 6.97, 0.000, 0.000, 0.000, 15:59:50.891
137, -367.64, 12.96, 8.02, 4.71, 0.000, 0.000, 0.000, 15:59:50.891
138, -115.25, -0.64, 17.15, 21.84, 0.000, 0.000, 0.000, 15:59:50.891
139, 155.37, 9.39, 6.87, 12.99, 0.000, 0.000, 0.000, 15:59:50.913
140, -291.30, 8.60, 5.16, 9.86, 0.000, 0.000, 0.000, 15:59:50.913
141, -280.40, 4.66, 16.10, 14.46, 0.000, 0.000, 0.000, 15:59:50.916
142, 181.20, 3.33, 11.81, 13.10, 0.000, 0.000, 0.000, 15:59:50.916
143, -130.93, 14.36, 0.73, 6.11, 0.000, 0.000, 0.000, 15:59:50.936
144, -378.03, 11.55, 15.49, 10.84, 0.000, 0.000, 0.000, 15:59:50.936
145, 100.27, -0.64, 18.40, 20.09, 0.000, 0.000, 0.000, 15:59:50.937
146, 10.93, 11.09, 4.35, 9.95, 0.000, 0.000, 0.000, 15:59:50.937
147, -344.49, 12.15, 8.47, 6.80, 0.000, 0.000, 0.000, 15:59:50.958
148, -79.94, -4.57, 20.55, 20.94, 0.000, 0.000, 0.000, 15:59:50.959
149, 143.49, 6.63, 7.08, 9.73, 0.000, 0.000, 0.000, 15:59:50.959
150, -265.78, 14.25, 3.59, 7.13, 0.000, 0.000, 0.000, 15:59:50.959
151, -275.35, 2.61, 22.70, 15.93, 0.000, 0.000, 0.000, 15:59:50.960
152, 150.42, 5.91, 14.22, 13.59, 0.000, 0.000, 0.000, 15:59:50.960
153, -129.19, 22.10, 3.54, 5.74, 0.000, 0.000, 0.000, 15:59:50.983
154, -393.48, 6.21, 11.19, 7.39, 0.000, 0.000, 0.000, 15:59:50.984
155, 76.17, -2.02, 20.86, 20.51, 0.000, 0.000, 0.000, 15:59:50.984
156, 46.91, 13.61, -0.11, 3.56, 0.000, 0.000, 0.000, 15:59:50.984
157, -365.82, 13.68, 8.04, 11.60, 0.000, 0.000, 0.000, 15:59:51.004
158, -111.70, -1.91, 21.68, 17.75, 0.000, 0.000, 0.000, 15:59:51.005
159, 152.03, 8.47, 10.91, 10.68, 0.000, 0.000, 0.000, 15:59:51.005
160, -251.85, 14.91, 8.63, 5.28, 0.000, 0.000, 0.000, 15:59:51.005
161, -275.00, 2.71, 22.45, 17.22, 0.000, 0.000, 0.000, 15:59:51.026
162, 185.71, 15.33, 10.53, 13.96, 0.000, 0.000, 0.000, 15:59:51.027
163, -133.89, 9.33, 4.00, 9.63, 0.000, 0.000, 0.000, 15:59:51.027
164, -381.21, 8.25, 7.99, 13.71, 0.000, 0.000, 0.000, 15:59:51.027
165, 87.55, 0.39, 14.04, 18.32, 0.000, 0.000, 0.000, 15:59:51.048
166, 37.97, 14.46, 4.36, 7.27, 0.000, 0.000, 0.000, 15:59:51.048
167, -371.44, 7.97, 5.65, 9.65, 0.000, 0.000, 0.000, 15:59:51.048
168, -119.15, 3.84, 20.36, 18.91, 0.000, 0.000, 0.000, 15:59:51.049
169, 140.91, 11.60, 8.11, 10.24, 0.000, 0.000, 0.000, 15:59:51.049
170, -250.33, 17.37, 6.52, 7.42, 0.000, 0.000, 0.000, 15:59:51.049
171, -277.17, 9.21, 16.20, 15.92, 0.000, 0.000, 0.000, 15:59:51.070
172, 179.76, -1.33, 16.44, 15.07, 0.000, 0.000, 0.000, 15:59:51.070
173, -112.50, 13.76, 3.23, 4.65, 0.000, 0.000, 0.000, 15:59:51.071
174, -392.42, 6.87, 12.04, 7.55, 0.000, 0.000, 0.000, 15:59:51.071
175, 77.20, -0.38, 17.89, 19.07, 0.000, 0.000, 0.000, 15:59:51.093
176, 52.40, 14.95, 4.82, 6.95, 0.000, 0.000, 0.000, 15:59:51.093
177, -368.44, 16.65, 8.27, 5.29, 0.000, 0.000, 0.000, 15:59:51.093
178, -100.92, 0.13, 19.00, 20.78, 0.000, 0.000, 0.000, 15:59:51.094
179, 154.17, 8.80, 9.24, 9.70, 0.000, 0.000, 0.000, 15:59:51.117
180, -272.34, 19.55, 10.49, 5.87, 0.000, 0.000, 0.000, 15:59:51.117
181, -300.86, -2.94, 15.53, 16.45, 0.000, 0.000, 0.000, 15:59:51.117
182, 179.96, 4.13, 12.81, 14.59, 0.000, 0.000, 0.000, 15:59:51.117
183, -93.89, 13.32, 4.93, 8.50, 0.000, 0.000, 0.000, 15:59:51.138
184, -373.47, 10.14, 10.61, 13.39, 0.000, 0.000, 0.000, 15:59:51.139
185, 82.64, -1.42, 18.65, 16.41, 0.000, 0.000, 0.000, 15:59:51.139
186, 38.61, 14.80, 3.80, 8.19, 0.000, 0.000, 0.000, 15:59:51.139
187, -389.85, 9.42, 9.41, 8.14, 0.000, 0.000, 0.000, 15:59:51.139
188, -99.34, 0.36, 20.38, 21.60, 0.000, 0.000, 0.000, 15:59:51.140
189, 169.16, 12.57, 10.04, 14.02, 0.000, 0.000, 0.000, 15:59:51.160
190, -269.49, 10.45, 4.63, 4.85, 0.000, 0.000, 0.000, 15:59:51.161
191, -287.09, 4.29, 15.82, 18.32, 0.000, 0.000, 0.000, 15:59:51.162
192, 176.63, 6.28, 11.58, 9.88, 0.000, 0.000, 0.000, 15:59:51.162
193, -109.05, 14.97, 3.38, 10.89, 0.000, 0.000, 0.000, 15:59:51.186
194, -367.31, 8.79, 12.52, 12.62, 0.000, 0.000, 0.000, 15:59:51.186
195, 79.11, 3.31, 17.90, 18.91, 0.000, 0.000, 0.000, 15:59:51.186
196, 31.18, 17.96, 5.74, 6.05, 0.000, 0.000, 0.000, 15:59:51.187
197, -382.32, 10.68, 7.74, 8.83, 0.000, 0.000, 0.000, 15:59:51.207
198, -89.52, 3.89, 17.82, 19.68, 0.000, 0.000, 0.000, 15:59:51.207
199, 146.46, 3.73, 8.77, 10.43, 0.000, 0.000, 0.000, 15:59:51.207
200, -241.23, 10.94, 4.93, 6.72, 0.000, 0.000, 0.000, 15:59:51.208
0, -250.95, -0.96, 18.40, 13.11, 0.000, 0.000, 0.000, 15:59:51.208
1, 179.23, 7.16, 10.61, 13.83, 0.000, 0.000, 0.000, 15:59:51.228
2, -143.10, 12.44, 3.65, 9.53, 0.000, 0.000, 0.000, 15:59:51.228
3, -397.91, 7.86, 10.81, 13.13, 0.000, 0.000, 0.000, 15:59:51.228
4, 75.73, 4.11, 19.07, 15.48, 0.000, 0.000, 0.000, 15:59:51.229
5, 55.29, 13.54, 2.11, 5.50, 0.000, 0.000, 0.000, 15:59:51.252
6, -369.87, 18.58, 8.29, 7.58, 0.000, 0.000, 0.000, 15:59:51.253
7, -114.66, -3.50, 19.27, 22.88, 0.000, 0.000, 0.000, 15:59:51.253
8, 141.01, 11.43, 12.33, 9.88, 0.000, 0.000, 0.000, 15:59:51.261
9, -352.86, 12.61, 5.31, 4.63, 0.000, 0.000, 0.000, 15:59:51.274
10, -306.72, 4.66, 16.81, 12.84, 0.000, 0.000, 0.000, 15:59:51.274
11, 240.36, 1.22, 14.69, 12.86, 0.000, 0.000, 0.000, 15:59:51.275
12, -73.50, 14.98, -0.29, 7.65, 0.000, 0.000, 0.000, 15:59:51.275
13, -337.74, 8.31, 13.45, 9.28, 0.000, 0.000, 0.000, 15:59:51.275
14, 79.42, 0.19, 18.51, 18.45, 0.000, 0.000, 0.000, 15:59:51.275
15, 22.05, 16.49, 4.23, 6.60, 0.000, 0.000, 0.000, 15:59:51.297
16, -357.43, 10.77, 7.81, 11.41, 0.000, 0.000, 0.000, 15:59:51.297
17, -119.14, -0.65, 21.10, 19.28, 0.000, 0.000, 0.000, 15:59:51.297
18, 161.53, 11.43, 7.92, 8.65, 0.000, 0.000, 0.000, 15:59:51.297
19, -246.66, 13.10, 4.67, 8.26, 0.000, 0.000, 0.000, 15:59:51.318
20, -266.58, -0.81, 20.75, 17.59, 0.000, 0.000, 0.000, 15:59:51.318
21, 178.25, 7.78, 13.28, 14.25, 0.000, 0.000, 0.000, 15:59:51.319
22, -129.34, 17.94, 5.62, 8.54, 0.000, 0.000, 0.000, 15:59:51.319
23, -382.27, 12.75, 13.35, 12.27, 0.000, 0.000, 0.000, 15:59:51.341
24, 88.46, 6.00, 17.62, 17.70, 0.000, 0.000, 0.000, 15:59:51.341
25, 39.84, 10.11, 2.61, 9.58, 0.000, 0.000, 0.000, 15:59:51.341
26, -367.92, 9.28, 5.00, 9.12, 0.000, 0.000, 0.000, 15:59:51.341
27, -85.37, 1.51, 20.26, 16.83, 0.000, 0.000, 0.000, 15:59:51.363
28, 170.48, 10.12, 8.68, 15.26, 0.000, 0.000, 0.000, 15:59:51.363
29, -251.47, 13.72, 6.56, 8.24, 0.000, 0.000, 0.000, 15:59:51.364
30, -249.24, 4.96, 20.26, 15.33, 0.000, 0.000, 0.000, 15:59:51.364
31, 184.34, 1.85, 9.62, 10.11, 0.000, 0.000, 0.000, 15:59:51.365
32, -164.11, 12.88, 4.80, 6.76, 0.000, 0.000, 0.000, 15:59:51.365
33, -376.81, 9.99, 12.31, 8.88, 0.000, 0.000, 0.000, 15:59:51.386
34, 79.05, -3.71, 18.47, 20.67, 0.000, 0.000, 0.000, 15:59:51.386
35, -1.23, 12.75, 5.85, 5.69, 0.000, 0.000, 0.000, 15:59:51.386
36, -388.58, 11.29, 8.76, 6.77, 0.000, 0.000, 0.000, 15:59:51.387
37, -117.64, 1.85, 18.17, 19.63, 0.000, 0.000, 0.000, 15:59:51.409
38, 126.84, 8.90, 7.83, 10.59, 0.000, 0.000, 0.000, 15:59:51.409
39, -274.04, 15.19, 2.73, 7.55, 0.000, 0.000, 0.000, 15:59:51.411
40, -281.95, 1.13, 19.64, 18.75, 0.000, 0.000, 0.000, 15:59:51.412
41, 175.02, 5.76, 10.54, 10.63, 0.000, 0.000, 0.000, 15:59:51.431
42, -126.68, 19.41, 3.82, 5.70, 0.000, 0.000, 0.000, 15:59:51.432
43, -369.68, 0.60, 14.26, 12.04, 0.000, 0.000, 0.000, 15:59:51.432
44, 83.81, 4.67, 15.61, 18.34, 0.000, 0.000, 0.000, 15:59:51.432
45, 1.13, 13.80, 4.82, 3.04, 0.000, 0.000, 0.000, 15:59:51.453
46, -370.32, 13.10, 8.85, 10.74, 0.000, 0.000, 0.000, 15:59:51.453
47, -58.86, -2.43, 22.80, 22.51, 0.000, 0.000, 0.000, 15:59:51.453
48, 168.40, 8.62, 9.33, 8.78, 0.000, 0.000, 0.000, 15:59:51.453
49, -274.39, 13.02, 9.04, 9.61, 0.000, 0.000, 0.000, 15:59:51.454
50, -284.02, 2.13, 13.08, 17.97, 0.000, 0.000, 0.000, 15:59:51.454
51, 187.98, 11.34, 10.01, 11.67, 0.000, 0.000, 0.000, 15:59:51.475
52, -124.18, 12.95, 2.47, 10.21, 0.000, 0.000, 0.000, 15:59:51.475
53, -400.64, 1.93, 10.66, 9.61, 0.000, 0.000, 0.000, 15:59:51.498
54, 99.57, 4.26, 20.08, 19.74, 0.000, 0.000, 0.000, 15:59:51.498
55, 50.14, 15.88, 5.72, 6.31, 0.000, 0.000, 0.000, 15:59:51.498
56, -365.18, 14.46, 9.42, 12.48, 0.000, 0.000, 0.000, 15:59:51.498
57, -75.81, 2.32, 18.93, 22.04, 0.000, 0.000, 0.000, 15:59:51.499
58, 147.35, 7.06, 6.19, 8.60, 0.000, 0.000, 0.000, 15:59:51.499
59, -277.52, 15.35, 7.83, 2.90, 0.000, 0.000, 0.000, 15:59:51.520
60, -269.79, 4.32, 21.20, 11.47, 0.000, 0.000, 0.000, 15:59:51.521
61, 211.47, 5.73, 11.98, 13.67, 0.000, 0.000, 0.000, 15:59:51.521
62, -120.11, 13.10, 5.09, 6.57, 0.000, 0.000, 0.000, 15:59:51.521
63, -384.25, 5.57, 13.39, 14.50, 0.000, 0.000, 0.000, 15:59:51.542
64, 95.46, -0.27, 20.44, 18.35, 0.000, 0.000, 0.000, 15:59:51.543
65, 34.16, 14.75, 0.84, 4.65, 0.000, 0.000, 0.000, 15:59:51.544
66, -379.49, 12.68, 9.45, 11.68, 0.000, 0.000, 0.000, 15:59:51.544
67, -77.67, 0.82, 19.21, 18.84, 0.000, 0.000, 0.000, 15:59:51.544
68, 141.11, 10.09, 10.27, 8.25, 0.000, 0.000, 0.000, 15:59:51.544
69, -290.09, 18.90, 5.41, 7.19, 0.000, 0.000, 0.000, 15:59:51.565
70, -242.42, -2.34, 18.71, 15.65, 0.000, 0.000, 0.000, 15:59:51.566
71, 205.63, 8.70, 10.42, 11.29, 0.000, 0.000, 0.000, 15:59:51.566
72, -130.15, 14.10, 5.36, 5.75, 0.000, 0.000, 0.000, 15:59:51.566
73, -375.23, 7.84, 14.08, 13.10, 0.000, 0.000, 0.000, 15:59:51.587
74, 108.95, 1.77, 18.98, 18.93, 0.000, 0.000, 0.000, 15:59:51.588
75, 13.29, 12.43, 0.87, 6.43, 0.000, 0.000, 0.000, 15:59:51.588
76, -392.00, 10.54, 5.50, 9.65, 0.000, 0.000, 0.000, 15:59:51.589
77, -62.95, 1.99, 19.53, 22.30, 0.000, 0.000, 0.000, 15:59:51.610
78, 163.95, 15.94, 5.75, 11.23, 0.000, 0.000, 0.000, 15:59:51.611
79, -265.95, 11.31, 9.04, 6.53, 0.000, 0.000, 0.000, 15:59:51.611
80, -243.68, 5.64, 13.77, 13.86, 0.000, 0.000, 0.000, 15:59:51.611
81, 212.34, 8.02, 12.08, 11.24, 0.000, 0.000, 0.000, 15:59:51.633
82, -120.51, 13.67, 3.89, 0.85, 0.000, 0.000, 0.000, 15:59:51.633
83, -381.32, 5.71, 12.38, 9.82, 0.000, 0.000, 0.000, 15:59:51.633
84, 97.00, 3.24, 19.52, 20.31, 0.000, 0.000, 0.000, 15:59:51.634
85, 21.31, 13.01, 3.96, 8.73, 0.000, 0.000, 0.000, 15:59:51.634
86, -365.27, 10.56, 8.98, 9.72, 0.000, 0.000, 0.000, 15:59:51.634
87, -59.49, 4.62, 20.88, 17.04, 0.000, 0.000, 0.000, 15:59:51.655
88, 156.52, 11.55, 7.37, 10.88, 0.000, 0.000, 0.000, 15:59:51.655
89, -290.41, 10.51, 6.93, 6.33, 0.000, 0.000, 0.000, 15:59:51.656
90, -269.21, 5.91, 13.96, 19.10, 0.000, 0.000, 0.000, 15:59:51.656
91, 185.51, 10.22, 15.01, 15.40, 0.000, 0.000, 0.000, 15:59:51.678
92, -153.83, 12.04, 1.21, 7.67, 0.000, 0.000, 0.000, 15:59:51.678
93, -389.90, 7.76, 9.97, 9.34, 0.000, 0.000, 0.000, 15:59:51.678
94, 93.58, -1.87, 18.19, 20.53, 0.000, 0.000, 0.000, 15:59:51.679
95, 9.14, 10.07, 1.61, 8.06, 0.000, 0.000, 0.000, 15:59:51.700
96, -401.54, 11.48, 7.11, 8.61, 0.000, 0.000, 0.000, 15:59:51.700
97, -79.61, -5.29, 18.60, 17.60, 0.000, 0.000, 0.000, 15:59:51.701
98, 152.92, 11.72, 5.85, 8.64, 0.000, 0.000, 0.000, 15:59:51.701
99, -305.27, 14.55, 3.04, 5.31, 0.000, 0.000, 0.000, 15:59:51.722
100, -278.91, 5.48, 15.29, 21.70, 0.000, 0.000, 0.000, 15:59:51.723
101, 181.89, 2.59, 12.08, 14.72, 0.000, 0.000, 0.000, 15:59:51.723
102, -157.92, 14.93, 3.21, 5.33, 0.000, 0.000, 0.000, 15:59:51.723
103, -397.06, 6.41, 13.87, 9.66, 0.000, 0.000, 0.000, 15:59:51.724
104, 94.65, 0.17, 20.16, 17.74, 0.000, 0.000, 0.000, 15:59:51.724
105, 6.69, 17.44, 4.97, 8.24, 0.000, 0.000, 0.000, 15:59:51.745
106, -399.59, 12.65, 10.07, 9.90, 0.000, 0.000, 0.000, 15:59:51.746
107, -72.13, 4.45, 20.87, 17.42, 0.000, 0.000, 0.000, 15:59:51.746
108, 147.43, 13.42, 10.87, 10.87, 0.000, 0.000, 0.000, 15:59:51.746
109, -280.32, 13.61, 6.11, 7.53, 0.000, 0.000, 0.000, 15:59:51.767
110, -267.04, -3.32, 18.09, 16.16, 0.000, 0.000, 0.000, 15:59:51.768
111, 182.73, 3.13, 11.10, 12.38, 0.000, 0.000, 0.000, 15:59:51.768
112, -151.47, 16.14, 6.10, 4.57, 0.000, 0.000, 0.000, 15:59:51.769
113, -372.93, 4.45, 10.46, 12.55, 0.000, 0.000, 0.000, 15:59:51.790
114, 107.43, 6.77, 14.77, 18.22, 0.000, 0.000, 0.000, 15:59:51.790
115, 6.69, 10.33, 7.57, 9.13, 0.000, 0.000, 0.000, 15:59:51.791
116, -382.09, 8.64, 9.86, 14.29, 0.000, 0.000, 0.000, 15:59:51.791
117, -61.17, 1.03, 19.97, 20.43, 0.000, 0.000, 0.000, 15:59:51.812
118, 148.20, 15.94, 7.60, 7.05, 0.000, 0.000, 0.000, 15:59:51.813
119, -298.55, 10.42, 3.29, 7.68, 0.000, 0.000, 0.000, 15:59:51.813
120, -274.09, 1.64, 20.27, 16.21, 0.000, 0.000, 0.000, 15:59:51.813
121, 189.12, 6.63, 10.20, 16.48, 0.000, 0.000, 0.000, 15:59:51.814
122, -149.71, 13.00, 5.18, 8.44, 0.000, 0.000, 0.000, 15:59:51.814
123, -380.49, 6.48, 12.64, 9.24, 0.000, 0.000, 0.000, 15:59:51.835
124, 100.59, 0.37, 20.47, 13.35, 0.000, 0.000, 0.000, 15:59:51.835
125, 4.15, 14.69, 6.95, 6.53, 0.000, 0.000, 0.000, 15:59:51.835
126, -396.65, 13.48, 9.85, 17.02, 0.000, 0.000, 0.000, 15:59:51.835
127, -51.12, 1.44, 21.48, 19.00, 0.000, 0.000, 0.000, 15:59:51.858
128, 174.57, 10.79, 9.40, 10.09, 0.000, 0.000, 0.000, 15:59:51.858
129, -282.07, 18.14, 2.11, 6.50, 0.000, 0.000, 0.000, 15:59:51.858
130, -268.43, 2.80, 18.43, 14.41, 0.000, 0.000, 0.000, 15:59:51.859
131, 189.14, 4.56, 14.77, 14.23, 0.000, 0.000, 0.000, 15:59:51.880
132, -145.45, 20.14, 4.49, 5.20, 0.000, 0.000, 0.000, 15:59:51.880
133, -382.92, 4.56, 13.05, 13.17, 0.000, 0.000, 0.000, 15:59:51.881
134, 111.31, 0.71, 19.37, 16.98, 0.000, 0.000, 0.000, 15:59:51.881
135, 32.78, 15.41, -0.53, 8.34, 0.000, 0.000, 0.000, 15:59:51.902
136, -395.13, 13.15, 8.26, 8.67, 0.000, 0.000, 0.000, 15:59:51.903
137, -87.42, 2.11, 18.63, 22.80, 0.000, 0.000, 0.000, 15:59:51.903
138, 178.54, 11.92, 4.95, 6.74, 0.000, 0.000, 0.000, 15:59:51.904
139, -275.94, 12.86, 1.04, 8.49, 0.000, 0.000, 0.000, 15:59:51.904
140, -259.56, 4.07, 22.24, 19.79, 0.000, 0.000, 0.000, 15:59:51.904
141, 189.26, 5.98, 11.95, 11.91, 0.000, 0.000, 0.000, 15:59:51.925
142, -143.09, 9.43, 3.57, 5.59, 0.000, 0.000, 0.000, 15:59:51.925
143, -377.15, 6.50, 10.33, 10.78, 0.000, 0.000, 0.000, 15:59:51.926
144, 107.59, 1.93, 16.55, 22.73, 0.000, 0.000, 0.000, 15:59:51.926
145, 13.44, 12.99, 6.03, 7.93, 0.000, 0.000, 0.000, 15:59:51.948
146, -391.00, 9.95, 11.33, 12.57, 0.000, 0.000, 0.000, 15:59:51.948
147, -81.03, 2.20, 20.48, 21.28, 0.000, 0.000, 0.000, 15:59:51.948
148, 156.83, 9.52, 7.25, 11.56, 0.000, 0.000, 0.000, 15:59:51.948
149, -282.51, 14.53, 3.82, 4.63, 0.000, 0.000, 0.000, 15:59:51.970
150, -263.79, 8.17, 17.48, 13.47, 0.000, 0.000, 0.000, 15:59:51.970
151, 186.96, 0.34, 10.65, 10.20, 0.000, 0.000, 0.000, 15:59:51.971
152, -148.74, 14.88, 3.95, 6.57, 0.000, 0.000, 0.000, 15:59:51.971
153, -377.49, 10.34, 8.88, 13.40, 0.000, 0.000, 0.000, 15:59:51.993
154, 90.25, 2.57, 16.93, 16.63, 0.000, 0.000, 0.000, 15:59:51.993
155, 1.77, 10.17, 2.81, 6.52, 0.000, 0.000, 0.000, 15:59:51.993
156, -355.00, 11.89, 6.01, 7.40, 0.000, 0.000, 0.000, 15:59:51.993
157, -74.91, -2.29, 20.06, 18.27, 0.000, 0.000, 0.000, 15:59:51.994
158, 142.94, 14.44, 8.22, 7.34, 0.000, 0.000, 0.000, 15:59:51.994
159, -285.61, 17.89, 7.35, 6.00, 0.000, 0.000, 0.000, 15:59:52.015
160, -267.68, 0.62, 17.43, 16.07, 0.000, 0.000, 0.000, 15:59:52.015
161, 202.06, 7.82, 13.12, 14.56, 0.000, 0.000, 0.000, 15:59:52.016
162, -142.02, 12.99, 4.40, 6.29, 0.000, 0.000, 0.000, 15:59:52.016
163, -376.76, 7.40, 13.31, 11.62, 0.000, 0.000, 0.000, 15:59:52.038
164, 106.59, 0.97, 16.71, 15.21, 0.000, 0.000, 0.000, 15:59:52.038
165, 25.70, 15.19, 6.47, 9.36, 0.000, 0.000, 0.000, 15:59:52.038
166, -376.15, 8.52, 7.61, 8.67, 0.000, 0.000, 0.000, 15:59:52.038
167, -80.80, 1.26, 24.49, 18.33, 0.000, 0.000, 0.000, 15:59:52.060
168, 137.26, 14.42, 4.13, 10.68, 0.000, 0.000, 0.000, 15:59:52.060
169, -310.24, 10.11, 3.75, 7.96, 0.000, 0.000, 0.000, 15:59:52.061
170, -280.48, 1.31, 16.55, 17.01, 0.000, 0.000, 0.000, 15:59:52.061
171, 203.11, 4.66, 11.77, 13.54, 0.000, 0.000, 0.000, 15:59:52.082
172, -113.29, 15.83, 2.37, 3.56, 0.000, 0.000, 0.000, 15:59:52.083
173, -363.28, 6.68, 11.24, 11.15, 0.000, 0.000, 0.000, 15:59:52.083
174, 92.18, 3.04, 17.81, 16.22, 0.000, 0.000, 0.000, 15:59:52.083
175, 9.33, 15.50, 1.96, 4.43, 0.000, 0.000, 0.000, 15:59:52.083
176, -362.56, 9.69, 11.44, 9.48, 0.000, 0.000, 0.000, 15:59:52.084
177, -70.55, 1.17, 22.02, 21.38, 0.000, 0.000, 0.000, 15:59:52.105
178, 131.75, 9.38, 6.23, 9.35, 0.000, 0.000, 0.000, 15:59:52.106
179, -283.12, 9.66, 6.98, 3.81, 0.000, 0.000, 0.000, 15:59:52.106
180, -249.50, 1.14, 21.72, 17.91, 0.000, 0.000, 0.000, 15:59:52.106
181, 192.08, 9.08, 12.40, 8.05, 0.000, 0.000, 0.000, 15:59:52.128
182, -131.62, 15.18, 6.94, 9.79, 0.000, 0.000, 0.000, 15:59:52.128
183, -381.38, 9.28, 12.89, 13.03, 0.000, 0.000, 0.000, 15:59:52.128
184, 93.26, 4.47, 16.04, 20.14, 0.000, 0.000, 0.000, 15:59:52.128
185, 10.46, 12.58, 8.98, 10.00, 0.000, 0.000, 0.000, 15:59:52.150
186, -367.22, 14.47, 11.13, 7.31, 0.000, 0.000, 0.000, 15:59:52.150
187, -59.50, -3.10, 19.19, 22.15, 0.000, 0.000, 0.000, 15:59:52.150
188, 144.24, 10.21, 7.48, 6.67, 0.000, 0.000, 0.000, 15:59:52.151
189, -280.75, 10.58, 4.38, 7.85, 0.000, 0.000, 0.000, 15:59:52.173
190, -276.95, 1.06, 20.35, 18.56, 0.000, 0.000, 0.000, 15:59:52.173
191, 188.08, 8.23, 12.76, 12.50, 0.000, 0.000, 0.000, 15:59:52.173
192, -132.45, 13.20, 0.57, 8.34, 0.000, 0.000, 0.000, 15:59:52.173
193, -374.82, 3.46, 9.72, 13.13, 0.000, 0.000, 0.000, 15:59:52.174
194, 93.97, 2.17, 15.16, 17.02, 0.000, 0.000, 0.000, 15:59:52.174
195, 9.10, 18.79, 4.99, 0.35, 0.000, 0.000, 0.000, 15:59:52.195
196, -389.28, 9.51, 5.94, 12.24, 0.000, 0.000, 0.000, 15:59:52.195
197, -100.09, 3.48, 19.53, 21.70, 0.000, 0.000, 0.000, 15:59:52.196
198, 132.44, 11.94, 8.73, 8.20, 0.000, 0.000, 0.000, 15:59:52.196
199, -271.37, 12.49, 4.12, 8.49, 0.000, 0.000, 0.000, 15:59:52.217
200, -249.44, 1.90, 19.37, 21.34, 0.000, 0.000, 0.000, 15:59:52.218
0, 187.84, 5.70, 13.77, 8.59, 0.000, 0.000, 0.000, 15:59:52.218
1, -145.91, 12.50, 0.58, 3.81, 0.000, 0.000, 0.000, 15:59:52.220
2, -384.20, 6.22, 10.60, 12.29, 0.000, 0.000, 0.000, 15:59:52.220
3, 102.79, 5.68, 18.49, 17.60, 0.000, 0.000, 0.000, 15:59:52.240
4, 24.57, 12.79, 7.01, 6.98, 0.000, 0.000, 0.000, 15:59:52.241
5, -370.51, 9.99, 7.23, 5.71, 0.000, 0.000, 0.000, 15:59:52.241
6, -79.88, -2.22, 22.14, 22.29, 0.000, 0.000, 0.000, 15:59:52.241
7, 134.87, 12.34, 5.18, 8.79, 0.000, 0.000, 0.000, 15:59:52.263
8, -290.59, 10.35, 8.35, 4.24, 0.000, 0.000, 0.000, 15:59:52.263
9, -264.12, 5.46, 20.10, 17.07, 0.000, 0.000, 0.000, 15:59:52.263
10, 190.59, 7.36, 11.07, 13.64, 0.000, 0.000, 0.000, 15:59:52.264
11, -142.28, 14.72, 3.36, 12.90, 0.000, 0.000, 0.000, 15:59:52.286
12, -368.58, 11.55, 13.77, 12.81, 0.000, 0.000, 0.000, 15:59:52.286
13, 101.25, -4.00, 20.23, 17.45, 0.000, 0.000, 0.000, 15:59:52.286
14, 21.63, 11.34, 8.31, 6.69, 0.000, 0.000, 0.000, 15:59:52.286
15, -352.18, 15.47, 8.73, 10.50, 0.000, 0.000, 0.000, 15:59:52.307
16, -18.87, 1.79, 17.24, 20.63, 0.000, 0.000, 0.000, 15:59:52.308
17, 182.88, 6.68, 8.00, 10.62, 0.000, 0.000, 0.000, 15:59:52.308
18, -272.53, 12.07, 5.09, 6.18, 0.000, 0.000, 0.000, 15:59:52.308
19, -279.47, 4.70, 13.76, 14.92, 0.000, 0.000, 0.000, 15:59:52.309
20, 154.13, 5.30, 9.47, 13.76, 0.000, 0.000, 0.000, 15:59:52.309
21, -181.43, 14.33, 3.67, 7.74, 0.000, 0.000, 0.000, 15:59:52.330
22, -381.74, 4.65, 12.90, 11.25, 0.000, 0.000, 0.000, 15:59:52.330
23, 88.53, 0.70, 17.40, 12.84, 0.000, 0.000, 0.000, 15:59:52.331
24, 1.16, 15.43, 4.22, 5.11, 0.000, 0.000, 0.000, 15:59:52.331
25, -400.90, 12.10, 10.28, 5.95, 0.000, 0.000, 0.000, 15:59:52.353
26, -95.92, 0.50, 16.33, 19.53, 0.000, 0.000, 0.000, 15:59:52.353
27, 136.90, 10.97, 8.78, 8.20, 0.000, 0.000, 0.000, 15:59:52.353
28, -284.23, 17.45, 8.08, 9.14, 0.000, 0.000, 0.000, 15:59:52.354
29, -263.88, 6.58, 21.67, 19.31, 0.000, 0.000, 0.000, 15:59:52.375
30, 191.92, 10.75, 12.00, 15.14, 0.000, 0.000, 0.000, 15:59:52.375
31, -144.44, 11.69, 5.31, 10.68, 0.000, 0.000, 0.000, 15:59:52.376
32, -366.69, 5.65, 12.48, 15.90, 0.000, 0.000, 0.000, 15:59:52.376
33, 114.97, 0.18, 22.28, 17.70, 0.000, 0.000, 0.000, 15:59:52.397
34, 11.98, 14.46, 4.26, 6.74, 0.000, 0.000, 0.000, 15:59:52.398
35, -367.17, 7.62, 7.14, 8.40, 0.000, 0.000, 0.000, 15:59:52.398
36, -44.79, -1.46, 19.64, 22.35, 0.000, 0.000, 0.000, 15:59:52.398
37, 147.42, 10.02, 5.82, 9.74, 0.000, 0.000, 0.000, 15:59:52.399
38, -284.08, 9.70, 5.96, 5.20, 0.000, 0.000, 0.000, 15:59:52.399
39, -262.81, 2.43, 16.69, 17.61, 0.000, 0.000, 0.000, 15:59:52.420
40, 197.95, 4.34, 11.29, 14.52, 0.000, 0.000, 0.000, 15:59:52.420
41, -125.71, 17.80, 4.66, 4.45, 0.000, 0.000, 0.000, 15:59:52.421
42, -366.95, 7.36, 11.99, 10.09, 0.000, 0.000, 0.000, 15:59:52.421
43, 105.46, 5.82, 17.39, 14.19, 0.000, 0.000, 0.000, 15:59:52.443
44, 13.00, 12.95, 6.29, 10.06, 0.000, 0.000, 0.000, 15:59:52.443
45, -381.99, 12.69, 10.14, 11.27, 0.000, 0.000, 0.000, 15:59:52.443
46, -66.70, 0.48, 19.02, 18.09, 0.000, 0.000, 0.000, 15:59:52.443
47, 152.41, 11.10, 8.10, 5.38, 0.000, 0.000, 0.000, 15:59:52.465
48, -290.16, 19.07, 0.74, 8.55, 0.000, 0.000, 0.000, 15:59:52.465
49, -258.07, -1.41, 17.31, 17.08, 0.000, 0.000, 0.000, 15:59:52.466
50, 195.63, 8.21, 14.33, 12.89, 0.000, 0.000, 0.000, 15:59:52.466
51, -152.50, 17.84, 2.16, 7.00, 0.000, 0.000, 0.000, 15:59:52.488
52, -380.36, 7.89, 12.15, 19.15, 0.000, 0.000, 0.000, 15:59:52.488
53, 118.26, 0.93, 17.00, 17.81, 0.000, 0.000, 0.000, 15:59:52.488
54, 24.29, 13.22, 2.20, 5.31, 0.000, 0.000, 0.000, 15:59:52.488
55, -379.73, 12.30, 10.25, 8.42, 0.000, 0.000, 0.000, 15:59:52.489
56, -70.01, 2.53, 18.09, 16.59, 0.000, 0.000, 0.000, 15:59:52.489
57, 141.47, 13.50, 8.45, 11.20, 0.000, 0.000, 0.000, 15:59:52.510
58, -299.64, 11.76, 4.59, 7.68, 0.000, 0.000, 0.000, 15:59:52.510
59, -246.69, 5.17, 19.08, 22.59, 0.000, 0.000, 0.000, 15:59:52.511
60, 212.63, 8.49, 9.44, 10.77, 0.000, 0.000, 0.000, 15:59:52.511
61, -126.01, 13.68, 3.13, 9.65, 0.000, 0.000, 0.000, 15:59:52.533
62, -369.79, 5.75, 14.66, 11.75, 0.000, 0.000, 0.000, 15:59:52.533
63, 111.24, 2.05, 13.08, 19.11, 0.000, 0.000, 0.000, 15:59:52.533
64, 22.93, 13.80, 3.08, 3.98, 0.000, 0.000, 0.000, 15:59:52.533
65, -374.67, 10.52, 11.86, 9.73, 0.000, 0.000, 0.000, 15:59:52.555
66, -64.22, 3.11, 18.92, 15.50, 0.000, 0.000, 0.000, 15:59:52.555
67, 170.33, 7.71, 9.27, 14.54, 0.000, 0.000, 0.000, 15:59:52.556
68, -282.67, 16.06, 6.05, 7.54, 0.000, 0.000, 0.000, 15:59:52.556
69, -262.11, 3.80, 21.50, 17.61, 0.000, 0.000, 0.000, 15:59:52.577
70, 187.65, 7.92, 8.90, 9.01, 0.000, 0.000, 0.000, 15:59:52.578
71, -137.06, 11.97, 2.77, 5.70, 0.000, 0.000, 0.000, 15:59:52.578
72, -370.64, 6.69, 10.54, 12.24, 0.000, 0.000, 0.000, 15:59:52.579
73, 115.79, 0.15, 15.34, 19.92, 0.000, 0.000, 0.000, 15:59:52.581
74, 4.13, 13.33, 5.20, 8.99, 0.000, 0.000, 0.000, 15:59:52.581
75, -374.78, 12.90, 8.29, 8.16, 0.000, 0.000, 0.000, 15:59:52.601
76, -61.96, -0.61, 19.45, 19.60, 0.000, 0.000, 0.000, 15:59:52.601
77, 141.54, 10.73, 7.87, 6.06, 0.000, 0.000, 0.000, 15:59:52.602
78, -310.08, 14.16, 7.18, 5.63, 0.000, 0.000, 0.000, 15:59:52.602
79, -275.81, 3.64, 19.39, 18.00, 0.000, 0.000, 0.000, 15:59:52.623
80, 177.61, 6.29, 12.74, 17.34, 0.000, 0.000, 0.000, 15:59:52.623
81, -159.45, 13.84, 5.37, 3.66, 0.000, 0.000, 0.000, 15:59:52.623
82, -374.32, 6.73, 14.74, 9.65, 0.000, 0.000, 0.000, 15:59:52.623
83, 104.24, 2.19, 18.06, 15.36, 0.000, 0.000, 0.000, 15:59:52.645
84, -5.81, 18.53, 7.78, 7.34, 0.000, 0.000, 0.000, 15:59:52.645
85, -394.28, 5.19, 7.24, 8.04, 0.000, 0.000, 0.000, 15:59:52.645
86, -71.72, 1.92, 20.35, 19.58, 0.000, 0.000, 0.000, 15:59:52.646
87, 134.56, 10.29, 7.70, 11.19, 0.000, 0.000, 0.000, 15:59:52.668
88, -313.92, 12.93, 5.91, 9.41, 0.000, 0.000, 0.000, 15:59:52.669
89, -242.67, -0.41, 17.33, 18.86, 0.000, 0.000, 0.000, 15:59:52.669
90, 184.45, 9.40, 9.37, 14.58, 0.000, 0.000, 0.000, 15:59:52.669
91, -154.19, 14.63, 2.16, 2.76, 0.000, 0.000, 0.000, 15:59:52.669
92, -373.62, 5.67, 13.31, 8.18, 0.000, 0.000, 0.000, 15:59:52.669
93, 111.53, 5.32, 17.22, 16.20, 0.000, 0.000, 0.000, 15:59:52.690
94, 8.11, 11.24, 5.22, 5.39, 0.000, 0.000, 0.000, 15:59:52.690
95, -383.73, 10.28, 6.50, 12.70, 0.000, 0.000, 0.000, 15:59:52.691
96, -66.58, -2.49, 20.84, 20.83, 0.000, 0.000, 0.000, 15:59:52.691
97, 129.31, 11.95, 8.03, 10.15, 0.000, 0.000, 0.000, 15:59:52.713
98, -300.66, 13.66, 5.50, 3.45, 0.000, 0.000, 0.000, 15:59:52.714
99, -255.13, 3.78, 15.72, 19.60, 0.000, 0.000, 0.000, 15:59:52.714
100, 186.19, 4.79, 11.29, 12.74, 0.000, 0.000, 0.000, 15:59:52.714
101, -170.96, 14.66, 3.12, 3.32, 0.000, 0.000, 0.000, 15:59:52.735
102, -379.99, 10.61, 13.52, 12.52, 0.000, 0.000, 0.000, 15:59:52.735
103, 115.16, -2.72, 19.17, 19.77, 0.000, 0.000, 0.000, 15:59:52.736
104, -4.27, 16.87, 2.20, 7.72, 0.000, 0.000, 0.000, 15:59:52.736
105, -388.84, 11.61, 6.60, 11.23, 0.000, 0.000, 0.000, 15:59:52.758
106, -52.42, 2.61, 19.66, 20.28, 0.000, 0.000, 0.000, 15:59:52.758
107, 147.63, 8.55, 6.17, 9.23, 0.000, 0.000, 0.000, 15:59:52.758
108, -302.83, 13.13, 6.48, 7.23, 0.000, 0.000, 0.000, 15:59:52.759
109, -250.56, 3.91, 21.89, 18.74, 0.000, 0.000, 0.000, 15:59:52.759
110, 185.91, 6.67, 11.96, 9.53, 0.000, 0.000, 0.000, 15:59:52.759
111, -163.70, 17.48, 3.94, 4.96, 0.000, 0.000, 0.000, 15:59:52.780
112, -378.03, 4.86, 12.82, 13.94, 0.000, 0.000, 0.000, 15:59:52.781
113, 101.85, 2.69, 17.77, 21.16, 0.000, 0.000, 0.000, 15:59:52.781
114, 0.59, 15.31, 3.92, 8.91, 0.000, 0.000, 0.000, 15:59:52.781
115, -380.91, 10.47, 7.78, 10.75, 0.000, 0.000, 0.000, 15:59:52.803
116, -48.04, 0.89, 19.85, 21.17, 0.000, 0.000, 0.000, 15:59:52.803
117, 136.06, 12.29, 8.48, 5.67, 0.000, 0.000, 0.000, 15:59:52.803
118, -294.71, 12.20, 4.92, 3.78, 0.000, 0.000, 0.000, 15:59:52.803
119, -254.17, 2.39, 16.35, 12.90, 0.000, 0.000, 0.000, 15:59:52.826
120, 177.91, 8.16, 12.81, 8.53, 0.000, 0.000, 0.000, 15:59:52.826
121, -164.61, 8.83, 6.07, 7.61, 0.000, 0.000, 0.000, 15:59:52.826
122, -363.88, 8.55, 15.73, 10.78, 0.000, 0.000, 0.000, 15:59:52.826
123, 110.46, -1.96, 18.80, 16.28, 0.000, 0.000, 0.000, 15:59:52.847
124, 14.36, 12.31, 3.86, 8.98, 0.000, 0.000, 0.000, 15:59:52.848
125, -380.75, 8.27, 9.35, 5.16, 0.000, 0.000, 0.000, 15:59:52.848
126, -60.04, 1.43, 18.39, 20.83, 0.000, 0.000, 0.000, 15:59:52.848
127, 139.42, 12.35, 8.97, 9.09, 0.000, 0.000, 0.000, 15:59:52.849
128, -296.26, 13.80, 4.50, 8.63, 0.000, 0.000, 0.000, 15:59:52.849
129, -257.88, 6.83, 19.57, 19.11, 0.000, 0.000, 0.000, 15:59:52.870
130, 193.30, 4.12, 12.15, 12.98, 0.000, 0.000, 0.000, 15:59:52.870
131, -167.50, 13.59, 4.47, 5.68, 0.000, 0.000, 0.000, 15:59:52.871
132, -393.58, 4.75, 16.46, 14.25, 0.000, 0.000, 0.000, 15:59:52.871
133, 111.32, 3.39, 14.48, 17.88, 0.000, 0.000, 0.000, 15:59:52.893
134, 39.26, 13.14, 5.98, 8.03, 0.000, 0.000, 0.000, 15:59:52.893
135, -374.68, 13.26, 11.55, 9.62, 0.000, 0.000, 0.000, 15:59:52.893
136, -58.35, 6.45, 17.97, 18.94, 0.000, 0.000, 0.000, 15:59:52.894
137, 153.10, 13.51, 6.45, 13.89, 0.000, 0.000, 0.000, 15:59:52.915
138, -288.83, 17.23, 7.10, 5.04, 0.000, 0.000, 0.000, 15:59:52.915
139, -245.83, -1.55, 15.83, 13.88, 0.000, 0.000, 0.000, 15:59:52.915
140, 183.01, 9.09, 9.80, 13.21, 0.000, 0.000, 0.000, 15:59:52.916
141, -156.60, 11.63, 3.61, 8.08, 0.000, 0.000, 0.000, 15:59:52.938
142, -373.94, 7.89, 7.92, 11.74, 0.000, 0.000, 0.000, 15:59:52.938
143, 106.10, 0.12, 14.83, 15.96, 0.000, 0.000, 0.000, 15:59:52.938
144, 7.12, 15.55, 8.87, 7.88, 0.000, 0.000, 0.000, 15:59:52.938
145, -379.50, 7.90, 9.81, 10.25, 0.000, 0.000, 0.000, 15:59:52.939
146, -60.56, 3.98, 21.03, 18.49, 0.000, 0.000, 0.000, 15:59:52.939
147, 130.67, 12.85, 4.79, 8.52, 0.000, 0.000, 0.000, 15:59:52.960
148, -299.76, 10.83, 5.98, 11.50, 0.000, 0.000, 0.000, 15:59:52.960
149, -259.70, 1.28, 18.80, 18.79, 0.000, 0.000, 0.000, 15:59:52.961
150, 180.73, 6.11, 14.61, 14.44, 0.000, 0.000, 0.000, 15:59:52.961
151, -144.84, 11.53, 3.70, 6.31, 0.000, 0.000, 0.000, 15:59:52.982
152, -363.22, 7.15, 11.43, 14.63, 0.000, 0.000, 0.000, 15:59:52.983
153, 115.43, 5.23, 17.07, 13.55, 0.000, 0.000, 0.000, 15:59:52.983
154, 16.95, 11.86, 5.29, 8.00, 0.000, 0.000, 0.000, 15:59:52.983
155, -374.70, 8.66, 10.56, 8.45, 0.000, 0.000, 0.000, 15:59:53.005
156, -70.21, 5.13, 19.03, 18.46, 0.000, 0.000, 0.000, 15:59:53.005
157, 125.24, 7.10, 4.24, 9.39, 0.000, 0.000, 0.000, 15:59:53.006
158, -297.84, 13.20, 7.37, 5.99, 0.000, 0.000, 0.000, 15:59:53.006
159, -236.38, 3.02, 15.78, 15.53, 0.000, 0.000, 0.000, 15:59:53.028
160, 191.53, 8.59, 12.89, 9.61, 0.000, 0.000, 0.000, 15:59:53.029
161, -153.49, 12.15, 2.20, 5.03, 0.000, 0.000, 0.000, 15:59:53.029
162, -371.47, 2.01, 9.87, 15.89, 0.000, 0.000, 0.000, 15:59:53.029
163, 96.28, 3.46, 17.01, 15.95, 0.000, 0.000, 0.000, 15:59:53.029
164, -10.80, 12.62, 3.52, 6.92, 0.000, 0.000, 0.000, 15:59:53.030
165, -372.94, 13.85, 11.14, 9.96, 0.000, 0.000, 0.000, 15:59:53.050
166, -38.70, -5.29, 22.21, 19.52, 0.000, 0.000, 0.000, 15:59:53.051
167, 139.29, 11.06, 7.31, 8.70, 0.000, 0.000, 0.000, 15:59:53.051
168, -291.84, 15.66, 5.08, 8.01, 0.000, 0.000, 0.000, 15:59:53.051
169, -254.43, 1.61, 18.66, 13.15, 0.000, 0.000, 0.000, 15:59:53.073
170, 189.93, 9.86, 5.78, 11.62, 0.000, 0.000, 0.000, 15:59:53.073
171, -147.64, 15.35, 4.23, 6.47, 0.000, 0.000, 0.000, 15:59:53.073
172, -366.43, 9.59, 10.60, 14.00, 0.000, 0.000, 0.000, 15:59:53.073
173, 116.61, 4.46, 18.46, 20.70, 0.000, 0.000, 0.000, 15:59:53.095
174, 11.48, 21.15, 3.26, 7.93, 0.000, 0.000, 0.000, 15:59:53.095
175, -374.11, 6.36, 13.31, 7.13, 0.000, 0.000, 0.000, 15:59:53.095
176, -57.34, 4.93, 21.44, 20.32, 0.000, 0.000, 0.000, 15:59:53.096
177, 129.96, 10.02, 5.38, 9.92, 0.000, 0.000, 0.000, 15:59:53.118
178, -306.58, 11.32, 5.47, 7.68, 0.000, 0.000, 0.000, 15:59:53.118
179, -252.66, 1.47, 16.59, 17.42, 0.000, 0.000, 0.000, 15:59:53.119
180, 176.35, 9.57, 12.88, 13.93, 0.000, 0.000, 0.000, 15:59:53.119
181, -156.31, 12.77, 4.96, 5.67, 0.000, 0.000, 0.000, 15:59:53.119
182, -368.61, 5.72, 11.14, 17.60, 0.000, 0.000, 0.000, 15:59:53.119
183, 122.67, 3.15, 19.35, 17.91, 0.000, 0.000, 0.000, 15:59:53.140
184, 16.00, 13.65, 5.54, 6.69, 0.000, 0.000, 0.000, 15:59:53.140
185, -383.32, 10.38, 8.61, 11.59, 0.000, 0.000, 0.000, 15:59:53.141
186, -65.91, 1.37, 21.65, 16.54, 0.000, 0.000, 0.000, 15:59:53.141
187, 125.75, 15.89, 5.97, 5.22, 0.000, 0.000, 0.000, 15:59:53.163
188, -289.99, 14.41, 5.61, 6.61, 0.000, 0.000, 0.000, 15:59:53.163
189, -245.00, 1.73, 20.79, 17.98, 0.000, 0.000, 0.000, 15:59:53.163
190, 173.24, 4.85, 9.09, 14.23, 0.000, 0.000, 0.000, 15:59:53.163
191, -170.55, 10.28, 7.80, 8.03, 0.000, 0.000, 0.000, 15:59:53.185
192, -366.80, 12.67, 14.91, 13.91, 0.000, 0.000, 0.000, 15:59:53.185
193, 121.99, -5.54, 17.15, 17.36, 0.000, 0.000, 0.000, 15:59:53.186
194, 7.16, 16.35, 3.13, 9.12, 0.000, 0.000, 0.000, 15:59:53.186
195, -401.64, 9.90, 6.79, 10.56, 0.000, 0.000, 0.000, 15:59:53.208
196, -74.81, 1.33, 18.71, 20.27, 0.000, 0.000, 0.000, 15:59:53.208
197, 154.83, 13.05, 8.53, 12.20, 0.000, 0.000, 0.000, 15:59:53.208
198, -267.88, 10.49, 2.62, 4.88, 0.000, 0.000, 0.000, 15:59:53.208
199, -247.55, 1.62, 19.69, 17.75, 0.000, 0.000, 0.000, 15:59:53.209
200, 189.87, 8.05, 10.68, 10.14, 0.000, 0.000, 0.000, 15:59:53.209
0, -143.26, 14.22, 4.62, 3.67, 0.000, 0.000, 0.000, 15:59:53.230
1, -347.90, 2.10, 8.82, 13.53, 0.000, 0.000, 0.000, 15:59:53.231
2, 139.92, 3.00, 15.55, 18.60, 0.000, 0.000, 0.000, 15:59:53.231
3, 32.51, 14.34, 7.59, 3.31, 0.000, 0.000, 0.000, 15:59:53.253
4, -352.46, 8.73, 8.40, 7.96, 0.000, 0.000, 0.000, 15:59:53.253
5, -73.55, -5.21, 21.13, 17.13, 0.000, 0.000, 0.000, 15:59:53.255
6, 105.30, 12.31, 4.72, 13.23, 0.000, 0.000, 0.000, 15:59:53.255
7, -290.27, 16.18, 7.04, 9.04, 0.000, 0.000, 0.000, 15:59:53.256
8, -257.34, 1.31, 17.68, 18.40, 0.000, 0.000, 0.000, 15:59:53.256
9, 151.48, 8.67, 14.46, 14.57, 0.000, 0.000, 0.000, 15:59:53.275
10, -182.95, 11.75, 4.28, 8.80, 0.000, 0.000, 0.000, 15:59:53.275
11, -408.58, 8.36, 12.30, 7.69, 0.000, 0.000, 0.000, 15:59:53.276
12, 82.62, 1.16, 16.92, 19.73, 0.000, 0.000, 0.000, 15:59:53.276
13, -22.92, 17.05, 9.00, 6.71, 0.000, 0.000, 0.000, 15:59:53.298
14, -384.30, 8.89, 7.87, 11.28, 0.000, 0.000, 0.000, 15:59:53.298
15, -21.08, 1.58, 19.77, 15.81, 0.000, 0.000, 0.000, 15:59:53.298
16, 159.08, 9.83, 7.53, 10.73, 0.000, 0.000, 0.000, 15:59:53.299
17, -265.16, 11.33, 6.58, 4.38, 0.000, 0.000, 0.000, 15:59:53.320
18, -241.81, 9.47, 17.05, 14.52, 0.000, 0.000, 0.000, 15:59:53.320
19, 162.31, 4.12, 12.17, 10.59, 0.000, 0.000, 0.000, 15:59:53.321
20, -158.79, 15.52, 4.95, 10.68, 0.000, 0.000, 0.000, 15:59:53.321
21, -344.07, 4.49, 15.62, 12.98, 0.000, 0.000, 0.000, 15:59:53.343
22, 117.87, 1.41, 16.04, 15.62, 0.000, 0.000, 0.000, 15:59:53.343
23, -1.40, 13.38, 4.34, 10.50, 0.000, 0.000, 0.000, 15:59:53.343
24, -381.57, 10.91, 13.31, 6.30, 0.000, 0.000, 0.000, 15:59:53.343
25, -29.90, 1.02, 21.40, 17.33, 0.000, 0.000, 0.000, 15:59:53.344
26, 141.07, 13.94, 4.88, 7.35, 0.000, 0.000, 0.000, 15:59:53.344
27, -328.86, 15.22, 7.64, 9.18, 0.000, 0.000, 0.000, 15:59:53.365
28, -315.19, -1.00, 17.95, 21.54, 0.000, 0.000, 0.000, 15:59:53.366
29, 195.63, 4.51, 6.88, 14.20, 0.000, 0.000, 0.000, 15:59:53.366
30, -126.48, 14.45, 4.72, 7.10, 0.000, 0.000, 0.000, 15:59:53.366
31, -360.53, 6.09, 11.11, 11.09, 0.000, 0.000, 0.000, 15:59:53.388
32, 108.45, 4.90, 17.76, 16.61, 0.000, 0.000, 0.000, 15:59:53.388
33, 3.06, 16.05, 4.53, 7.97, 0.000, 0.000, 0.000, 15:59:53.388
34, -324.18, 9.71, 6.70, 12.36, 0.000, 0.000, 0.000, 15:59:53.388
35, -72.18, -2.21, 19.57, 19.99, 0.000, 0.000, 0.000, 15:59:53.410
36, 70.87, 14.55, 7.35, 11.13, 0.000, 0.000, 0.000, 15:59:53.410
37, -282.54, 5.48, 4.44, 7.43, 0.000, 0.000, 0.000, 15:59:53.411
38, -195.13, 2.64, 18.64, 16.58, 0.000, 0.000, 0.000, 15:59:53.411
39, 204.60, 8.61, 12.85, 11.69, 0.000, 0.000, 0.000, 15:59:53.433
40, -204.02, 18.56, 3.87, 5.68, 0.000, 0.000, 0.000, 15:59:53.433
41, -327.85, 7.79, 11.90, 12.25, 0.000, 0.000, 0.000, 15:59:53.434
42, 158.93, 4.50, 16.64, 16.68, 0.000, 0.000, 0.000, 15:59:53.434
43, 64.59, 14.43, 3.24, 6.35, 0.000, 0.000, 0.000, 15:59:53.434
44, -337.82, 14.99, 9.88, 13.62, 0.000, 0.000, 0.000, 15:59:53.434
45, -60.58, 3.85, 20.73, 15.56, 0.000, 0.000, 0.000, 15:59:53.455
46, 91.83, 9.55, 7.86, 10.11, 0.000, 0.000, 0.000, 15:59:53.455
47, -299.89, 16.75, 5.87, 4.59, 0.000, 0.000, 0.000, 15:59:53.456
48, -228.56, 0.41, 18.89, 18.68, 0.000, 0.000, 0.000, 15:59:53.456
49, 150.89, 5.81, 9.22, 12.44, 0.000, 0.000, 0.000, 15:59:53.478
50, -247.60, 14.86, 6.16, 8.34, 0.000, 0.000, 0.000, 15:59:53.478
51, -373.35, 11.06, 11.69, 12.41, 0.000, 0.000, 0.000, 15:59:53.478
52, 178.25, 4.63, 19.48, 16.74, 0.000, 0.000, 0.000, 15:59:53.478
53, 23.89, 16.25, 6.43, 7.67, 0.000, 0.000, 0.000, 15:59:53.500
54, -383.55, 15.90, 10.21, 11.55, 0.000, 0.000, 0.000, 15:59:53.500
55, -6.50, -4.36, 23.12, 21.83, 0.000, 0.000, 0.000, 15:59:53.501
56, 166.50, 8.97, 5.88, 9.79, 0.000, 0.000, 0.000, 15:59:53.501
57, -235.25, 10.99, 4.08, 7.38, 0.000, 0.000, 0.000, 15:59:53.523
58, -240.99, 2.28, 20.32, 14.43, 0.000, 0.000, 0.000, 15:59:53.523
59, 149.14, 5.67, 13.50, 12.94, 0.000, 0.000, 0.000, 15:59:53.523
60, -161.46, 15.63, 0.54, 8.25, 0.000, 0.000, 0.000, 15:59:53.524
61, -322.84, 3.98, 13.07, 14.30, 0.000, 0.000, 0.000, 15:59:53.524
62, 93.80, 3.22, 18.02, 16.40, 0.000, 0.000, 0.000, 15:59:53.524
63, -89.66, 12.20, 4.38, 7.89, 0.000, 0.000, 0.000, 15:59:53.545
64, -431.41, 6.57, 8.38, 12.42, 0.000, 0.000, 0.000, 15:59:53.546
65, -94.84, 1.48, 19.06, 20.55, 0.000, 0.000, 0.000, 15:59:53.546
66, 99.65, 10.85, 6.42, 5.95, 0.000, 0.000, 0.000, 15:59:53.546
67, -189.23, 11.28, 3.95, 7.92, 0.000, 0.000, 0.000, 15:59:53.568
68, -181.27, 3.32, 16.38, 17.38, 0.000, 0.000, 0.000, 15:59:53.568
69, 112.12, 6.68, 12.05, 14.57, 0.000, 0.000, 0.000, 15:59:53.568
70, -200.25, 14.33, 5.08, 6.55, 0.000, 0.000, 0.000, 15:59:53.568
71, -412.18, 8.07, 12.12, 11.45, 0.000, 0.000, 0.000, 15:59:53.590
72, 142.59, 5.47, 19.89, 14.79, 0.000, 0.000, 0.000, 15:59:53.590
73, 55.60, 8.57, 3.59, 8.62, 0.000, 0.000, 0.000, 15:59:53.591
74, -411.58, 8.81, 9.88, 7.49, 0.000, 0.000, 0.000, 15:59:53.591
75, -107.57, 1.32, 20.71, 15.36, 0.000, 0.000, 0.000, 15:59:53.613
76, 109.52, 10.29, 6.13, 13.25, 0.000, 0.000, 0.000, 15:59:53.613
77, -226.43, 14.67, 7.16, 11.21, 0.000, 0.000, 0.000, 15:59:53.613
78, -226.50, 7.48, 20.29, 17.39, 0.000, 0.000, 0.000, 15:59:53.613
79, 194.25, 4.27, 9.14, 10.51, 0.000, 0.000, 0.000, 15:59:53.614
80, -252.82, 12.84, 2.64, 4.67, 0.000, 0.000, 0.000, 15:59:53.614
81, -464.76, 8.99, 13.24, 14.58, 0.000, 0.000, 0.000, 15:59:53.635
82, 109.75, 1.47, 22.14, 16.75, 0.000, 0.000, 0.000, 15:59:53.635
83, 10.28, 10.53, -0.86, 0.33, 0.000, 0.000, 0.000, 15:59:53.636
84, -336.24, 8.41, 7.46, 9.29, 0.000, 0.000, 0.000, 15:59:53.636
85, -14.97, 4.17, 20.56, 19.34, 0.000, 0.000, 0.000, 15:59:53.658
86, 177.76, 12.22, 5.16, 8.26, 0.000, 0.000, 0.000, 15:59:53.658
87, -281.51, 11.61, 7.63, 6.96, 0.000, 0.000, 0.000, 15:59:53.658
88, -339.64, 2.37, 17.63, 20.23, 0.000, 0.000, 0.000, 15:59:53.658
89, 143.48, 10.43, 9.50, 11.09, 0.000, 0.000, 0.000, 15:59:53.680
90, -119.38, 18.60, 2.66, 2.94, 0.000, 0.000, 0.000, 15:59:53.680
91, -339.58, 1.25, 11.34, 12.53, 0.000, 0.000, 0.000, 15:59:53.681
92, 136.45, -0.43, 15.72, 17.03, 0.000, 0.000, 0.000, 15:59:53.681
93, 11.74, 13.69, 3.91, 6.54, 0.000, 0.000, 0.000, 15:59:53.703
94, -477.72, 11.44, 11.88, 8.49, 0.000, 0.000, 0.000, 15:59:53.703
95, -133.85, 0.70, 21.54, 18.89, 0.000, 0.000, 0.000, 15:59:53.703
96, 65.70, 11.96, 3.64, 6.19, 0.000, 0.000, 0.000, 15:59:53.703
97, -228.50, 13.27, 7.74, 11.53, 0.000, 0.000, 0.000, 15:59:53.704
98, -197.09, 3.66, 17.66, 20.09, 0.000, 0.000, 0.000, 15:59:53.704
99, 254.54, 8.07, 12.11, 13.71, 0.000, 0.000, 0.000, 15:59:53.725
100, -155.66, 13.78, 4.54, 7.41, 0.000, 0.000, 0.000, 15:59:53.725
101, -348.96, 5.08, 13.64, 14.39, 0.000, 0.000, 0.000, 15:59:53.726
102, 111.99, 3.21, 20.04, 16.37, 0.000, 0.000, 0.000, 15:59:53.726
103, 2.64, 13.78, 6.65, 8.24, 0.000, 0.000, 0.000, 15:59:53.748
104, -356.91, 11.54, 10.06, 7.63, 0.000, 0.000, 0.000, 15:59:53.748
105, -17.76, 0.80, 20.64, 18.22, 0.000, 0.000, 0.000, 15:59:53.748
106, 127.85, 12.22, 5.66, 6.91, 0.000, 0.000, 0.000, 15:59:53.748
107, -319.91, 11.41, 6.50, 6.94, 0.000, 0.000, 0.000, 15:59:53.770
108, -278.78, 7.86, 19.04, 19.13, 0.000, 0.000, 0.000, 15:59:53.770
109, 232.63, 0.89, 16.38, 11.44, 0.000, 0.000, 0.000, 15:59:53.771
110, -251.05, 12.23, 0.73, 9.07, 0.000, 0.000, 0.000, 15:59:53.771
111, -393.96, 9.65, 10.30, 10.24, 0.000, 0.000, 0.000, 15:59:53.793
112, 205.46, 2.57, 18.73, 14.72, 0.000, 0.000, 0.000, 15:59:53.793
113, -26.75, 14.14, 5.34, 6.99, 0.000, 0.000, 0.000, 15:59:53.794
114, -435.25, 11.90, 7.32, 9.72, 0.000, 0.000, 0.000, 15:59:53.794
115, -181.95, -1.23, 19.63, 18.19, 0.000, 0.000, 0.000, 15:59:53.794
116, 172.58, 7.14, 7.12, 9.83, 0.000, 0.000, 0.000, 15:59:53.795
117, -270.86, 17.75, 4.48, 8.16, 0.000, 0.000, 0.000, 15:59:53.815
118, -280.54, 2.27, 19.65, 18.91, 0.000, 0.000, 0.000, 15:59:53.816
119, 168.89, 10.80, 8.92, 9.01, 0.000, 0.000, 0.000, 15:59:53.816
120, -53.86, 18.09, 6.85, 8.21, 0.000, 0.000, 0.000, 15:59:53.816
121, -254.91, 7.31, 13.80, 15.20, 0.000, 0.000, 0.000, 15:59:53.838
122, 143.35, 2.70, 20.05, 17.19, 0.000, 0.000, 0.000, 15:59:53.838
123, -98.80, 11.23, 3.73, 5.10, 0.000, 0.000, 0.000, 15:59:53.838
124, -439.52, 8.93, 5.21, 11.67, 0.000, 0.000, 0.000, 15:59:53.838
125, 26.24, -2.43, 21.02, 16.89, 0.000, 0.000, 0.000, 15:59:53.860
126, 220.09, 14.72, 5.94, 12.76, 0.000, 0.000, 0.000, 15:59:53.860
127, -331.80, 5.16, 8.75, 8.54, 0.000, 0.000, 0.000, 15:59:53.861
128, -303.79, 6.09, 16.64, 22.30, 0.000, 0.000, 0.000, 15:59:53.861
129, 119.95, 7.17, 8.23, 11.57, 0.000, 0.000, 0.000, 15:59:53.883
130, -232.94, 14.48, 4.18, 7.23, 0.000, 0.000, 0.000, 15:59:53.883
131, -302.52, 5.76, 12.18, 10.61, 0.000, 0.000, 0.000, 15:59:53.883
132, 39.95, 2.06, 17.73, 17.75, 0.000, 0.000, 0.000, 15:59:53.884
133, 32.46, 17.72, 4.47, 6.27, 0.000, 0.000, 0.000, 15:59:53.884
134, -263.38, 6.99, 10.61, 8.82, 0.000, 0.000, 0.000, 15:59:53.884
135, -128.50, 2.92, 19.19, 18.72, 0.000, 0.000, 0.000, 15:59:53.905
136, 96.82, 9.01, 8.49, 7.28, 0.000, 0.000, 0.000, 15:59:53.906
137, -286.90, 12.66, 4.50, 7.82, 0.000, 0.000, 0.000, 15:59:53.906
138, -162.26, 4.42, 18.02, 15.55, 0.000, 0.000, 0.000, 15:59:53.906
139, 198.21, 6.09, 12.73, 13.05, 0.000, 0.000, 0.000, 15:59:53.928
140, -224.09, 10.37, 2.90, 2.85, 0.000, 0.000, 0.000, 15:59:53.928
141, -373.64, 7.72, 13.04, 12.38, 0.000, 0.000, 0.000, 15:59:53.928
142, 148.28, 3.52, 19.07, 21.72, 0.000, 0.000, 0.000, 15:59:53.928
143, -16.73, 13.37, 7.27, 5.07, 0.000, 0.000, 0.000, 15:59:53.950
144, -407.99, 12.96, 10.81, 8.58, 0.000, 0.000, 0.000, 15:59:53.950
145, 2.39, -4.86, 19.84, 21.08, 0.000, 0.000, 0.000, 15:59:53.951
146, 73.29, 12.01, 5.06, 9.12, 0.000, 0.000, 0.000, 15:59:53.951
147, -391.43, 12.73, 2.00, 6.26, 0.000, 0.000, 0.000, 15:59:53.973
148, -176.53, 3.87, 19.46, 22.58, 0.000, 0.000, 0.000, 15:59:53.973
149, 267.64, 6.57, 14.50, 9.21, 0.000, 0.000, 0.000, 15:59:53.973
150, -145.51, 16.94, 1.89, 9.84, 0.000, 0.000, 0.000, 15:59:53.973
151, -415.77, 5.38, 11.86, 12.66, 0.000, 0.000, 0.000, 15:59:53.974
152, 254.24, -2.61, 15.24, 15.56, 0.000, 0.000, 0.000, 15:59:53.974
153, -22.55, 19.56, 1.99, 7.91, 0.000, 0.000, 0.000, 15:59:53.995
154, -555.92, 9.30, 8.24, 9.87, 0.000, 0.000, 0.000, 15:59:53.995
155, -20.67, 2.01, 20.72, 17.84, 0.000, 0.000, 0.000, 15:59:53.995
156, 161.58, 13.42, 7.07, 10.14, 0.000, 0.000, 0.000, 15:59:53.996
157, -198.24, 14.24, 5.05, 9.25, 0.000, 0.000, 0.000, 15:59:54.018
158, -192.05, -2.61, 21.70, 20.76, 0.000, 0.000, 0.000, 15:59:54.018
159, 98.95, 7.86, 10.24, 11.00, 0.000, 0.000, 0.000, 15:59:54.018
160, -250.61, 16.99, 5.43, 6.94, 0.000, 0.000, 0.000, 15:59:54.018
161, -439.86, 6.48, 15.72, 13.61, 0.000, 0.000, 0.000, 15:59:54.040
162, 154.67, 6.37, 13.98, 14.94, 0.000, 0.000, 0.000, 15:59:54.041
163, 88.24, 9.16, 7.79, 4.53, 0.000, 0.000, 0.000, 15:59:54.041
164, -462.00, 9.43, 4.01, 9.98, 0.000, 0.000, 0.000, 15:59:54.041
165, -32.99, 2.29, 21.50, 19.10, 0.000, 0.000, 0.000, 15:59:54.063
166, 144.25, 14.06, 9.40, 7.44, 0.000, 0.000, 0.000, 15:59:54.063
167, -276.14, 13.48, 6.55, 10.28, 0.000, 0.000, 0.000, 15:59:54.063
168, -215.97, 0.36, 18.38, 16.62, 0.000, 0.000, 0.000, 15:59:54.063
169, 136.53, 5.68, 12.13, 15.60, 0.000, 0.000, 0.000, 15:59:54.064
170, -129.63, 14.86, 5.14, 5.30, 0.000, 0.000, 0.000, 15:59:54.064
171, -246.84, 8.95, 11.12, 15.09, 0.000, 0.000, 0.000, 15:59:54.085
172, -16.09, 1.45, 16.51, 17.31, 0.000, 0.000, 0.000, 15:59:54.085
173, -6.58, 12.23, 2.55, 5.01, 0.000, 0.000, 0.000, 15:59:54.086
174, -314.60, 6.16, 7.67, 12.52, 0.000, 0.000, 0.000, 15:59:54.086
175, -119.26, 3.44, 21.12, 16.41, 0.000, 0.000, 0.000, 15:59:54.108
176, 135.52, 9.92, 5.03, 7.03, 0.000, 0.000, 0.000, 15:59:54.108
177, -295.68, 20.02, 6.78, 3.53, 0.000, 0.000, 0.000, 15:59:54.108
178, -233.78, 2.28, 18.35, 20.70, 0.000, 0.000, 0.000, 15:59:54.108
179, 158.92, 7.06, 9.83, 12.20, 0.000, 0.000, 0.000, 15:59:54.130
180, -139.89, 17.08, 5.05, 5.11, 0.000, 0.000, 0.000, 15:59:54.130
181, -335.99, 3.84, 12.03, 11.92, 0.000, 0.000, 0.000, 15:59:54.131
182, 87.38, 2.04, 19.38, 13.76, 0.000, 0.000, 0.000, 15:59:54.131
183, 25.55, 14.30, 3.48, 5.10, 0.000, 0.000, 0.000, 15:59:54.153
184, -330.69, 9.26, 7.39, 12.17, 0.000, 0.000, 0.000, 15:59:54.153
185, -38.09, -1.18, 21.50, 19.71, 0.000, 0.000, 0.000, 15:59:54.153
186, 49.72, 15.01, 6.35, 8.25, 0.000, 0.000, 0.000, 15:59:54.153
187, -340.69, 14.08, 6.96, 9.65, 0.000, 0.000, 0.000, 15:59:54.154
188, -151.31, -0.30, 19.07, 17.75, 0.000, 0.000, 0.000, 15:59:54.154
189, 195.71, 11.28, 7.98, 14.13, 0.000, 0.000, 0.000, 15:59:54.175
190, -212.87, 10.86, 6.68, 9.72, 0.000, 0.000, 0.000, 15:59:54.175
191, -416.72, 6.63, 14.01, 12.96, 0.000, 0.000, 0.000, 15:59:54.176
192, 158.29, 3.37, 13.10, 18.04, 0.000, 0.000, 0.000, 15:59:54.176
193, -38.46, 14.72, 5.35, 10.13, 0.000, 0.000, 0.000, 15:59:54.198
194, -276.69, 5.54, 8.64, 12.03, 0.000, 0.000, 0.000, 15:59:54.198
195, 9.19, 1.90, 16.12, 15.14, 0.000, 0.000, 0.000, 15:59:54.199
196, 104.98, 13.41, 5.56, 7.87, 0.000, 0.000, 0.000, 15:59:54.199
197, -383.45, 12.94, 5.46, 5.25, 0.000, 0.000, 0.000, 15:59:54.221
198, -315.39, 6.52, 19.12, 17.06, 0.000, 0.000, 0.000, 15:59:54.221
199, 271.09, 3.48, 9.67, 14.81, 0.000, 0.000, 0.000, 15:59:54.221
200, -126.86, 13.61, 7.27, 10.53, 0.000, 0.000, 0.000, 15:59:54.221
0, -398.08, 9.25, 16.07, 15.39, 0.000, 0.000, 0.000, 15:59:54.222
1, 50.72, 3.24, 18.38, 14.73, 0.000, 0.000, 0.000, 15:59:54.243
2, -31.84, 12.39, 3.47, 3.75, 0.000, 0.000, 0.000, 15:59:54.243
3, -300.97, 10.39, 10.33, 9.89, 0.000, 0.000, 0.000, 15:59:54.243
4, 1.75, 2.76, 18.57, 21.27, 0.000, 0.000, 0.000, 15:59:54.243
5, 105.04, 11.30, 5.05, 9.84, 0.000, 0.000, 0.000, 15:59:54.265
6, -341.72, 16.19, 3.36, 2.32, 0.000, 0.000, 0.000, 15:59:54.265
7, -364.39, 1.49, 18.86, 14.95, 0.000, 0.000, 0.000, 15:59:54.266
8, 137.95, 6.01, 11.92, 12.87, 0.000, 0.000, 0.000, 15:59:54.266
9, -119.09, 14.83, 3.46, 6.40, 0.000, 0.000, 0.000, 15:59:54.288
10, -359.78, 8.69, 15.19, 13.52, 0.000, 0.000, 0.000, 15:59:54.288
11, 246.24, 4.08, 16.99, 18.52, 0.000, 0.000, 0.000, 15:59:54.288
12, 70.61, 10.32, 6.41, 11.43, 0.000, 0.000, 0.000, 15:59:54.288
13, -348.99, 7.23, 8.16, 10.23, 0.000, 0.000, 0.000, 15:59:54.289
14, 4.81, 1.34, 18.29, 18.25, 0.000, 0.000, 0.000, 15:59:54.289
15, 82.33, 16.03, 3.15, 9.43, 0.000, 0.000, 0.000, 15:59:54.310
16, -369.43, 9.98, 6.55, 6.80, 0.000, 0.000, 0.000, 15:59:54.310
17, -228.33, 3.51, 18.61, 14.50, 0.000, 0.000, 0.000, 15:59:54.310
18, 203.53, 5.89, 7.51, 15.71, 0.000, 0.000, 0.000, 15:59:54.311
19, -197.29, 14.59, 4.69, 3.88, 0.000, 0.000, 0.000, 15:59:54.333
20, -404.57, 4.99, 14.15, 13.66, 0.000, 0.000, 0.000, 15:59:54.333
21, 199.14, 3.16, 15.98, 19.62, 0.000, 0.000, 0.000, 15:59:54.333
22, -51.20, 12.61, 4.60, 6.58, 0.000, 0.000, 0.000, 15:59:54.333
23, -400.91, 13.19, 13.17, 8.75, 0.000, 0.000, 0.000, 15:59:54.356
24, 2.85, 0.83, 17.61, 14.98, 0.000, 0.000, 0.000, 15:59:54.356
25, 92.77, 5.72, 8.29, 8.42, 0.000, 0.000, 0.000, 15:59:54.356
26, -349.01, 14.81, 4.88, 6.77, 0.000, 0.000, 0.000, 15:59:54.356
27, -238.23, 1.16, 16.87, 16.66, 0.000, 0.000, 0.000, 15:59:54.377
28, 182.74, 8.87, 13.04, 12.64, 0.000, 0.000, 0.000, 15:59:54.378
29, -236.71, 12.82, 8.87, 8.81, 0.000, 0.000, 0.000, 15:59:54.378
30, -386.11, 10.15, 15.94, 12.26, 0.000, 0.000, 0.000, 15:59:54.379
31, 182.94, 4.68, 18.00, 19.52, 0.000, 0.000, 0.000, 15:59:54.379
32, -64.74, 13.60, -0.91, 7.26, 0.000, 0.000, 0.000, 15:59:54.379
33, -396.05, 13.10, 9.05, 10.47, 0.000, 0.000, 0.000, 15:59:54.400
34, 14.65, -0.02, 21.65, 19.84, 0.000, 0.000, 0.000, 15:59:54.400
35, 83.67, 11.00, 8.35, 9.15, 0.000, 0.000, 0.000, 15:59:54.401
36, -281.36, 12.38, 4.77, 7.35, 0.000, 0.000, 0.000, 15:59:54.401
37, -194.08, -0.84, 20.22, 19.10, 0.000, 0.000, 0.000, 15:59:54.423
38, 267.43, 4.08, 11.94, 12.25, 0.000, 0.000, 0.000, 15:59:54.423
39, -140.51, 13.24, 7.76, 8.06, 0.000, 0.000, 0.000, 15:59:54.424
40, -341.01, 5.50, 13.98, 13.14, 0.000, 0.000, 0.000, 15:59:54.424
41, 81.17, 7.59, 17.07, 18.31, 0.000, 0.000, 0.000, 15:59:54.445
42, -76.24, 16.20, 6.59, 4.70, 0.000, 0.000, 0.000, 15:59:54.446
43, -367.91, 3.10, 8.27, 7.28, 0.000, 0.000, 0.000, 15:59:54.446
44, 34.86, 0.20, 19.44, 18.40, 0.000, 0.000, 0.000, 15:59:54.446
45, 133.09, 13.41, 2.20, 7.05, 0.000, 0.000, 0.000, 15:59:54.468
46, -241.90, 18.53, 4.32, 7.43, 0.000, 0.000, 0.000, 15:59:54.468
47, -340.54, -0.76, 18.67, 17.60, 0.000, 0.000, 0.000, 15:59:54.468
48, -10.27, 8.07, 8.99, 9.15, 0.000, 0.000, 0.000, 15:59:54.468
49, -64.50, 17.83, 4.61, 3.49, 0.000, 0.000, 0.000, 15:59:54.469
50, -268.32, 3.27, 14.14, 14.27, 0.000, 0.000, 0.000, 15:59:54.469
51, 176.84, 6.31, 17.47, 16.86, 0.000, 0.000, 0.000, 15:59:54.490
52, -46.63, 11.20, 5.65, 8.63, 0.000, 0.000, 0.000, 15:59:54.490
53, -454.51, 11.10, 7.16, 7.95, 0.000, 0.000, 0.000, 15:59:54.491
54, -71.55, -2.45, 21.10, 18.63, 0.000, 0.000, 0.000, 15:59:54.491
55, 289.24, 13.65, 5.66, 8.30, 0.000, 0.000, 0.000, 15:59:54.513
56, -275.14, 15.69, 8.23, 6.99, 0.000, 0.000, 0.000, 15:59:54.513
57, -300.55, 3.64, 17.78, 11.87, 0.000, 0.000, 0.000, 15:59:54.513
58, 208.05, 9.53, 11.26, 11.57, 0.000, 0.000, 0.000, 15:59:54.514
59, -176.47, 9.71, 2.33, 7.45, 0.000, 0.000, 0.000, 15:59:54.535
60, -335.29, 7.56, 12.31, 15.89, 0.000, 0.000, 0.000, 15:59:54.536
61, 225.90, -6.73, 16.43, 19.82, 0.000, 0.000, 0.000, 15:59:54.536
62, -67.60, 12.79, -0.19, 6.05, 0.000, 0.000, 0.000, 15:59:54.536
63, -488.79, 8.96, 2.74, 15.23, 0.000, 0.000, 0.000, 15:59:54.560
64, 50.28, 3.20, 20.98, 18.30, 0.000, 0.000, 0.000, 15:59:54.560
65, 152.45, 11.29, 7.73, 9.50, 0.000, 0.000, 0.000, 15:59:54.560
66, -293.51, 14.29, 9.00, 11.19, 0.000, 0.000, 0.000, 15:59:54.560
67, -181.65, 4.61, 16.37, 15.84, 0.000, 0.000, 0.000, 15:59:54.561
68, 177.45, 8.56, 10.30, 8.32, 0.000, 0.000, 0.000, 15:59:54.561
69, -272.20, 18.19, 4.96, 6.37, 0.000, 0.000, 0.000, 15:59:54.580
70, -536.40, 1.25, 9.81, 12.74, 0.000, 0.000, 0.000, 15:59:54.581
71, 196.89, 6.00, 18.24, 13.14, 0.000, 0.000, 0.000, 15:59:54.581
72, 193.06, 14.23, 8.10, 6.63, 0.000, 0.000, 0.000, 15:59:54.581
73, -373.63, 7.51, 12.84, 8.48, 0.000, 0.000, 0.000, 15:59:54.604
74, -90.61, -2.21, 23.00, 21.38, 0.000, 0.000, 0.000, 15:59:54.604
75, 210.83, 12.86, 6.57, 6.62, 0.000, 0.000, 0.000, 15:59:54.604
76, -298.19, 16.31, 4.18, 7.20, 0.000, 0.000, 0.000, 15:59:54.604
77, -276.85, 3.38, 22.18, 17.28, 0.000, 0.000, 0.000, 15:59:54.625
78, 133.51, 12.58, 11.85, 7.42, 0.000, 0.000, 0.000, 15:59:54.625
79, -221.70, 9.26, 4.28, 9.28, 0.000, 0.000, 0.000, 15:59:54.626
80, -367.38, 7.39, 13.68, 14.97, 0.000, 0.000, 0.000, 15:59:54.626
81, 181.81, 4.45, 15.04, 18.09, 0.000, 0.000, 0.000, 15:59:54.648
82, -140.93, 14.15, 2.27, 7.69, 0.000, 0.000, 0.000, 15:59:54.648
83, -316.30, 8.01, 7.88, 11.40, 0.000, 0.000, 0.000, 15:59:54.648
84, 4.60, 4.35, 21.36, 17.37, 0.000, 0.000, 0.000, 15:59:54.648
85, 38.15, 10.49, 9.04, 10.73, 0.000, 0.000, 0.000, 15:59:54.649
86, -343.84, 14.96, 2.13, 7.88, 0.000, 0.000, 0.000, 15:59:54.649
87, -226.02, 4.88, 20.37, 18.94, 0.000, 0.000, 0.000, 15:59:54.670
88, 115.59, 4.18, 10.21, 13.85, 0.000, 0.000, 0.000, 15:59:54.670
89, -88.87, 13.36, 4.62, 6.66, 0.000, 0.000, 0.000, 15:59:54.671
90, -367.79, 7.22, 12.25, 13.36, 0.000, 0.000, 0.000, 15:59:54.671
91, 90.28, 1.29, 13.74, 18.36, 0.000, 0.000, 0.000, 15:59:54.693
92, -145.40, 13.17, 5.67, 6.87, 0.000, 0.000, 0.000, 15:59:54.693
93, -298.39, 12.30, 9.40, 6.87, 0.000, 0.000, 0.000, 15:59:54.693
94, -49.07, -1.44, 17.54, 19.49, 0.000, 0.000, 0.000, 15:59:54.693
95, 202.07, 9.36, 4.94, 9.36, 0.000, 0.000, 0.000, 15:59:54.715
96, -226.50, 12.96, 4.00, 9.06, 0.000, 0.000, 0.000, 15:59:54.715
97, -270.18, -5.42, 20.09, 16.17, 0.000, 0.000, 0.000, 15:59:54.716
98, 88.12, 8.03, 10.80, 11.00, 0.000, 0.000, 0.000, 15:59:54.716
99, -232.65, 18.31, 2.76, 3.46, 0.000, 0.000, 0.000, 15:59:54.737
100, -290.88, 8.98, 14.13, 12.43, 0.000, 0.000, 0.000, 15:59:54.738
101, 232.07, 4.67, 15.96, 17.69, 0.000, 0.000, 0.000, 15:59:54.738
102, 26.49, 15.15, 5.77, 9.00, 0.000, 0.000, 0.000, 15:59:54.738
103, -438.08, 8.14, 13.36, 10.21, 0.000, 0.000, 0.000, 15:59:54.739
104, -176.18, 1.13, 21.72, 16.20, 0.000, 0.000, 0.000, 15:59:54.739
105, 26.76, 13.30, 4.35, 11.61, 0.000, 0.000, 0.000, 15:59:54.760
106, -354.24, 11.91, 3.66, 7.36, 0.000, 0.000, 0.000, 15:59:54.760
107, -37.95, 0.27, 18.52, 16.21, 0.000, 0.000, 0.000, 15:59:54.762
108, 206.26, 7.12, 12.60, 12.54, 0.000, 0.000, 0.000, 15:59:54.762
109, -232.06, 13.58, 3.76, 3.98, 0.000, 0.000, 0.000, 15:59:54.783
110, -367.11, 6.78, 14.89, 16.21, 0.000, 0.000, 0.000, 15:59:54.783
111, 196.87, 4.32, 18.19, 13.62, 0.000, 0.000, 0.000, 15:59:54.783
112, 59.02, 13.61, 5.09, 10.56, 0.000, 0.000, 0.000, 15:59:54.783
113, -455.29, 15.76, 9.43, 13.54, 0.000, 0.000, 0.000, 15:59:54.805
114, -91.53, 10.51, 21.60, 20.73, 0.000, 0.000, 0.000, 15:59:54.806
115, 87.35, 2.49, 4.73, 6.47, 0.000, 0.000, 0.000, 15:59:54.806
116, -249.84, 10.76, 3.84, 7.54, 0.000, 0.000, 0.000, 15:59:54.806
117, -238.81, 1.86, 18.10, 16.12, 0.000, 0.000, 0.000, 15:59:54.828
118, 269.82, 9.95, 9.33, 14.03, 0.000, 0.000, 0.000, 15:59:54.828
119, -210.32, 15.01, 4.16, 7.11, 0.000, 0.000, 0.000, 15:59:54.828
120, -554.40, 10.08, 16.40, 16.49, 0.000, 0.000, 0.000, 15:59:54.828
121, 192.50, 2.52, 18.59, 17.25, 0.000, 0.000, 0.000, 15:59:54.829
122, 76.72, 13.19, 3.82, 11.00, 0.000, 0.000, 0.000, 15:59:54.829
123, -417.75, 14.15, 8.41, 10.93, 0.000, 0.000, 0.000, 15:59:54.850
124, -2.05, -2.29, 20.63, 15.17, 0.000, 0.000, 0.000, 15:59:54.850
125, 137.82, 13.38, 6.17, 6.56, 0.000, 0.000, 0.000, 15:59:54.851
126, -353.53, 10.33, 7.30, 4.14, 0.000, 0.000, 0.000, 15:59:54.851
127, -197.42, 3.32, 18.64, 13.86, 0.000, 0.000, 0.000, 15:59:54.873
128, 175.77, 4.98, 12.50, 11.37, 0.000, 0.000, 0.000, 15:59:54.873
129, -89.35, 13.96, 5.37, 8.99, 0.000, 0.000, 0.000, 15:59:54.873
130, -441.73, 7.27, 14.23, 14.33, 0.000, 0.000, 0.000, 15:59:54.873
131, 47.57, 4.47, 12.47, 15.06, 0.000, 0.000, 0.000, 15:59:54.895
132, 2.72, 12.49, 4.38, 8.34, 0.000, 0.000, 0.000, 15:59:54.895
133, -335.09, 4.43, 10.35, 10.56, 0.000, 0.000, 0.000, 15:59:54.896
134, -125.03, -0.63, 21.82, 18.87, 0.000, 0.000, 0.000, 15:59:54.896
135, 75.34, 7.85, 7.04, 5.17, 0.000, 0.000, 0.000, 15:59:54.918
136, -256.64, 16.34, 9.97, 9.20, 0.000, 0.000, 0.000, 15:59:54.918
137, -103.38, 0.26, 20.06, 19.09, 0.000, 0.000, 0.000, 15:59:54.918
138, 138.53, 8.98, 10.73, 10.93, 0.000, 0.000, 0.000, 15:59:54.918
139, -123.98, 14.78, 8.04, 7.30, 0.000, 0.000, 0.000, 15:59:54.919
140, -354.83, 8.41, 10.32, 16.37, 0.000, 0.000, 0.000, 15:59:54.919
141, 163.50, 2.61, 13.06, 19.66, 0.000, 0.000, 0.000, 15:59:54.940
142, 3.24, 11.27, 3.87, 10.17, 0.000, 0.000, 0.000, 15:59:54.940
143, -442.38, 12.22, 8.17, 12.21, 0.000, 0.000, 0.000, 15:59:54.941
144, -101.72, 4.39, 22.35, 19.14, 0.000, 0.000, 0.000, 15:59:54.941
145, 49.30, 13.98, 9.46, 6.54, 0.000, 0.000, 0.000, 15:59:54.963
146, -427.22, 12.09, 7.96, 10.71, 0.000, 0.000, 0.000, 15:59:54.963
147, -235.79, 2.56, 20.90, 19.43, 0.000, 0.000, 0.000, 15:59:54.963
148, 163.21, 7.37, 9.21, 14.36, 0.000, 0.000, 0.000, 15:59:54.964
149, 88.38, 11.65, 3.21, 5.83, 0.000, 0.000, 0.000, 15:59:54.985
150, -370.35, 11.19, 12.45, 14.02, 0.000, 0.000, 0.000, 15:59:54.985
151, 177.08, -2.65, 15.33, 18.07, 0.000, 0.000, 0.000, 15:59:54.986
152, -65.85, 16.39, 5.69, 6.81, 0.000, 0.000, 0.000, 15:59:54.986
153, -356.55, 12.58, 12.49, 11.80, 0.000, 0.000, 0.000, 15:59:55.008
154, 9.90, -0.07, 20.63, 21.34, 0.000, 0.000, 0.000, 15:59:55.008
155, 40.16, 13.05, 5.70, 5.46, 0.000, 0.000, 0.000, 15:59:55.008
156, -307.40, 7.14, 2.32, 7.97, 0.000, 0.000, 0.000, 15:59:55.009
157, -262.89, -0.49, 19.99, 17.77, 0.000, 0.000, 0.000, 15:59:55.009
158, 200.51, 3.54, 10.28, 9.14, 0.000, 0.000, 0.000, 15:59:55.009
159, -189.53, 16.13, 5.49, 6.86, 0.000, 0.000, 0.000, 15:59:55.030
160, -411.61, 4.95, 13.93, 10.46, 0.000, 0.000, 0.000, 15:59:55.030
161, 251.33, 3.65, 15.45, 18.34, 0.000, 0.000, 0.000, 15:59:55.031
162, -64.11, 9.60, 5.77, 7.43, 0.000, 0.000, 0.000, 15:59:55.031
163, -477.03, 10.79, 5.41, 8.71, 0.000, 0.000, 0.000, 15:59:55.053
164, 27.78, -1.52, 21.14, 17.67, 0.000, 0.000, 0.000, 15:59:55.053
165, 114.69, 10.38, 7.26, 9.10, 0.000, 0.000, 0.000, 15:59:55.053
166, -399.57, 17.90, 4.91, 11.02, 0.000, 0.000, 0.000, 15:59:55.053
167, -179.56, 4.04, 21.32, 17.13, 0.000, 0.000, 0.000, 15:59:55.075
168, 201.81, 12.64, 7.72, 9.84, 0.000, 0.000, 0.000, 15:59:55.075
169, -96.45, 9.25, 4.94, 1.64, 0.000, 0.000, 0.000, 15:59:55.075
170, -351.54, 8.19, 15.39, 11.76, 0.000, 0.000, 0.000, 15:59:55.075
171, 58.59, 5.65, 16.16, 17.11, 0.000, 0.000, 0.000, 15:59:55.098
172, -88.19, 11.58, 0.87, 6.76, 0.000, 0.000, 0.000, 15:59:55.098
173, -373.44, 8.79, 7.10, 9.36, 0.000, 0.000, 0.000, 15:59:55.098
174, 48.03, -0.10, 22.85, 15.01, 0.000, 0.000, 0.000, 15:59:55.098
175, 167.24, 14.04, 10.74, 8.65, 0.000, 0.000, 0.000, 15:59:55.099
176, -324.46, 11.97, 3.65, 10.43, 0.000, 0.000, 0.000, 15:59:55.099
177, -286.60, 6.12, 17.22, 18.34, 0.000, 0.000, 0.000, 15:59:55.120
178, 125.72, 4.19, 9.78, 12.49, 0.000, 0.000, 0.000, 15:59:55.120
179, -126.89, 11.88, 4.20, 9.76, 0.000, 0.000, 0.000, 15:59:55.121
180, -305.57, 8.75, 11.22, 11.24, 0.000, 0.000, 0.000, 15:59:55.121
181, 91.63, 5.25, 15.93, 16.64, 0.000, 0.000, 0.000, 15:59:55.143
182, -57.67, 16.42, 5.85, 7.24, 0.000, 0.000, 0.000, 15:59:55.143
183, -225.44, 8.54, 8.21, 12.96, 0.000, 0.000, 0.000, 15:59:55.143
184, -53.78, -0.50, 16.46, 21.76, 0.000, 0.000, 0.000, 15:59:55.143
185, 42.70, 13.86, 6.34, 11.34, 0.000, 0.000, 0.000, 15:59:55.165
186, -288.79, 21.63, 7.42, 5.40, 0.000, 0.000, 0.000, 15:59:55.165
187, -205.86, -3.64, 20.03, 16.94, 0.000, 0.000, 0.000, 15:59:55.166
188, 147.75, 9.44, 8.97, 6.56, 0.000, 0.000, 0.000, 15:59:55.166
189, -188.11, 14.25, 4.82, 6.24, 0.000, 0.000, 0.000, 15:59:55.188
190, -426.15, 3.61, 14.92, 14.25, 0.000, 0.000, 0.000, 15:59:55.188
191, 60.02, 2.31, 16.24, 13.00, 0.000, 0.000, 0.000, 15:59:55.189
192, 92.99, 17.00, 3.03, 5.91, 0.000, 0.000, 0.000, 15:59:55.189
193, -455.86, 11.20, 11.35, 12.66, 0.000, 0.000, 0.000, 15:59:55.189
194, 119.73, 1.68, 20.65, 20.08, 0.000, 0.000, 0.000, 15:59:55.189
195, 196.47, 14.73, 5.69, 10.03, 0.000, 0.000, 0.000, 15:59:55.210
196, -317.33, 8.30, 3.76, 8.41, 0.000, 0.000, 0.000, 15:59:55.210
197, -187.52, 3.07, 17.24, 19.84, 0.000, 0.000, 0.000, 15:59:55.211
198, 86.41, 9.97, 9.56, 14.33, 0.000, 0.000, 0.000, 15:59:55.211
199, -336.48, 10.99, 7.28, 3.89, 0.000, 0.000, 0.000, 15:59:55.233
200, -384.15, 4.56, 15.10, 14.26, 0.000, 0.000, 0.000, 15:59:55.233
0, 293.66, 4.68, 15.11, 15.61, 0.000, 0.000, 0.000, 15:59:55.233
1, -37.26, 10.48, 5.24, 3.05, 0.000, 0.000, 0.000, 15:59:55.234
2, -523.32, 8.46, 8.16, 6.49, 0.000, 0.000, 0.000, 15:59:55.234
3, -160.35, 3.17, 22.87, 17.21, 0.000, 0.000, 0.000, 15:59:55.255
4, 147.19, 7.52, 5.44, 10.46, 0.000, 0.000, 0.000, 15:59:55.255
5, -215.96, 12.32, 4.23, 11.38, 0.000, 0.000, 0.000, 15:59:55.255
6, -43.96, 0.81, 19.01, 15.46, 0.000, 0.000, 0.000, 15:59:55.256
7, 262.28, 7.73, 15.26, 10.05, 0.000, 0.000, 0.000, 15:59:55.278
8, -179.67, 16.15, 4.28, 7.30, 0.000, 0.000, 0.000, 15:59:55.278
9, -472.65, 8.15, 13.13, 13.93, 0.000, 0.000, 0.000, 15:59:55.279
10, -78.58, 7.65, 19.03, 13.72, 0.000, 0.000, 0.000, 15:59:55.279
11, 131.94, 11.33, 2.07, 9.76, 0.000, 0.000, 0.000, 15:59:55.300
12, -226.33, 16.44, 12.96, 9.96, 0.000, 0.000, 0.000, 15:59:55.300
13, 5.26, -1.85, 18.36, 21.79, 0.000, 0.000, 0.000, 15:59:55.301
14, 70.39, 12.64, 4.10, 6.65, 0.000, 0.000, 0.000, 15:59:55.301
15, -417.23, 10.50, 4.69, 11.78, 0.000, 0.000, 0.000, 15:59:55.323
16, -429.84, 1.89, 20.85, 16.25, 0.000, 0.000, 0.000, 15:59:55.323
17, 271.65, 7.17, 9.03, 10.97, 0.000, 0.000, 0.000, 15:59:55.323
18, -63.66, 15.76, 3.57, 2.16, 0.000, 0.000, 0.000, 15:59:55.323
19, -279.95, 8.61, 13.17, 12.50, 0.000, 0.000, 0.000, 15:59:55.324
20, 71.51, 3.39, 14.43, 14.74, 0.000, 0.000, 0.000, 15:59:55.324
21, -114.16, 11.14, 4.19, 7.56, 0.000, 0.000, 0.000, 15:59:55.345
22, -550.63, 5.20, 10.81, 10.47, 0.000, 0.000, 0.000, 15:59:55.346
23, 36.60, -3.13, 19.33, 21.41, 0.000, 0.000, 0.000, 15:59:55.346
24, 149.13, 12.55, 8.77, 10.18, 0.000, 0.000, 0.000, 15:59:55.346
25, -161.38, 15.33, 4.98, 6.52, 0.000, 0.000, 0.000, 15:59:55.368
26, -225.13, 1.04, 14.48, 19.14, 0.000, 0.000, 0.000, 15:59:55.368
27, 221.35, 10.55, 10.42, 10.04, 0.000, 0.000, 0.000, 15:59:55.368
28, -155.48, 13.75, 1.50, 0.55, 0.000, 0.000, 0.000, 15:59:55.368
29, -301.16, 10.55, 16.34, 12.31, 0.000, 0.000, 0.000, 15:59:55.390
30, 134.15, 6.48, 15.47, 15.83, 0.000, 0.000, 0.000, 15:59:55.390
31, -117.02, 8.81, 0.53, 7.42, 0.000, 0.000, 0.000, 15:59:55.390
32, -398.01, 9.38, 9.96, 9.09, 0.000, 0.000, 0.000, 15:59:55.391
33, 23.00, 0.84, 20.44, 16.84, 0.000, 0.000, 0.000, 15:59:55.413
34, 0.60, 9.51, 9.70, 9.14, 0.000, 0.000, 0.000, 15:59:55.413
35, -265.60, 12.54, 8.98, 6.62, 0.000, 0.000, 0.000, 15:59:55.413
36, -60.52, 4.94, 18.56, 20.65, 0.000, 0.000, 0.000, 15:59:55.413
37, 78.37, 6.06, 11.17, 16.24, 0.000, 0.000, 0.000, 15:59:55.414
38, -113.54, 10.28, 4.22, 9.64, 0.000, 0.000, 0.000, 15:59:55.414
39, -429.45, 8.43, 14.13, 16.37, 0.000, 0.000, 0.000, 15:59:55.435
40, 132.72, 1.62, 14.91, 15.80, 0.000, 0.000, 0.000, 15:59:55.435
41, -12.85, 15.40, 2.88, 5.31, 0.000, 0.000, 0.000, 15:59:55.436
42, -440.70, 9.45, 12.54, 12.38, 0.000, 0.000, 0.000, 15:59:55.436
43, -3.70, -0.77, 17.73, 18.21, 0.000, 0.000, 0.000, 15:59:55.458
44, 28.18, 11.99, 4.05, 8.18, 0.000, 0.000, 0.000, 15:59:55.458
45, -442.99, 14.41, 5.55, 10.07, 0.000, 0.000, 0.000, 15:59:55.458
46, -246.70, 0.23, 19.22, 16.16, 0.000, 0.000, 0.000, 15:59:55.458
47, 331.59, 9.42, 9.51, 11.31, 0.000, 0.000, 0.000, 15:59:55.480
48, -104.52, 19.08, 3.58, 6.87, 0.000, 0.000, 0.000, 15:59:55.480
49, -392.68, -1.84, 12.59, 16.00, 0.000, 0.000, 0.000, 15:59:55.481
50, 167.46, 3.47, 13.59, 15.79, 0.000, 0.000, 0.000, 15:59:55.481
51, -111.60, 13.02, 6.50, 7.97, 0.000, 0.000, 0.000, 15:59:55.503
52, -452.62, 11.17, 9.92, 16.57, 0.000, 0.000, 0.000, 15:59:55.503
53, 53.30, 2.93, 19.63, 19.18, 0.000, 0.000, 0.000, 15:59:55.503
54, 158.73, 13.38, 7.82, 7.69, 0.000, 0.000, 0.000, 15:59:55.503
55, -324.73, 10.65, 8.71, 5.60, 0.000, 0.000, 0.000, 15:59:55.504
56, -150.09, 3.68, 20.79, 18.85, 0.000, 0.000, 0.000, 15:59:55.504
57, 243.47, 11.09, 10.37, 9.51, 0.000, 0.000, 0.000, 15:59:55.525
58, -294.99, 10.57, 5.62, 8.15, 0.000, 0.000, 0.000, 15:59:55.526
59, -449.31, 10.92, 10.20, 14.86, 0.000, 0.000, 0.000, 15:59:55.526
60, 224.78, 8.64, 16.77, 16.44, 0.000, 0.000, 0.000, 15:59:55.526
61, 60.92, 13.99, 9.27, 7.52, 0.000, 0.000, 0.000, 15:59:55.548
62, -385.49, 8.18, 11.25, 7.02, 0.000, 0.000, 0.000, 15:59:55.548
63, -15.97, 2.51, 19.78, 17.49, 0.000, 0.000, 0.000, 15:59:55.548
64, 28.54, 8.08, 4.96, 11.92, 0.000, 0.000, 0.000, 15:59:55.549
65, -487.01, 13.16, 4.43, 8.19, 0.000, 0.000, 0.000, 15:59:55.570
66, -27.04, 5.84, 19.01, 16.32, 0.000, 0.000, 0.000, 15:59:55.570
67, 226.47, 2.57, 13.74, 13.81, 0.000, 0.000, 0.000, 15:59:55.571
68, -155.96, 10.70, 7.58, 8.01, 0.000, 0.000, 0.000, 15:59:55.571
69, -322.52, 1.42, 12.96, 12.83, 0.000, 0.000, 0.000, 15:59:55.593
70, 159.98, 2.79, 17.63, 16.91, 0.000, 0.000, 0.000, 15:59:55.593
71, -52.52, 14.37, 4.08, 2.38, 0.000, 0.000, 0.000, 15:59:55.593
72, -315.26, 11.56, 7.86, 8.23, 0.000, 0.000, 0.000, 15:59:55.593
73, -2.91, 5.33, 22.17, 20.51, 0.000, 0.000, 0.000, 15:59:55.594
74, 69.46, 9.40, 6.72, 9.51, 0.000, 0.000, 0.000, 15:59:55.594
75, -329.44, 13.64, 4.21, 5.85, 0.000, 0.000, 0.000, 15:59:55.615
76, -309.94, -1.04, 17.42, 17.36, 0.000, 0.000, 0.000, 15:59:55.615
77, 133.09, 8.63, 11.57, 14.48, 0.000, 0.000, 0.000, 15:59:55.616
78, -155.44, 15.34, 7.12, 7.57, 0.000, 0.000, 0.000, 15:59:55.616
79, -353.44, 1.13, 11.44, 13.34, 0.000, 0.000, 0.000, 15:59:55.638
80, 174.99, 4.25, 16.73, 21.85, 0.000, 0.000, 0.000, 15:59:55.638
81, 11.35, 11.10, 7.41, 7.63, 0.000, 0.000, 0.000, 15:59:55.638
82, -346.55, 7.88, 9.56, 11.49, 0.000, 0.000, 0.000, 15:59:55.638
83, -112.01, 0.16, 22.37, 20.72, 0.000, 0.000, 0.000, 15:59:55.661
84, 119.06, 16.80, 7.87, 6.26, 0.000, 0.000, 0.000, 15:59:55.661
85, -220.23, 7.80, 3.36, 8.28, 0.000, 0.000, 0.000, 15:59:55.661
86, -198.93, 3.32, 15.22, 15.56, 0.000, 0.000, 0.000, 15:59:55.662
87, 219.58, 6.53, 12.24, 8.61, 0.000, 0.000, 0.000, 15:59:55.683
88, -202.20, 12.54, 4.38, 7.06, 0.000, 0.000, 0.000, 15:59:55.683
89, -452.15, 5.67, 13.20, 15.21, 0.000, 0.000, 0.000, 15:59:55.683
90, 148.05, 4.73, 19.04, 16.30, 0.000, 0.000, 0.000, 15:59:55.683
91, 13.17, 16.92, 9.19, 6.29, 0.000, 0.000, 0.000, 15:59:55.684
92, -384.18, 12.58, 9.02, 7.32, 0.000, 0.000, 0.000, 15:59:55.684
93, 90.98, 4.70, 16.54, 19.78, 0.000, 0.000, 0.000, 15:59:55.705
94, 40.94, 6.77, 5.06, 5.79, 0.000, 0.000, 0.000, 15:59:55.705
95, -430.56, 11.31, 4.56, 7.77, 0.000, 0.000, 0.000, 15:59:55.706
96, -267.14, 4.56, 16.06, 17.24, 0.000, 0.000, 0.000, 15:59:55.706
97, 269.51, 7.71, 10.36, 11.49, 0.000, 0.000, 0.000, 15:59:55.728
98, -205.87, 13.31, 2.03, 6.80, 0.000, 0.000, 0.000, 15:59:55.728
99, -411.43, 6.25, 13.89, 12.97, 0.000, 0.000, 0.000, 15:59:55.728
100, 124.74, 1.55, 16.40, 18.59, 0.000, 0.000, 0.000, 15:59:55.728
101, -27.22, 13.73, 6.17, 10.02, 0.000, 0.000, 0.000, 15:59:55.750
102, -342.71, 15.66, 6.63, 5.81, 0.000, 0.000, 0.000, 15:59:55.750
103, 10.58, -2.84, 19.89, 22.60, 0.000, 0.000, 0.000, 15:59:55.751
104, 127.38, 11.68, 6.60, 9.35, 0.000, 0.000, 0.000, 15:59:55.751
105, -349.45, 10.07, 6.47, 5.05, 0.000, 0.000, 0.000, 15:59:55.773
106, -195.20, 4.74, 18.84, 14.75, 0.000, 0.000, 0.000, 15:59:55.773
107, 143.94, 10.71, 10.57, 9.88, 0.000, 0.000, 0.000, 15:59:55.773
108, -108.82, 15.66, 3.34, 2.89, 0.000, 0.000, 0.000, 15:59:55.773
109, -393.75, 2.49, 13.74, 13.21, 0.000, 0.000, 0.000, 15:59:55.774
110, 71.56, 3.25, 17.34, 16.69, 0.000, 0.000, 0.000, 15:59:55.774
111, -117.48, 16.68, 0.40, 4.31, 0.000, 0.000, 0.000, 15:59:55.795
112, -337.81, 8.22, 7.49, 9.31, 0.000, 0.000, 0.000, 15:59:55.796
113, 47.32, 1.53, 19.43, 20.62, 0.000, 0.000, 0.000, 15:59:55.796
114, 89.43, 11.49, 6.34, 8.79, 0.000, 0.000, 0.000, 15:59:55.796
115, -417.02, 9.49, 7.80, 11.49, 0.000, 0.000, 0.000, 15:59:55.818
116, -170.06, 0.40, 22.18, 18.15, 0.000, 0.000, 0.000, 15:59:55.819
117, 161.83, 11.27, 7.28, 12.65, 0.000, 0.000, 0.000, 15:59:55.819
118, -252.99, 11.23, 4.11, 10.56, 0.000, 0.000, 0.000, 15:59:55.819
119, -457.75, 3.84, 14.44, 14.73, 0.000, 0.000, 0.000, 15:59:55.840
120, 305.57, 7.76, 15.28, 17.83, 0.000, 0.000, 0.000, 15:59:55.840
121, 125.51, 11.35, 3.21, 8.34, 0.000, 0.000, 0.000, 15:59:55.840
122, -447.37, 12.82, 8.38, 12.11, 0.000, 0.000, 0.000, 15:59:55.841
123, -145.82, -2.02, 18.23, 18.62, 0.000, 0.000, 0.000, 15:59:55.863
124, 118.33, 15.08, 6.78, 7.52, 0.000, 0.000, 0.000, 15:59:55.863
125, -251.57, 12.04, 7.59, 6.18, 0.000, 0.000, 0.000, 15:59:55.863
126, -168.74, 3.41, 22.01, 15.97, 0.000, 0.000, 0.000, 15:59:55.863
127, 110.14, 7.85, 12.87, 11.89, 0.000, 0.000, 0.000, 15:59:55.864
128, -207.40, 13.68, 4.07, 7.94, 0.000, 0.000, 0.000, 15:59:55.864
129, -401.38, 8.26, 16.38, 14.89, 0.000, 0.000, 0.000, 15:59:55.885
130, 40.84, 4.41, 17.01, 17.12, 0.000, 0.000, 0.000, 15:59:55.886
131, -22.08, 13.56, 6.78, 2.29, 0.000, 0.000, 0.000, 15:59:55.886
132, -357.41, 12.44, 10.34, 14.54, 0.000, 0.000, 0.000, 15:59:55.886
133, 143.59, -0.16, 18.51, 20.93, 0.000, 0.000, 0.000, 15:59:55.907
134, 204.44, 13.57, 7.12, 8.96, 0.000, 0.000, 0.000, 15:59:55.908
135, -444.26, 13.56, 4.56, 5.64, 0.000, 0.000, 0.000, 15:59:55.908
136, -328.89, -1.00, 19.77, 18.82, 0.000, 0.000, 0.000, 15:59:55.908
137, 311.82, 6.34, 13.07, 10.76, 0.000, 0.000, 0.000, 15:59:55.930
138, -140.80, 19.28, 1.75, 7.59, 0.000, 0.000, 0.000, 15:59:55.930
139, -390.08, 2.47, 13.97, 14.26, 0.000, 0.000, 0.000, 15:59:55.931
140, 146.68, 4.04, 18.65, 15.63, 0.000, 0.000, 0.000, 15:59:55.931
141, -90.72, 13.66, 4.10, 4.58, 0.000, 0.000, 0.000, 15:59:55.953
142, -429.72, 11.27, 6.56, 9.56, 0.000, 0.000, 0.000, 15:59:55.953
143, 28.38, -1.68, 20.43, 18.73, 0.000, 0.000, 0.000, 15:59:55.954
144, 160.58, 10.74, 9.55, 11.17, 0.000, 0.000, 0.000, 15:59:55.954
145, -284.76, 12.81, 7.18, 1.69, 0.000, 0.000, 0.000, 15:59:55.955
146, -296.63, 3.88, 18.60, 15.99, 0.000, 0.000, 0.000, 15:59:55.955
147, 48.18, 8.21, 11.10, 11.67, 0.000, 0.000, 0.000, 15:59:55.976
148, -103.80, 14.62, -1.09, 8.70, 0.000, 0.000, 0.000, 15:59:55.976
149, -238.29, 7.23, 13.62, 16.82, 0.000, 0.000, 0.000, 15:59:55.976
150, 97.52, 3.27, 13.11, 14.65, 0.000, 0.000, 0.000, 15:59:55.976
151, -98.53, 13.59, 3.37, 7.09, 0.000, 0.000, 0.000, 15:59:55.999
152, -361.73, 10.03, 8.84, 5.00, 0.000, 0.000, 0.000, 15:59:55.999
153, 76.50, 0.97, 21.15, 17.87, 0.000, 0.000, 0.000, 15:59:55.999
154, 148.57, 9.50, 5.86, 13.25, 0.000, 0.000, 0.000, 15:59:55.999
155, -377.59, 11.73, 5.85, 13.02, 0.000, 0.000, 0.000, 15:59:56.022
156, -291.78, 5.27, 19.20, 19.12, 0.000, 0.000, 0.000, 15:59:56.022
157, 92.04, 1.94, 8.69, 11.83, 0.000, 0.000, 0.000, 15:59:56.022
158, -169.58, 15.03, 6.83, 10.10, 0.000, 0.000, 0.000, 15:59:56.022
159, -254.45, 7.62, 16.44, 14.98, 0.000, 0.000, 0.000, 15:59:56.043
160, 147.88, 4.43, 17.30, 15.71, 0.000, 0.000, 0.000, 15:59:56.043
161, -108.03, 10.69, 3.62, 8.99, 0.000, 0.000, 0.000, 15:59:56.044
162, -414.67, 12.62, 10.91, 8.38, 0.000, 0.000, 0.000, 15:59:56.044
163, -47.20, 2.88, 19.04, 15.60, 0.000, 0.000, 0.000, 15:59:56.044
164, 235.00, 10.49, 8.03, 8.45, 0.000, 0.000, 0.000, 15:59:56.044
165, -293.21, 18.25, 9.12, 11.46, 0.000, 0.000, 0.000, 15:59:56.066
166, -245.95, -0.99, 18.25, 19.81, 0.000, 0.000, 0.000, 15:59:56.066
167, 179.07, 9.22, 10.63, 10.33, 0.000, 0.000, 0.000, 15:59:56.067
168, -140.99, 16.54, 4.12, 5.94, 0.000, 0.000, 0.000, 15:59:56.067
169, -398.76, 8.67, 16.84, 16.76, 0.000, 0.000, 0.000, 15:59:56.088
170, 99.97, 0.02, 15.04, 13.84, 0.000, 0.000, 0.000, 15:59:56.088
171, 24.95, 15.31, 2.98, 3.47, 0.000, 0.000, 0.000, 15:59:56.088
172, -397.70, 7.67, 9.56, 12.49, 0.000, 0.000, 0.000, 15:59:56.088
173, -108.33, -0.31, 22.32, 20.45, 0.000, 0.000, 0.000, 15:59:56.111
174, 156.94, 17.28, 4.69, 9.79, 0.000, 0.000, 0.000, 15:59:56.111
175, -485.04, 9.63, 4.39, 7.19, 0.000, 0.000, 0.000, 15:59:56.111
176, -123.17, -1.10, 18.58, 18.91, 0.000, 0.000, 0.000, 15:59:56.112
177, 328.44, 5.63, 10.41, 8.92, 0.000, 0.000, 0.000, 15:59:56.133
178, -180.60, 15.71, 1.58, 5.80, 0.000, 0.000, 0.000, 15:59:56.133
179, -409.00, 5.13, 15.26, 15.23, 0.000, 0.000, 0.000, 15:59:56.133
180, 137.60, 0.55, 18.38, 14.17, 0.000, 0.000, 0.000, 15:59:56.134
181, 32.34, 13.51, 4.70, 7.72, 0.000, 0.000, 0.000, 15:59:56.134
182, -418.32, 8.09, 9.20, 11.26, 0.000, 0.000, 0.000, 15:59:56.134
183, -26.42, 1.96, 17.84, 18.01, 0.000, 0.000, 0.000, 15:59:56.155
184, 99.60, 7.04, 6.58, 7.59, 0.000, 0.000, 0.000, 15:59:56.155
185, -463.16, 13.33, 6.65, 7.87, 0.000, 0.000, 0.000, 15:59:56.155
186, -189.91, 0.62, 19.36, 20.34, 0.000, 0.000, 0.000, 15:59:56.156
187, 297.00, 8.44, 12.80, 11.39, 0.000, 0.000, 0.000, 15:59:56.178
188, -346.03, 11.52, 1.49, 5.93, 0.000, 0.000, 0.000, 15:59:56.178
189, -461.34, 6.25, 11.65, 12.03, 0.000, 0.000, 0.000, 15:59:56.178
190, 395.35, 5.53, 14.61, 14.87, 0.000, 0.000, 0.000, 15:59:56.178
191, 98.66, 14.98, 5.13, 5.35, 0.000, 0.000, 0.000, 15:59:56.200
192, -480.87, 18.67, 7.78, 13.51, 0.000, 0.000, 0.000, 15:59:56.200
193, -12.19, -7.02, 17.27, 15.29, 0.000, 0.000, 0.000, 15:59:56.201
194, 173.62, 9.01, 8.05, 6.40, 0.000, 0.000, 0.000, 15:59:56.201
195, -297.33, 14.50, 2.26, 7.00, 0.000, 0.000, 0.000, 15:59:56.222
196, -139.96, 3.71, 15.32, 22.61, 0.000, 0.000, 0.000, 15:59:56.223
197, 129.66, 5.59, 10.42, 12.10, 0.000, 0.000, 0.000, 15:59:56.223
198, -305.56, 12.95, 1.50, 9.58, 0.000, 0.000, 0.000, 15:59:56.223
199, -358.98, 9.24, 15.29, 14.29, 0.000, 0.000, 0.000, 15:59:56.224
200, 88.68, 6.75, 18.16, 11.57, 0.000, 0.000, 0.000, 15:59:56.224
0, -86.89, 17.88, 5.11, 4.41, 0.000, 0.000, 0.000, 15:59:56.245
1, -369.00, 7.87, 10.81, 10.38, 0.000, 0.000, 0.000, 15:59:56.246
2, -8.78, 3.39, 18.96, 19.89, 0.000, 0.000, 0.000, 15:59:56.246
3, 93.38, 9.40, 7.18, 10.67, 0.000, 0.000, 0.000, 15:59:56.268
4, -256.52, 13.37, 1.71, 8.49, 0.000, 0.000, 0.000, 15:59:56.268
5, -169.20, -1.59, 19.90, 18.31, 0.000, 0.000, 0.000, 15:59:56.268
6, 208.72, 8.97, 12.83, 12.71, 0.000, 0.000, 0.000, 15:59:56.268
7, -225.14, 16.29, 5.25, 8.74, 0.000, 0.000, 0.000, 15:59:56.269
8, -437.79, 5.59, 18.42, 17.06, 0.000, 0.000, 0.000, 15:59:56.269
9, 110.32, 5.47, 18.90, 17.46, 0.000, 0.000, 0.000, 15:59:56.290
10, 112.40, 8.76, 4.99, 3.72, 0.000, 0.000, 0.000, 15:59:56.290
11, -354.44, 7.46, 5.31, 11.80, 0.000, 0.000, 0.000, 15:59:56.290
12, -34.35, 2.33, 20.55, 17.52, 0.000, 0.000, 0.000, 15:59:56.291
13, 42.13, 14.52, 5.30, 11.05, 0.000, 0.000, 0.000, 15:59:56.313
14, -231.05, 12.23, 5.85, 11.10, 0.000, 0.000, 0.000, 15:59:56.313
15, -218.24, 0.65, 16.02, 14.83, 0.000, 0.000, 0.000, 15:59:56.313
16, 59.75, 12.11, 8.62, 8.46, 0.000, 0.000, 0.000, 15:59:56.313
17, -226.13, 15.30, 4.32, 10.08, 0.000, 0.000, 0.000, 15:59:56.335
18, -467.88, 9.56, 17.10, 8.61, 0.000, 0.000, 0.000, 15:59:56.335
19, 239.06, -5.58, 17.40, 16.19, 0.000, 0.000, 0.000, 15:59:56.336
20, 48.05, 16.18, 3.09, 7.57, 0.000, 0.000, 0.000, 15:59:56.336
21, -350.59, 8.02, 8.57, 12.20, 0.000, 0.000, 0.000, 15:59:56.358
22, -63.42, 6.82, 21.65, 18.71, 0.000, 0.000, 0.000, 15:59:56.358
23, 145.96, 10.50, 3.33, 7.10, 0.000, 0.000, 0.000, 15:59:56.358
24, -251.74, 15.94, 8.75, 9.30, 0.000, 0.000, 0.000, 15:59:56.358
25, -305.19, 3.09, 22.56, 17.26, 0.000, 0.000, 0.000, 15:59:56.359
26, 289.67, 9.94, 10.62, 17.44, 0.000, 0.000, 0.000, 15:59:56.359
27, -144.79, 14.82, 6.50, 4.08, 0.000, 0.000, 0.000, 15:59:56.380
28, -390.68, 1.25, 14.06, 14.59, 0.000, 0.000, 0.000, 15:59:56.380
29, 85.54, 3.84, 14.46, 12.30, 0.000, 0.000, 0.000, 15:59:56.381
30, -169.22, 13.20, 3.72, 4.14, 0.000, 0.000, 0.000, 15:59:56.381
31, -477.62, 9.78, 8.12, 9.88, 0.000, 0.000, 0.000, 15:59:56.403
32, 153.31, -1.07, 16.89, 18.45, 0.000, 0.000, 0.000, 15:59:56.403
33, -8.57, 11.55, 7.67, 10.00, 0.000, 0.000, 0.000, 15:59:56.403
34, -262.07, 10.39, 4.03, 5.07, 0.000, 0.000, 0.000, 15:59:56.403
35, -90.40, 4.94, 19.98, 20.14, 0.000, 0.000, 0.000, 15:59:56.425
36, 169.24, 17.22, 10.44, 11.78, 0.000, 0.000, 0.000, 15:59:56.426
37, -6.23, 5.73, 7.87, 7.01, 0.000, 0.000, 0.000, 15:59:56.426
38, -349.42, 5.85, 11.38, 11.47, 0.000, 0.000, 0.000, 15:59:56.426
39, 99.55, 7.20, 14.26, 13.21, 0.000, 0.000, 0.000, 15:59:56.448
40, 2.12, 15.23, 4.58, 5.37, 0.000, 0.000, 0.000, 15:59:56.448
41, -462.48, 8.69, 10.68, 11.14, 0.000, 0.000, 0.000, 15:59:56.448
42, -33.90, 2.75, 21.90, 14.02, 0.000, 0.000, 0.000, 15:59:56.448
43, 111.89, 11.95, 3.61, 9.75, 0.000, 0.000, 0.000, 15:59:56.449
44, -408.16, 17.06, 8.10, 10.51, 0.000, 0.000, 0.000, 15:59:56.449
45, -297.02, 3.44, 17.37, 18.93, 0.000, 0.000, 0.000, 15:59:56.470
46, 143.75, 3.15, 6.75, 8.56, 0.000, 0.000, 0.000, 15:59:56.470
47, -158.83, 12.02, 9.14, 11.45, 0.000, 0.000, 0.000, 15:59:56.471
48, -351.64, 3.63, 14.10, 14.66, 0.000, 0.000, 0.000, 15:59:56.471
49, -102.06, 5.34, 18.46, 16.10, 0.000, 0.000, 0.000, 15:59:56.493
50, 97.46, 12.17, 5.58, 9.20, 0.000, 0.000, 0.000, 15:59:56.493
51, -277.06, 11.03, 10.61, 12.05, 0.000, 0.000, 0.000, 15:59:56.493
52, -15.25, -2.06, 20.18, 15.92, 0.000, 0.000, 0.000, 15:59:56.494
53, 200.94, 11.35, 5.08, 6.54, 0.000, 0.000, 0.000, 15:59:56.515
54, -324.87, 14.20, 5.08, 7.31, 0.000, 0.000, 0.000, 15:59:56.516
55, -214.19, -3.95, 19.21, 18.06, 0.000, 0.000, 0.000, 15:59:56.516
56, 165.96, 10.12, 8.06, 11.16, 0.000, 0.000, 0.000, 15:59:56.516
57, -173.03, 14.07, 3.50, 6.89, 0.000, 0.000, 0.000, 15:59:56.538
58, -336.38, 2.07, 14.29, 16.10, 0.000, 0.000, 0.000, 15:59:56.538
59, 126.15, 1.86, 15.63, 18.56, 0.000, 0.000, 0.000, 15:59:56.538
60, -48.27, 17.10, 3.73, 3.79, 0.000, 0.000, 0.000, 15:59:56.538
61, -233.12, 9.69, 5.29, 12.27, 0.000, 0.000, 0.000, 15:59:56.539
62, -81.58, -1.09, 23.19, 18.86, 0.000, 0.000, 0.000, 15:59:56.539
63, -6.48, 16.85, 9.27, 9.15, 0.000, 0.000, 0.000, 15:59:56.560
64, -425.16, 10.60, 6.76, 8.45, 0.000, 0.000, 0.000, 15:59:56.560
65, -146.84, 4.06, 19.67, 16.03, 0.000, 0.000, 0.000, 15:59:56.561
66, 217.35, 9.80, 9.11, 11.68, 0.000, 0.000, 0.000, 15:59:56.561
67, -60.69, 14.30, 3.70, 7.22, 0.000, 0.000, 0.000, 15:59:56.583
68, -249.31, 4.44, 13.48, 15.28, 0.000, 0.000, 0.000, 15:59:56.583
69, 64.75, 3.92, 16.18, 15.48, 0.000, 0.000, 0.000, 15:59:56.583
70, -80.02, 12.71, 5.83, 2.64, 0.000, 0.000, 0.000, 15:59:56.583
71, -364.93, 9.93, 12.33, 12.29, 0.000, 0.000, 0.000, 15:59:56.605
72, -14.73, 5.80, 19.24, 15.03, 0.000, 0.000, 0.000, 15:59:56.605
73, 56.13, 9.86, 9.90, 14.16, 0.000, 0.000, 0.000, 15:59:56.605
74, -363.14, 13.23, 6.71, 6.31, 0.000, 0.000, 0.000, 15:59:56.606
75, -94.95, 0.24, 19.28, 15.09, 0.000, 0.000, 0.000, 15:59:56.628
76, 126.76, 7.86, 9.67, 12.75, 0.000, 0.000, 0.000, 15:59:56.628
77, -315.61, 14.71, 5.34, 6.06, 0.000, 0.000, 0.000, 15:59:56.628
78, -189.24, 5.24, 14.09, 19.87, 0.000, 0.000, 0.000, 15:59:56.628
79, 190.53, 1.37, 18.82, 20.80, 0.000, 0.000, 0.000, 15:59:56.629
80, -54.32, 12.18, 5.03, 7.84, 0.000, 0.000, 0.000, 15:59:56.629
81, -294.50, 9.60, 10.09, 11.67, 0.000, 0.000, 0.000, 15:59:56.650
82, -59.79, -6.42, 20.88, 19.86, 0.000, 0.000, 0.000, 15:59:56.651
83, 160.58, 14.69, 3.56, 3.18, 0.000, 0.000, 0.000, 15:59:56.651
84, -266.40, 14.58, 5.76, 7.21, 0.000, 0.000, 0.000, 15:59:56.651
85, -288.65, 0.10, 18.53, 16.45, 0.000, 0.000, 0.000, 15:59:56.673
86, 213.51, 7.35, 6.27, 12.13, 0.000, 0.000, 0.000, 15:59:56.673
87, -196.26, 18.42, 8.57, 9.14, 0.000, 0.000, 0.000, 15:59:56.673
88, -368.25, 6.50, 13.42, 14.92, 0.000, 0.000, 0.000, 15:59:56.673
89, 48.43, 4.31, 13.36, 16.74, 0.000, 0.000, 0.000, 15:59:56.695
90, -61.18, 20.31, 2.45, 3.81, 0.000, 0.000, 0.000, 15:59:56.695
91, -330.81, 6.57, 8.85, 9.72, 0.000, 0.000, 0.000, 15:59:56.696
92, -34.18, 0.95, 21.68, 16.31, 0.000, 0.000, 0.000, 15:59:56.696
93, 114.28, 10.72, 7.13, 8.33, 0.000, 0.000, 0.000, 15:59:56.718
94, -169.33, 11.97, 8.20, 6.60, 0.000, 0.000, 0.000, 15:59:56.718
95, -189.86, -1.57, 18.45, 14.77, 0.000, 0.000, 0.000, 15:59:56.719
96, 105.98, 9.23, 10.08, 7.19, 0.000, 0.000, 0.000, 15:59:56.719
97, -194.55, 15.04, 3.36, 4.06, 0.000, 0.000, 0.000, 15:59:56.719
98, -365.92, 5.94, 13.09, 16.52, 0.000, 0.000, 0.000, 15:59:56.719
99, 118.59, 8.28, 11.24, 11.73, 0.000, 0.000, 0.000, 15:59:56.740
100, -22.42, 13.05, 1.42, 7.52, 0.000, 0.000, 0.000, 15:59:56.740
101, -383.86, 11.42, 8.55, 12.03, 0.000, 0.000, 0.000, 15:59:56.740
102, -83.14, -2.49, 18.83, 20.15, 0.000, 0.000, 0.000, 15:59:56.741
103, 121.84, 13.81, 2.53, 10.94, 0.000, 0.000, 0.000, 15:59:56.763
104, -261.78, 12.07, 7.26, 9.80, 0.000, 0.000, 0.000, 15:59:56.763
105, -227.00, 0.91, 20.66, 18.43, 0.000, 0.000, 0.000, 15:59:56.763
106, 20.97, 9.28, 11.67, 15.29, 0.000, 0.000, 0.000, 15:59:56.763
107, -260.16, 17.60, 3.22, 8.50, 0.000, 0.000, 0.000, 15:59:56.785
108, -227.51, 15.06, 15.97, 13.36, 0.000, 0.000, 0.000, 15:59:56.786
109, 225.52, -3.52, 13.31, 15.03, 0.000, 0.000, 0.000, 15:59:56.786
110, 7.73, 13.90, 7.98, 7.21, 0.000, 0.000, 0.000, 15:59:56.786
111, -395.84, 12.31, 10.78, 11.11, 0.000, 0.000, 0.000, 15:59:56.808
112, -50.54, -1.01, 19.61, 20.31, 0.000, 0.000, 0.000, 15:59:56.808
113, 74.25, 8.07, 3.73, 9.92, 0.000, 0.000, 0.000, 15:59:56.809
114, -312.41, 11.08, 7.18, 4.21, 0.000, 0.000, 0.000, 15:59:56.809
115, -286.34, 2.89, 18.07, 18.34, 0.000, 0.000, 0.000, 15:59:56.809
116, 59.25, 6.94, 10.32, 7.43, 0.000, 0.000, 0.000, 15:59:56.810
117, -86.38, 14.74, 8.85, 5.02, 0.000, 0.000, 0.000, 15:59:56.830
118, -293.96, 5.21, 17.55, 15.59, 0.000, 0.000, 0.000, 15:59:56.831
119, 60.06, 2.91, 14.64, 18.01, 0.000, 0.000, 0.000, 15:59:56.831
120, -113.59, 13.61, 4.71, 6.85, 0.000, 0.000, 0.000, 15:59:56.831
121, -339.23, 12.40, 9.76, 10.85, 0.000, 0.000, 0.000, 15:59:56.853
122, 78.18, -1.89, 20.96, 20.29, 0.000, 0.000, 0.000, 15:59:56.853
123, 130.10, 12.75, 4.03, 7.00, 0.000, 0.000, 0.000, 15:59:56.853
124, -302.65, 12.56, 4.76, 8.21, 0.000, 0.000, 0.000, 15:59:56.853
125, -183.23, 1.25, 20.42, 16.84, 0.000, 0.000, 0.000, 15:59:56.875
126, 183.71, 14.88, 9.93, 9.80, 0.000, 0.000, 0.000, 15:59:56.876
127, -345.28, 10.49, 2.90, 9.84, 0.000, 0.000, 0.000, 15:59:56.876
128, -286.91, 3.54, 17.00, 14.62, 0.000, 0.000, 0.000, 15:59:56.876
129, 192.90, 1.51, 17.54, 16.99, 0.000, 0.000, 0.000, 15:59:56.898
130, 12.62, 12.18, 1.47, 9.35, 0.000, 0.000, 0.000, 15:59:56.898
131, -474.61, 10.76, 6.60, 13.25, 0.000, 0.000, 0.000, 15:59:56.898
132, -133.42, 2.80, 20.38, 17.92, 0.000, 0.000, 0.000, 15:59:56.898
133, 245.01, 13.08, 6.23, 5.73, 0.000, 0.000, 0.000, 15:59:56.899
134, -321.37, 12.67, 8.86, 9.04, 0.000, 0.000, 0.000, 15:59:56.899
135, -255.05, 5.63, 22.91, 19.64, 0.000, 0.000, 0.000, 15:59:56.920
136, 187.88, 6.28, 12.90, 9.01, 0.000, 0.000, 0.000, 15:59:56.920
137, -158.04, 12.45, 3.13, 7.20, 0.000, 0.000, 0.000, 15:59:56.921
138, -351.31, 3.70, 14.40, 15.47, 0.000, 0.000, 0.000, 15:59:56.921
139, 60.56, 7.49, 15.41, 17.51, 0.000, 0.000, 0.000, 15:59:56.943
140, -26.57, 12.73, 4.93, 7.92, 0.000, 0.000, 0.000, 15:59:56.943
141, -361.06, 12.45, 9.79, 10.91, 0.000, 0.000, 0.000, 15:59:56.943
142, -46.68, 1.02, 20.15, 19.52, 0.000, 0.000, 0.000, 15:59:56.943
143, 172.43, 11.34, 5.21, 9.63, 0.000, 0.000, 0.000, 15:59:56.965
144, -252.41, 17.17, 5.35, 9.44, 0.000, 0.000, 0.000, 15:59:56.965
145, -197.93, -3.32, 18.45, 19.60, 0.000, 0.000, 0.000, 15:59:56.966
146, 220.84, 6.71, 11.07, 8.27, 0.000, 0.000, 0.000, 15:59:56.966
147, -269.95, 14.87, 3.09, 5.10, 0.000, 0.000, 0.000, 15:59:56.988
148, -362.73, 3.40, 13.78, 14.47, 0.000, 0.000, 0.000, 15:59:56.988
149, 112.71, 2.67, 14.71, 14.19, 0.000, 0.000, 0.000, 15:59:56.988
150, -126.91, 15.32, 6.05, 3.74, 0.000, 0.000, 0.000, 15:59:56.988
151, -593.21, 7.61, 10.10, 10.07, 0.000, 0.000, 0.000, 15:59:56.989
152, 137.17, -1.37, 17.83, 18.85, 0.000, 0.000, 0.000, 15:59:56.989
153, 249.05, 13.93, 5.33, 4.27, 0.000, 0.000, 0.000, 15:59:57.010
154, -309.52, 8.69, 6.02, 6.15, 0.000, 0.000, 0.000, 15:59:57.010
155, -179.24, 2.09, 15.95, 18.86, 0.000, 0.000, 0.000, 15:59:57.011
156, 150.94, 7.97, 11.09, 11.88, 0.000, 0.000, 0.000, 15:59:57.011
157, -272.49, 16.89, 7.34, 6.73, 0.000, 0.000, 0.000, 15:59:57.033
158, -320.49, 4.81, 14.59, 16.10, 0.000, 0.000, 0.000, 15:59:57.033
159, 165.32, 5.59, 14.56, 12.63, 0.000, 0.000, 0.000, 15:59:57.033
160, 24.41, 10.86, 5.28, 7.33, 0.000, 0.000, 0.000, 15:59:57.033
161, -366.23, 13.29, 16.90, 11.40, 0.000, 0.000, 0.000, 15:59:57.055
162, -5.75, 6.91, 15.69, 19.15, 0.000, 0.000, 0.000, 15:59:57.055
163, 36.54, 8.64, 3.16, 10.07, 0.000, 0.000, 0.000, 15:59:57.056
164, -382.75, 15.99, 5.81, 5.82, 0.000, 0.000, 0.000, 15:59:57.056
165, -273.83, 1.30, 16.12, 20.33, 0.000, 0.000, 0.000, 15:59:57.078
166, 233.95, 7.47, 11.82, 9.84, 0.000, 0.000, 0.000, 15:59:57.078
167, -166.55, 10.01, 4.44, 6.28, 0.000, 0.000, 0.000, 15:59:57.078
168, -401.76, 6.16, 14.45, 16.33, 0.000, 0.000, 0.000, 15:59:57.078
169, 162.04, 3.26, 15.12, 13.87, 0.000, 0.000, 0.000, 15:59:57.079
170, 38.95, 14.31, 5.59, 3.48, 0.000, 0.000, 0.000, 15:59:57.079
171, -345.45, 13.23, 9.05, 8.07, 0.000, 0.000, 0.000, 15:59:57.100
172, -23.20, -1.77, 18.33, 16.57, 0.000, 0.000, 0.000, 15:59:57.100
173, -20.41, 8.30, 8.24, 9.11, 0.000, 0.000, 0.000, 15:59:57.101
174, -397.50, 10.68, 6.93, 8.26, 0.000, 0.000, 0.000, 15:59:57.101
175, -81.87, 2.68, 17.07, 18.65, 0.000, 0.000, 0.000, 15:59:57.123
176, 218.74, 8.79, 11.20, 15.06, 0.000, 0.000, 0.000, 15:59:57.123
177, -200.68, 15.61, 4.93, 10.09, 0.000, 0.000, 0.000, 15:59:57.124
178, -311.97, 7.78, 17.02, 13.97, 0.000, 0.000, 0.000, 15:59:57.124
179, 135.71, 3.35, 12.40, 15.79, 0.000, 0.000, 0.000, 15:59:57.146
180, -120.58, 19.12, 1.46, 5.71, 0.000, 0.000, 0.000, 15:59:57.146
181, -517.53, 7.55, 7.93, 10.41, 0.000, 0.000, 0.000, 15:59:57.146
182, 47.39, -0.20, 18.45, 18.12, 0.000, 0.000, 0.000, 15:59:57.146
183, 227.72, 16.92, 6.43, 7.18, 0.000, 0.000, 0.000, 15:59:57.167
184, -295.50, 18.59, 8.20, 10.07, 0.000, 0.000, 0.000, 15:59:57.168
185, -170.98, -0.94, 21.33, 18.85, 0.000, 0.000, 0.000, 15:59:57.168
186, 132.80, 9.50, 10.77, 11.92, 0.000, 0.000, 0.000, 15:59:57.168
187, -306.86, 12.11, 6.24, 1.77, 0.000, 0.000, 0.000, 15:59:57.169
188, -308.98, 5.04, 16.91, 14.69, 0.000, 0.000, 0.000, 15:59:57.169
189, 187.55, 6.21, 16.54, 11.15, 0.000, 0.000, 0.000, 15:59:57.190
190, -90.22, 10.56, 5.15, 1.87, 0.000, 0.000, 0.000, 15:59:57.191
191, -470.21, 8.40, 13.13, 14.33, 0.000, 0.000, 0.000, 15:59:57.191
192, 108.08, 1.65, 19.76, 18.07, 0.000, 0.000, 0.000, 15:59:57.192
193, 110.52, 11.83, 5.26, 13.09, 0.000, 0.000, 0.000, 15:59:57.213
194, -266.13, 8.07, 6.89, 8.34, 0.000, 0.000, 0.000, 15:59:57.213
195, -135.53, 1.14, 18.76, 20.80, 0.000, 0.000, 0.000, 15:59:57.213
196, 96.39, 4.40, 6.92, 9.35, 0.000, 0.000, 0.000, 15:59:57.213
197, -214.19, 16.22, -0.65, 4.16, 0.000, 0.000, 0.000, 15:59:57.235
198, -439.00, 10.28, 12.62, 13.49, 0.000, 0.000, 0.000, 15:59:57.235
199, 175.01, -5.62, 15.23, 15.79, 0.000, 0.000, 0.000, 15:59:57.236
200, 19.19, 16.65, 6.24, 7.60, 0.000, 0.000, 0.000, 15:59:57.236
0, -406.55, 12.02, 12.08, 9.09, 0.000, 0.000, 0.000, 15:59:57.236
1, -55.86, 0.21, 19.13, 18.30, 0.000, 0.000, 0.000, 15:59:57.258
2, 136.40, 14.11, 5.80, 7.78, 0.000, 0.000, 0.000, 15:59:57.258
3, -360.61, 12.04, 4.56, 9.57, 0.000, 0.000, 0.000, 15:59:57.258
4, -149.84, 2.68, 19.71, 18.26, 0.000, 0.000, 0.000, 15:59:57.258
5, 180.86, 9.42, 7.85, 5.16, 0.000, 0.000, 0.000, 15:59:57.280
6, -280.84, 17.47, 3.50, 6.68, 0.000, 0.000, 0.000, 15:59:57.280
7, -415.88, 0.68, 11.97, 13.38, 0.000, 0.000, 0.000, 15:59:57.281
8, 225.92, 3.88, 17.42, 18.55, 0.000, 0.000, 0.000, 15:59:57.281
9, 90.82, 16.11, 4.97, 5.46, 0.000, 0.000, 0.000, 15:59:57.309
10, -377.11, 7.11, 10.06, 11.45, 0.000, 0.000, 0.000, 15:59:57.310
11, -30.96, 2.36, 19.64, 18.84, 0.000, 0.000, 0.000, 15:59:57.310
12, 55.77, 11.21, 3.02, 8.14, 0.000, 0.000, 0.000, 15:59:57.310
13, -336.49, 13.27, 7.99, 9.07, 0.000, 0.000, 0.000, 15:59:57.310
14, -221.61, 1.79, 19.99, 22.41, 0.000, 0.000, 0.000, 15:59:57.311
15, 160.07, 10.32, 9.98, 7.76, 0.000, 0.000, 0.000, 15:59:57.325
16, -207.84, 14.70, 1.57, 6.00, 0.000, 0.000, 0.000, 15:59:57.326
17, -275.14, 8.58, 12.90, 18.36, 0.000, 0.000, 0.000, 15:59:57.326
18, 205.77, 3.58, 16.78, 16.88, 0.000, 0.000, 0.000, 15:59:57.326
19, -70.39, 11.48, 3.65, 6.72, 0.000, 0.000, 0.000, 15:59:57.349
20, -426.77, 14.01, 10.34, 9.85, 0.000, 0.000, 0.000, 15:59:57.350
21, 24.34, 0.04, 20.40, 20.19, 0.000, 0.000, 0.000, 15:59:57.350
22, 113.12, 11.87, 7.48, 10.81, 0.000, 0.000, 0.000, 15:59:57.350
23, -309.36, 12.47, 7.79, 4.10, 0.000, 0.000, 0.000, 15:59:57.370
24, -260.41, 6.25, 21.51, 17.48, 0.000, 0.000, 0.000, 15:59:57.370
25, 147.32, 1.57, 7.82, 12.06, 0.000, 0.000, 0.000, 15:59:57.371
26, -264.10, 14.99, 6.00, 6.98, 0.000, 0.000, 0.000, 15:59:57.371
27, -413.69, 2.48, 13.70, 11.69, 0.000, 0.000, 0.000, 15:59:57.393
28, 335.88, 4.62, 14.16, 14.47, 0.000, 0.000, 0.000, 15:59:57.393
29, -22.97, 9.64, 5.81, 8.89, 0.000, 0.000, 0.000, 15:59:57.393
30, -476.05, 10.10, 11.36, 9.37, 0.000, 0.000, 0.000, 15:59:57.393
31, 141.91, 2.16, 21.30, 19.61, 0.000, 0.000, 0.000, 15:59:57.394
32, 93.42, 13.07, 6.44, 9.20, 0.000, 0.000, 0.000, 15:59:57.394
33, -436.60, 16.21, 3.96, 7.94, 0.000, 0.000, 0.000, 15:59:57.415
34, -276.99, -1.79, 19.45, 20.24, 0.000, 0.000, 0.000, 15:59:57.415
35, 310.57, 7.54, 9.29, 14.61, 0.000, 0.000, 0.000, 15:59:57.416
36, -100.45, 14.34, 2.14, 4.61, 0.000, 0.000, 0.000, 15:59:57.416
37, -378.25, 6.98, 16.83, 12.97, 0.000, 0.000, 0.000, 15:59:57.438
38, 47.36, 1.34, 18.78, 15.76, 0.000, 0.000, 0.000, 15:59:57.438
39, -88.00, 16.18, 1.40, 10.18, 0.000, 0.000, 0.000, 15:59:57.438
40, -374.89, 9.43, 7.54, 11.53, 0.000, 0.000, 0.000, 15:59:57.438
41, -18.21, -0.25, 19.58, 20.31, 0.000, 0.000, 0.000, 15:59:57.460
42, 19.80, 17.72, 3.63, 6.13, 0.000, 0.000, 0.000, 15:59:57.460
43, -305.06, 6.33, 8.86, 7.71, 0.000, 0.000, 0.000, 15:59:57.461
44, -111.84, -0.54, 20.08, 15.93, 0.000, 0.000, 0.000, 15:59:57.461
45, 268.07, 6.87, 8.14, 8.75, 0.000, 0.000, 0.000, 15:59:57.482
46, -224.78, 14.86, 8.47, 9.79, 0.000, 0.000, 0.000, 15:59:57.483
47, -413.95, 1.87, 15.23, 14.22, 0.000, 0.000, 0.000, 15:59:57.483
48, 211.13, 7.78, 17.38, 14.64, 0.000, 0.000, 0.000, 15:59:57.483
49, -47.76, 10.20, 4.79, 9.67, 0.000, 0.000, 0.000, 15:59:57.484
50, -366.20, 7.37, 9.53, 13.65, 0.000, 0.000, 0.000, 15:59:57.484
51, 87.80, 5.29, 16.67, 20.59, 0.000, 0.000, 0.000, 15:59:57.506
52, 126.54, 11.37, 7.49, 8.62, 0.000, 0.000, 0.000, 15:59:57.506
53, -324.80, 11.20, 4.81, 2.41, 0.000, 0.000, 0.000, 15:59:57.506
54, -201.90, 1.72, 19.33, 21.26, 0.000, 0.000, 0.000, 15:59:57.506
55, 87.61, 7.95, 9.94, 10.13, 0.000, 0.000, 0.000, 15:59:57.527
56, -271.79, 11.55, 5.51, 4.24, 0.000, 0.000, 0.000, 15:59:57.528
57, -245.47, 4.73, 16.98, 12.09, 0.000, 0.000, 0.000, 15:59:57.528
58, 186.34, 2.29, 16.07, 16.87, 0.000, 0.000, 0.000, 15:59:57.528
59, -92.92, 17.53, 2.88, 7.23, 0.000, 0.000, 0.000, 15:59:57.550
60, -462.64, 15.66, 9.54, 10.27, 0.000, 0.000, 0.000, 15:59:57.550
61, -16.09, 0.48, 20.64, 18.27, 0.000, 0.000, 0.000, 15:59:57.551
62, 96.58, 13.58, 3.79, 8.41, 0.000, 0.000, 0.000, 15:59:57.551
63, -459.10, 13.36, 4.97, 5.70, 0.000, 0.000, 0.000, 15:59:57.573
64, -210.55, 3.90, 19.60, 17.86, 0.000, 0.000, 0.000, 15:59:57.573
65, 284.40, 6.28, 8.24, 8.96, 0.000, 0.000, 0.000, 15:59:57.574
66, -242.53, 13.98, 5.09, 5.86, 0.000, 0.000, 0.000, 15:59:57.574
67, -333.51, 8.49, 16.19, 16.49, 0.000, 0.000, 0.000, 15:59:57.574
68, 174.00, 2.91, 16.34, 16.61, 0.000, 0.000, 0.000, 15:59:57.574
69, -3.91, 13.90, 2.06, 3.16, 0.000, 0.000, 0.000, 15:59:57.595
70, -414.31, 6.09, 8.57, 8.72, 0.000, 0.000, 0.000, 15:59:57.595
71, 76.10, 1.20, 19.48, 16.55, 0.000, 0.000, 0.000, 15:59:57.596
72, 62.73, 19.08, 7.68, 10.13, 0.000, 0.000, 0.000, 15:59:57.596
73, -372.49, 14.62, 8.56, 8.95, 0.000, 0.000, 0.000, 15:59:57.618
74, -88.54, -0.74, 21.50, 18.86, 0.000, 0.000, 0.000, 15:59:57.618
75, 179.61, 8.59, 12.57, 10.58, 0.000, 0.000, 0.000, 15:59:57.618
76, -222.56, 14.63, 5.15, 9.80, 0.000, 0.000, 0.000, 15:59:57.618
77, -361.40, 4.60, 11.66, 16.01, 0.000, 0.000, 0.000, 15:59:57.640
78, 107.56, 10.19, 14.28, 15.42, 0.000, 0.000, 0.000, 15:59:57.640
79, -106.49, 9.48, 6.78, 3.97, 0.000, 0.000, 0.000, 15:59:57.641
80, -323.87, 7.83, 12.31, 9.49, 0.000, 0.000, 0.000, 15:59:57.641
81, 47.03, 0.42, 24.13, 21.01, 0.000, 0.000, 0.000, 15:59:57.663
82, 104.79, 12.26, 8.14, 8.07, 0.000, 0.000, 0.000, 15:59:57.663
83, -231.30, 12.24, 8.36, 9.10, 0.000, 0.000, 0.000, 15:59:57.663
84, -268.37, 4.67, 19.66, 16.39, 0.000, 0.000, 0.000, 15:59:57.664
85, 59.23, 8.18, 9.92, 15.21, 0.000, 0.000, 0.000, 15:59:57.664
86, -278.66, 14.16, 5.83, 7.49, 0.000, 0.000, 0.000, 15:59:57.664
87, -287.81, 10.38, 15.71, 13.68, 0.000, 0.000, 0.000, 15:59:57.685
88, 291.62, 4.69, 12.38, 14.92, 0.000, 0.000, 0.000, 15:59:57.685
89, -16.62, 14.13, 1.26, 9.92, 0.000, 0.000, 0.000, 15:59:57.685
90, -308.49, 9.23, 6.69, 8.92, 0.000, 0.000, 0.000, 15:59:57.686
91, 30.23, 0.82, 17.14, 21.61, 0.000, 0.000, 0.000, 15:59:57.708
92, 31.43, 8.81, 10.25, 8.24, 0.000, 0.000, 0.000, 15:59:57.708
93, -276.90, 13.60, 5.57, 9.91, 0.000, 0.000, 0.000, 15:59:57.708
94, -225.14, -1.65, 19.31, 19.11, 0.000, 0.000, 0.000, 15:59:57.708
95, 71.40, 6.03, 10.40, 6.88, 0.000, 0.000, 0.000, 15:59:57.730
96, -221.15, 15.69, 3.57, 4.70, 0.000, 0.000, 0.000, 15:59:57.730
97, -340.01, -1.61, 13.85, 16.32, 0.000, 0.000, 0.000, 15:59:57.731
98, 230.30, 3.49, 19.61, 17.37, 0.000, 0.000, 0.000, 15:59:57.731
99, 18.28, 14.58, 2.07, 7.93, 0.000, 0.000, 0.000, 15:59:57.753
100, -362.95, 10.59, 5.47, 13.20, 0.000, 0.000, 0.000, 15:59:57.753
101, -47.93, 0.04, 16.28, 18.81, 0.000, 0.000, 0.000, 15:59:57.753
102, -2.61, 15.96, 2.85, 5.28, 0.000, 0.000, 0.000, 15:59:57.753
103, -335.31, 13.07, 2.95, 6.16, 0.000, 0.000, 0.000, 15:59:57.754
104, -95.53, 7.00, 25.07, 15.85, 0.000, 0.000, 0.000, 15:59:57.754
105, 215.55, 12.98, 9.97, 9.31, 0.000, 0.000, 0.000, 15:59:57.775
106, -99.10, 8.07, 4.68, 11.48, 0.000, 0.000, 0.000, 15:59:57.775
107, -361.98, 1.09, 15.83, 13.44, 0.000, 0.000, 0.000, 15:59:57.776
108, 69.26, 4.06, 14.22, 12.61, 0.000, 0.000, 0.000, 15:59:57.776
109, -49.75, 11.95, 5.63, 7.38, 0.000, 0.000, 0.000, 15:59:57.798
110, -354.61, 6.11, 9.70, 13.45, 0.000, 0.000, 0.000, 15:59:57.798
111, 30.09, 0.53, 18.06, 16.91, 0.000, 0.000, 0.000, 15:59:57.798
112, 62.02, 14.04, 2.07, 9.37, 0.000, 0.000, 0.000, 15:59:57.798
113, -293.80, 12.92, 6.33, 6.24, 0.000, 0.000, 0.000, 15:59:57.820
114, -175.28, 7.02, 18.75, 19.35, 0.000, 0.000, 0.000, 15:59:57.820
115, 73.39, 7.31, 11.02, 13.53, 0.000, 0.000, 0.000, 15:59:57.821
116, -317.50, 12.98, 3.41, 5.91, 0.000, 0.000, 0.000, 15:59:57.821
117, -214.20, 6.02, 16.57, 16.21, 0.000, 0.000, 0.000, 15:59:57.843
118, 198.77, 2.74, 19.40, 16.08, 0.000, 0.000, 0.000, 15:59:57.843
119, -95.06, 10.39, 4.34, 7.75, 0.000, 0.000, 0.000, 15:59:57.844
120, -323.51, 9.99, 10.11, 11.93, 0.000, 0.000, 0.000, 15:59:57.844
121, -27.67, 2.62, 18.93, 15.87, 0.000, 0.000, 0.000, 15:59:57.844
122, 34.66, 15.31, 5.71, 5.90, 0.000, 0.000, 0.000, 15:59:57.844
123, -351.98, 9.28, 7.06, 6.05, 0.000, 0.000, 0.000, 15:59:57.865
124, -153.22, -3.04, 17.94, 17.78, 0.000, 0.000, 0.000, 15:59:57.865
125, 157.09, 10.29, 10.62, 8.88, 0.000, 0.000, 0.000, 15:59:57.866
126, -276.69, 11.50, 2.00, 7.22, 0.000, 0.000, 0.000, 15:59:57.866
127, -389.27, 3.98, 13.68, 13.58, 0.000, 0.000, 0.000, 15:59:57.888
128, 176.41, 2.52, 15.60, 16.58, 0.000, 0.000, 0.000, 15:59:57.888
129, -26.28, 12.12, 5.05, 5.40, 0.000, 0.000, 0.000, 15:59:57.888
130, -467.29, 8.96, 9.82, 8.10, 0.000, 0.000, 0.000, 15:59:57.888
131, -0.92, 1.26, 18.55, 19.59, 0.000, 0.000, 0.000, 15:59:57.910
132, 92.82, 18.09, 5.91, 9.76, 0.000, 0.000, 0.000, 15:59:57.910
133, -302.79, 6.11, 5.56, 9.95, 0.000, 0.000, 0.000, 15:59:57.911
134, -233.78, 1.11, 16.31, 18.99, 0.000, 0.000, 0.000, 15:59:57.911
135, 228.62, 6.64, 7.13, 12.51, 0.000, 0.000, 0.000, 15:59:57.932
136, -76.48, 9.37, 7.44, 10.44, 0.000, 0.000, 0.000, 15:59:57.933
137, -382.03, 4.05, 17.68, 15.87, 0.000, 0.000, 0.000, 15:59:57.933
138, 106.86, 5.71, 17.25, 14.88, 0.000, 0.000, 0.000, 15:59:57.933
139, -72.72, 14.25, 7.05, 4.11, 0.000, 0.000, 0.000, 15:59:57.934
140, -297.31, 14.24, 11.24, 7.49, 0.000, 0.000, 0.000, 15:59:57.934
141, 2.41, 7.05, 19.49, 14.69, 0.000, 0.000, 0.000, 15:59:57.956
142, 3.79, 11.47, 6.06, 7.01, 0.000, 0.000, 0.000, 15:59:57.956
143, -385.57, 13.10, 6.33, 11.31, 0.000, 0.000, 0.000, 15:59:57.956
144, -157.18, 4.48, 19.39, 19.62, 0.000, 0.000, 0.000, 15:59:57.956
145, 139.51, 9.60, 12.07, 10.70, 0.000, 0.000, 0.000, 15:59:57.977
146, -200.07, 12.34, 3.67, 9.24, 0.000, 0.000, 0.000, 15:59:57.978
147, -309.76, 3.67, 10.87, 13.53, 0.000, 0.000, 0.000, 15:59:57.978
148, 142.65, 9.04, 16.61, 16.37, 0.000, 0.000, 0.000, 15:59:57.978
149, -67.71, 15.32, 1.18, 8.86, 0.000, 0.000, 0.000, 15:59:58.000
150, -343.44, 15.15, 10.05, 10.59, 0.000, 0.000, 0.000, 15:59:58.000
151, 0.30, -4.30, 22.33, 19.47, 0.000, 0.000, 0.000, 15:59:58.001
152, 70.54, 12.07, 8.12, 8.75, 0.000, 0.000, 0.000, 15:59:58.001
153, -405.35, 8.68, 8.02, 7.88, 0.000, 0.000, 0.000, 15:59:58.023
154, -140.12, -0.94, 19.89, 20.09, 0.000, 0.000, 0.000, 15:59:58.024
155, 201.13, 8.48, 6.45, 9.65, 0.000, 0.000, 0.000, 15:59:58.024
156, -244.37, 13.27, 2.84, 7.90, 0.000, 0.000, 0.000, 15:59:58.024
157, -258.56, 2.32, 16.77, 14.97, 0.000, 0.000, 0.000, 15:59:58.024
158, 208.98, 5.09, 16.28, 15.44, 0.000, 0.000, 0.000, 15:59:58.024
159, -173.93, 13.45, 7.62, 9.04, 0.000, 0.000, 0.000, 15:59:58.045
160, -388.63, 9.16, 5.20, 12.50, 0.000, 0.000, 0.000, 15:59:58.046
161, 109.18, 2.56, 21.06, 16.22, 0.000, 0.000, 0.000, 15:59:58.046
162, 52.91, 11.57, 5.56, 5.74, 0.000, 0.000, 0.000, 15:59:58.046
163, -412.57, 14.18, 5.55, 8.19, 0.000, 0.000, 0.000, 15:59:58.068
164, -245.21, 0.07, 20.94, 16.17, 0.000, 0.000, 0.000, 15:59:58.068
165, 319.03, 8.33, 8.45, 10.48, 0.000, 0.000, 0.000, 15:59:58.068
166, -203.38, 13.03, 3.65, 4.81, 0.000, 0.000, 0.000, 15:59:58.068
167, -397.11, 7.14, 12.98, 10.64, 0.000, 0.000, 0.000, 15:59:58.090
168, 85.23, 7.00, 13.93, 15.60, 0.000, 0.000, 0.000, 15:59:58.091
169, -55.64, 8.62, 4.40, 11.21, 0.000, 0.000, 0.000, 15:59:58.091
170, -381.68, 12.23, 10.96, 10.69, 0.000, 0.000, 0.000, 15:59:58.091
171, 79.83, 3.47, 19.94, 20.61, 0.000, 0.000, 0.000, 15:59:58.113
172, 89.08, 12.87, 7.33, 1.69, 0.000, 0.000, 0.000, 15:59:58.113
173, -286.88, 9.48, 8.99, 9.67, 0.000, 0.000, 0.000, 15:59:58.113
174, -146.50, 0.77, 21.71, 16.18, 0.000, 0.000, 0.000, 15:59:58.113
175, 86.94, 10.69, 7.30, 10.66, 0.000, 0.000, 0.000, 15:59:58.114
176, -212.35, 17.30, 4.97, 9.21, 0.000, 0.000, 0.000, 15:59:58.114
177, -262.20, 5.10, 13.41, 15.99, 0.000, 0.000, 0.000, 15:59:58.135
178, 77.82, 0.92, 14.33, 16.80, 0.000, 0.000, 0.000, 15:59:58.136
179, -145.17, 12.47, 6.79, 7.38, 0.000, 0.000, 0.000, 15:59:58.136
180, -388.71, 10.43, 8.95, 10.97, 0.000, 0.000, 0.000, 15:59:58.136
181, 135.76, 2.47, 18.47, 19.84, 0.000, 0.000, 0.000, 15:59:58.158
182, 69.87, 10.63, 6.92, 9.25, 0.000, 0.000, 0.000, 15:59:58.158
183, -342.97, 14.34, 9.16, 7.10, 0.000, 0.000, 0.000, 15:59:58.158
184, -223.09, 4.95, 19.32, 16.96, 0.000, 0.000, 0.000, 15:59:58.158
185, 57.99, 10.38, 11.09, 6.70, 0.000, 0.000, 0.000, 15:59:58.180
186, -95.77, 19.72, 2.27, 3.33, 0.000, 0.000, 0.000, 15:59:58.180
187, -292.61, -0.70, 13.43, 16.45, 0.000, 0.000, 0.000, 15:59:58.181
188, 234.09, 6.51, 13.94, 12.24, 0.000, 0.000, 0.000, 15:59:58.181
189, -102.21, 9.44, 3.96, 8.80, 0.000, 0.000, 0.000, 15:59:58.203
190, -442.69, 10.77, 10.04, 11.78, 0.000, 0.000, 0.000, 15:59:58.203
191, 35.03, -3.67, 18.43, 19.16, 0.000, 0.000, 0.000, 15:59:58.203
192, 46.33, 11.11, 3.50, 7.39, 0.000, 0.000, 0.000, 15:59:58.203
193, -339.25, 12.54, 6.42, 9.70, 0.000, 0.000, 0.000, 15:59:58.204
194, -133.29, -1.20, 21.16, 17.30, 0.000, 0.000, 0.000, 15:59:58.204
195, 154.46, 10.25, 11.60, 10.67, 0.000, 0.000, 0.000, 15:59:58.225
196, -225.19, 9.97, 6.71, 7.55, 0.000, 0.000, 0.000, 15:59:58.225
