%OpenBCI Raw EEG Data
%
%Sample Rate = 200.0 Hz
%First Column = SampleIndex
%Last Column = Timestamp 
%Other Columns = EEG data in microvolts followed by Accel Data (in G) interleaved with Aux Data
0, 12.03, 47.73, 6.12, 8.85, 0.000, 0.000, 0.000, 15:20:21.261
1, -97.62, -594.32, 3.70, 6.89, 0.000, 0.000, 0.000, 15:20:21.264
2, 147.17, -391.46, 21.30, 18.38, 0.000, 0.000, 0.000, 15:20:21.266
3, 97.48, 128.82, 14.31, 12.28, 0.000, 0.000, 0.000, 15:20:21.267
4, -88.82, -395.13, 3.69, 6.00, 0.000, 0.000, 0.000, 15:20:21.268
5, 45.29, -610.62, 16.76, 13.52, 0.000, 0.000, 0.000, 15:20:21.268
6, 165.79, 75.77, 14.78, 16.49, 0.000, 0.000, 0.000, 15:20:21.269
7, -45.83, -155.94, 4.41, 9.04, 0.000, 0.000, 0.000, 15:20:21.281
8, -52.89, -692.21, 8.82, 10.55, 0.000, 0.000, 0.000, 15:20:21.282
9, 190.07, -121.32, 16.69, 20.68, 0.000, 0.000, 0.000, 15:20:21.282
10, 16.87, 31.24, 11.59, 8.10, 0.000, 0.000, 0.000, 15:20:21.283
11, -90.32, -605.75, 3.56, 7.34, 0.000, 0.000, 0.000, 15:20:21.304
12, 150.09, -380.30, 16.62, 16.26, 0.000, 0.000, 0.000, 15:20:21.305
13, 91.74, 135.85, 7.78, 14.22, 0.000, 0.000, 0.000, 15:20:21.305
14, -92.41, -393.54, 6.81, 9.76, 0.000, 0.000, 0.000, 15:20:21.306
15, 41.71, -608.47, 16.63, 12.84, 0.000, 0.000, 0.000, 15:20:21.327
16, 150.30, 80.39, 16.62, 16.83, 0.000, 0.000, 0.000, 15:20:21.328
17, -26.60, -159.83, 6.29, 8.81, 0.000, 0.000, 0.000, 15:20:21.329
18, -34.05, -694.28, 9.43, 11.12, 0.000, 0.000, 0.000, 15:20:21.329
19, 189.33, -120.42, 22.99, 16.20, 0.000, 0.000, 0.000, 15:20:21.330
20, 22.30, 33.96, 4.85, 10.25, 0.000, 0.000, 0.000, 15:20:21.330
21, -87.87, -600.83, 5.02, 6.29, 0.000, 0.000, 0.000, 15:20:21.355
22, 144.69, -372.02, 16.64, 16.29, 0.000, 0.000, 0.000, 15:20:21.355
23, 97.11, 137.94, 15.33, 11.48, 0.000, 0.000, 0.000, 15:20:21.356
24, -95.04, -402.86, 0.79, 7.40, 0.000, 0.000, 0.000, 15:20:21.356
25, 51.89, -618.30, 14.62, 17.78, 0.000, 0.000, 0.000, 15:20:21.379
26, 160.05, 79.42, 17.54, 16.81, 0.000, 0.000, 0.000, 15:20:21.380
27, -42.01, -176.92, 5.80, 8.40, 0.000, 0.000, 0.000, 15:20:21.380
28, -23.50, -694.59, 9.22, 7.40, 0.000, 0.000, 0.000, 15:20:21.380
29, 193.60, -104.69, 21.60, 16.91, 0.000, 0.000, 0.000, 15:20:21.403
30, 20.82, 31.88, 4.30, 11.82, 0.000, 0.000, 0.000, 15:20:21.403
31, -72.30, -606.73, 2.79, 7.84, 0.000, 0.000, 0.000, 15:20:21.403
32, 148.89, -383.14, 13.99, 15.33, 0.000, 0.000, 0.000, 15:20:21.404
33, 98.05, 131.93, 11.88, 12.20, 0.000, 0.000, 0.000, 15:20:21.425
34, -83.15, -389.90, 5.40, 7.13, 0.000, 0.000, 0.000, 15:20:21.426
35, 54.62, -607.26, 12.02, 12.99, 0.000, 0.000, 0.000, 15:20:21.426
36, 164.01, 76.85, 19.73, 15.91, 0.000, 0.000, 0.000, 15:20:21.426
37, -47.91, -157.91, 1.57, 5.26, 0.000, 0.000, 0.000, 15:20:21.427
38, -34.60, -670.66, 3.75, 7.87, 0.000, 0.000, 0.000, 15:20:21.428
39, 201.23, -83.71, 19.42, 13.72, 0.000, 0.000, 0.000, 15:20:21.439
40, 9.02, 49.81, 9.03, 15.44, 0.000, 0.000, 0.000, 15:20:21.439
41, -89.49, -591.92, 2.46, 9.07, 0.000, 0.000, 0.000, 15:20:21.440
42, 147.19, -358.57, 20.91, 18.58, 0.000, 0.000, 0.000, 15:20:21.441
43, 90.43, 140.48, 15.69, 13.33, 0.000, 0.000, 0.000, 15:20:21.461
44, -83.23, -391.34, 3.06, 6.20, 0.000, 0.000, 0.000, 15:20:21.462
45, 53.65, -591.77, 13.70, 11.31, 0.000, 0.000, 0.000, 15:20:21.462
46, 165.75, 88.83, 12.48, 14.03, 0.000, 0.000, 0.000, 15:20:21.462
47, -52.79, -155.30, 5.20, 7.63, 0.000, 0.000, 0.000, 15:20:21.485
48, -30.28, -681.49, 5.17, 10.00, 0.000, 0.000, 0.000, 15:20:21.485
49, 189.98, -112.85, 16.89, 12.57, 0.000, 0.000, 0.000, 15:20:21.486
50, 26.72, 4.63, 11.66, 6.89, 0.000, 0.000, 0.000, 15:20:21.486
51, -76.75, -633.32, 4.32, 6.82, 0.000, 0.000, 0.000, 15:20:21.506
52, 154.21, -373.96, 18.17, 14.95, 0.000, 0.000, 0.000, 15:20:21.507
53, 93.47, 117.05, 12.74, 14.76, 0.000, 0.000, 0.000, 15:20:21.507
54, -88.92, -423.54, 2.44, 8.17, 0.000, 0.000, 0.000, 15:20:21.508
55, 61.16, -602.59, 14.14, 16.84, 0.000, 0.000, 0.000, 15:20:21.508
56, 162.37, 78.05, 20.66, 14.42, 0.000, 0.000, 0.000, 15:20:21.508
57, -51.67, -169.75, 4.03, 4.67, 0.000, 0.000, 0.000, 15:20:21.528
58, -27.64, -671.10, 6.30, 9.93, 0.000, 0.000, 0.000, 15:20:21.529
59, 189.88, -110.18, 20.52, 20.26, 0.000, 0.000, 0.000, 15:20:21.529
60, 13.23, 18.01, 9.18, 10.23, 0.000, 0.000, 0.000, 15:20:21.529
61, -80.02, -609.17, 3.01, 7.61, 0.000, 0.000, 0.000, 15:20:21.551
62, 161.26, -376.66, 21.83, 19.18, 0.000, 0.000, 0.000, 15:20:21.552
63, 89.32, 111.94, 11.77, 13.53, 0.000, 0.000, 0.000, 15:20:21.552
64, -88.35, -404.17, 4.50, 6.81, 0.000, 0.000, 0.000, 15:20:21.553
65, 61.35, -608.29, 13.42, 20.69, 0.000, 0.000, 0.000, 15:20:21.574
66, 162.73, 85.48, 17.15, 15.57, 0.000, 0.000, 0.000, 15:20:21.574
67, -54.22, -167.09, 4.31, 4.69, 0.000, 0.000, 0.000, 15:20:21.574
68, -31.15, -693.82, 11.08, 10.86, 0.000, 0.000, 0.000, 15:20:21.578
69, 186.05, -90.75, 19.17, 18.04, 0.000, 0.000, 0.000, 15:20:21.596
70, 14.47, 20.69, 7.18, 13.27, 0.000, 0.000, 0.000, 15:20:21.596
71, -83.18, -623.02, 5.98, 8.28, 0.000, 0.000, 0.000, 15:20:21.597
72, 163.92, -364.06, 22.88, 18.94, 0.000, 0.000, 0.000, 15:20:21.597
73, 93.52, 111.70, 8.35, 14.03, 0.000, 0.000, 0.000, 15:20:21.597
74, -80.97, -397.61, 5.17, 8.94, 0.000, 0.000, 0.000, 15:20:21.598
75, 61.60, -586.13, 11.82, 13.65, 0.000, 0.000, 0.000, 15:20:21.618
76, 159.13, 72.88, 15.31, 16.18, 0.000, 0.000, 0.000, 15:20:21.619
77, -50.00, -168.90, 3.19, 5.49, 0.000, 0.000, 0.000, 15:20:21.619
78, -29.47, -687.07, 10.27, 6.60, 0.000, 0.000, 0.000, 15:20:21.620
79, 192.52, -97.10, 22.45, 18.66, 0.000, 0.000, 0.000, 15:20:21.641
80, 5.74, 22.98, 8.58, 7.06, 0.000, 0.000, 0.000, 15:20:21.641
81, -85.17, -586.81, 5.18, 6.86, 0.000, 0.000, 0.000, 15:20:21.642
82, 167.48, -348.59, 17.07, 13.78, 0.000, 0.000, 0.000, 15:20:21.642
83, 86.20, 138.82, 14.83, 12.42, 0.000, 0.000, 0.000, 15:20:21.664
84, -86.29, -392.98, 7.03, 5.14, 0.000, 0.000, 0.000, 15:20:21.664
85, 66.72, -568.89, 17.62, 14.31, 0.000, 0.000, 0.000, 15:20:21.664
86, 164.37, 100.22, 16.69, 21.55, 0.000, 0.000, 0.000, 15:20:21.665
87, -49.74, -171.88, 3.46, 9.45, 0.000, 0.000, 0.000, 15:20:21.686
88, -24.73, -672.45, 5.68, 6.20, 0.000, 0.000, 0.000, 15:20:21.687
89, 185.46, -89.39, 20.26, 21.27, 0.000, 0.000, 0.000, 15:20:21.687
90, 10.44, 5.73, 5.50, 8.57, 0.000, 0.000, 0.000, 15:20:21.688
91, -77.50, -631.34, 0.38, 6.55, 0.000, 0.000, 0.000, 15:20:21.688
92, 164.06, -369.24, 21.63, 17.69, 0.000, 0.000, 0.000, 15:20:21.688
93, 83.72, 124.90, 15.49, 13.93, 0.000, 0.000, 0.000, 15:20:21.709
94, -91.49, -427.69, 3.78, 6.07, 0.000, 0.000, 0.000, 15:20:21.709
95, 64.42, -587.60, 13.48, 14.60, 0.000, 0.000, 0.000, 15:20:21.710
96, 149.90, 80.62, 17.12, 15.26, 0.000, 0.000, 0.000, 15:20:21.710
97, -63.33, -194.05, 3.78, 7.42, 0.000, 0.000, 0.000, 15:20:21.731
98, -24.08, -673.21, 8.38, 8.53, 0.000, 0.000, 0.000, 15:20:21.731
99, 201.40, -81.89, 17.34, 18.88, 0.000, 0.000, 0.000, 15:20:21.732
100, 15.19, 22.01, 6.17, 13.25, 0.000, 0.000, 0.000, 15:20:21.732
101, -71.39, -610.44, 2.65, 6.09, 0.000, 0.000, 0.000, 15:20:21.754
102, 156.94, -354.90, 16.08, 16.69, 0.000, 0.000, 0.000, 15:20:21.754
103, 87.54, 119.09, 11.58, 13.06, 0.000, 0.000, 0.000, 15:20:21.755
104, -83.67, -428.18, 1.55, 3.04, 0.000, 0.000, 0.000, 15:20:21.755
105, 63.55, -574.02, 12.00, 13.19, 0.000, 0.000, 0.000, 15:20:21.776
106, 142.73, 84.11, 16.88, 17.22, 0.000, 0.000, 0.000, 15:20:21.777
107, -55.98, -185.40, 3.60, 7.41, 0.000, 0.000, 0.000, 15:20:21.777
108, -6.74, -676.55, 10.12, 3.52, 0.000, 0.000, 0.000, 15:20:21.778
109, 197.04, -101.14, 18.08, 18.43, 0.000, 0.000, 0.000, 15:20:21.778
110, 12.86, 4.96, 12.02, 15.15, 0.000, 0.000, 0.000, 15:20:21.779
111, -81.49, -621.98, 1.73, 6.02, 0.000, 0.000, 0.000, 15:20:21.799
112, 154.91, -344.18, 20.29, 15.05, 0.000, 0.000, 0.000, 15:20:21.799
113, 88.69, 122.29, 12.34, 12.80, 0.000, 0.000, 0.000, 15:20:21.799
114, -77.73, -429.96, 1.22, 3.46, 0.000, 0.000, 0.000, 15:20:21.800
115, 74.74, -584.52, 17.40, 13.41, 0.000, 0.000, 0.000, 15:20:21.821
116, 161.67, 90.62, 18.39, 19.12, 0.000, 0.000, 0.000, 15:20:21.822
117, -47.32, -191.42, 7.96, 8.45, 0.000, 0.000, 0.000, 15:20:21.822
118, -13.06, -691.42, 5.39, 11.38, 0.000, 0.000, 0.000, 15:20:21.822
119, 184.61, -90.29, 18.61, 19.36, 0.000, 0.000, 0.000, 15:20:21.843
120, 3.08, 17.21, 7.83, 8.95, 0.000, 0.000, 0.000, 15:20:21.844
121, -73.90, -604.18, 4.31, 7.64, 0.000, 0.000, 0.000, 15:20:21.844
122, 170.43, -353.13, 19.88, 15.82, 0.000, 0.000, 0.000, 15:20:21.845
123, 93.17, 114.04, 8.67, 11.71, 0.000, 0.000, 0.000, 15:20:21.866
124, -80.11, -407.64, 4.75, 4.40, 0.000, 0.000, 0.000, 15:20:21.867
125, 66.75, -576.03, 15.80, 12.37, 0.000, 0.000, 0.000, 15:20:21.867
126, 152.24, 103.00, 16.56, 14.90, 0.000, 0.000, 0.000, 15:20:21.867
127, -60.98, -176.93, 5.98, 6.89, 0.000, 0.000, 0.000, 15:20:21.868
128, -29.35, -674.10, 14.11, 13.66, 0.000, 0.000, 0.000, 15:20:21.868
129, 215.29, -92.58, 17.77, 21.19, 0.000, 0.000, 0.000, 15:20:21.889
130, 1.53, 10.76, 3.75, 10.52, 0.000, 0.000, 0.000, 15:20:21.891
131, -80.48, -617.24, 1.58, 8.70, 0.000, 0.000, 0.000, 15:20:21.894
132, 157.63, -345.23, 19.69, 15.29, 0.000, 0.000, 0.000, 15:20:21.894
133, 83.04, 119.28, 9.47, 14.07, 0.000, 0.000, 0.000, 15:20:21.911
134, -98.71, -411.82, 2.81, 7.98, 0.000, 0.000, 0.000, 15:20:21.911
135, 51.61, -570.49, 17.10, 12.42, 0.000, 0.000, 0.000, 15:20:21.912
136, 163.73, 87.21, 20.12, 16.26, 0.000, 0.000, 0.000, 15:20:21.912
137, -39.98, -194.18, 3.78, 5.39, 0.000, 0.000, 0.000, 15:20:21.934
138, -17.61, -692.83, 6.68, 9.39, 0.000, 0.000, 0.000, 15:20:21.934
139, 184.15, -102.22, 21.09, 16.57, 0.000, 0.000, 0.000, 15:20:21.934
140, 6.36, -10.88, 5.65, 9.15, 0.000, 0.000, 0.000, 15:20:21.935
141, -82.59, -618.47, 5.07, 8.29, 0.000, 0.000, 0.000, 15:20:21.956
142, 155.96, -365.83, 19.62, 16.57, 0.000, 0.000, 0.000, 15:20:21.956
143, 80.50, 92.34, 11.89, 16.84, 0.000, 0.000, 0.000, 15:20:21.957
144, -81.38, -413.37, 4.05, 7.74, 0.000, 0.000, 0.000, 15:20:21.957
145, 87.86, -574.48, 14.00, 14.68, 0.000, 0.000, 0.000, 15:20:21.957
146, 169.65, 106.09, 19.48, 17.99, 0.000, 0.000, 0.000, 15:20:21.957
147, -37.71, -201.94, 6.90, 6.40, 0.000, 0.000, 0.000, 15:20:21.978
148, -1.95, -663.56, 10.65, 9.19, 0.000, 0.000, 0.000, 15:20:21.979
149, 198.43, -73.23, 18.33, 17.40, 0.000, 0.000, 0.000, 15:20:21.979
150, 18.58, 62.47, 5.15, 11.87, 0.000, 0.000, 0.000, 15:20:21.979
151, -70.19, -549.35, 4.27, 11.15, 0.000, 0.000, 0.000, 15:20:22.001
152, 176.27, -273.99, 17.13, 16.13, 0.000, 0.000, 0.000, 15:20:22.001
153, 76.14, 149.18, 12.34, 12.17, 0.000, 0.000, 0.000, 15:20:22.002
154, -80.08, -430.47, 3.50, 6.02, 0.000, 0.000, 0.000, 15:20:22.002
155, 79.29, -525.09, 13.97, 13.45, 0.000, 0.000, 0.000, 15:20:22.023
156, 147.99, 119.79, 17.96, 13.35, 0.000, 0.000, 0.000, 15:20:22.024
157, -59.89, -214.84, 4.13, 6.66, 0.000, 0.000, 0.000, 15:20:22.024
158, -29.41, -743.80, 8.13, 7.41, 0.000, 0.000, 0.000, 15:20:22.024
159, 174.79, -125.07, 18.84, 15.08, 0.000, 0.000, 0.000, 15:20:22.046
160, -3.34, -17.76, 8.25, 11.20, 0.000, 0.000, 0.000, 15:20:22.046
161, -76.12, -661.79, 6.34, 6.46, 0.000, 0.000, 0.000, 15:20:22.047
162, 157.45, -400.55, 17.50, 18.86, 0.000, 0.000, 0.000, 15:20:22.047
163, 74.59, 54.85, 14.90, 13.22, 0.000, 0.000, 0.000, 15:20:22.048
164, -86.60, -388.02, 3.39, 3.75, 0.000, 0.000, 0.000, 15:20:22.048
165, 72.06, -497.64, 13.93, 11.34, 0.000, 0.000, 0.000, 15:20:22.069
166, 151.74, 100.04, 13.84, 15.28, 0.000, 0.000, 0.000, 15:20:22.069
167, -56.88, -159.44, 3.12, 6.13, 0.000, 0.000, 0.000, 15:20:22.070
168, -22.62, -631.54, 8.08, 10.15, 0.000, 0.000, 0.000, 15:20:22.070
169, 185.17, -50.61, 22.60, 16.53, 0.000, 0.000, 0.000, 15:20:22.091
170, -6.17, 41.88, 8.48, 8.98, 0.000, 0.000, 0.000, 15:20:22.091
171, -77.11, -587.73, 1.44, 4.65, 0.000, 0.000, 0.000, 15:20:22.092
172, 161.50, -336.50, 18.07, 20.00, 0.000, 0.000, 0.000, 15:20:22.092
173, 80.95, 95.19, 9.64, 11.46, 0.000, 0.000, 0.000, 15:20:22.114
174, -72.78, -446.40, 4.57, 7.42, 0.000, 0.000, 0.000, 15:20:22.115
175, 84.19, -583.09, 17.81, 17.18, 0.000, 0.000, 0.000, 15:20:22.115
176, 154.80, 144.06, 15.92, 18.51, 0.000, 0.000, 0.000, 15:20:22.115
177, -56.37, -150.30, 3.14, 6.72, 0.000, 0.000, 0.000, 15:20:22.136
178, -19.06, -708.16, 9.50, 10.78, 0.000, 0.000, 0.000, 15:20:22.136
179, 202.66, -154.25, 17.37, 15.38, 0.000, 0.000, 0.000, 15:20:22.137
180, 12.77, -45.45, 7.37, 5.80, 0.000, 0.000, 0.000, 15:20:22.137
181, -72.21, -570.68, 6.99, 6.25, 0.000, 0.000, 0.000, 15:20:22.138
182, 160.98, -282.15, 19.10, 18.56, 0.000, 0.000, 0.000, 15:20:22.138
183, 84.24, 125.82, 10.24, 11.14, 0.000, 0.000, 0.000, 15:20:22.158
184, -82.06, -436.84, 2.70, 4.48, 0.000, 0.000, 0.000, 15:20:22.159
185, 82.59, -555.61, 17.74, 15.74, 0.000, 0.000, 0.000, 15:20:22.159
186, 150.27, 176.72, 15.78, 14.51, 0.000, 0.000, 0.000, 15:20:22.160
187, -45.77, -90.62, 2.04, 6.79, 0.000, 0.000, 0.000, 15:20:22.181
188, -17.62, -610.74, 13.15, 12.86, 0.000, 0.000, 0.000, 15:20:22.182
189, 193.66, -96.51, 20.73, 16.34, 0.000, 0.000, 0.000, 15:20:22.182
190, 17.60, -79.99, 10.66, 11.92, 0.000, 0.000, 0.000, 15:20:22.182
191, -54.01, -615.38, 6.07, 6.92, 0.000, 0.000, 0.000, 15:20:22.204
192, 195.83, -403.52, 16.77, 14.89, 0.000, 0.000, 0.000, 15:20:22.205
193, 89.64, 120.68, 13.19, 12.10, 0.000, 0.000, 0.000, 15:20:22.205
194, -85.93, -423.31, 2.57, 4.29, 0.000, 0.000, 0.000, 15:20:22.206
195, 83.62, -561.04, 16.79, 15.91, 0.000, 0.000, 0.000, 15:20:22.226
196, 146.35, 106.62, 16.00, 19.30, 0.000, 0.000, 0.000, 15:20:22.227
197, -55.58, -213.78, 2.34, 7.04, 0.000, 0.000, 0.000, 15:20:22.227
198, -4.72, -791.64, 10.55, 11.61, 0.000, 0.000, 0.000, 15:20:22.227
199, 189.92, 16.84, 16.91, 17.28, 0.000, 0.000, 0.000, 15:20:22.227
200, -5.71, 104.79, 8.66, 9.21, 0.000, 0.000, 0.000, 15:20:22.228
0, -61.04, -455.95, 4.03, 6.57, 0.000, 0.000, 0.000, 15:20:22.249
1, 175.23, -265.04, 18.75, 19.67, 0.000, 0.000, 0.000, 15:20:22.271
2, 75.06, 101.45, 10.39, 11.07, 0.000, 0.000, 0.000, 15:20:22.272
3, -91.66, -413.32, 6.63, 7.30, 0.000, 0.000, 0.000, 15:20:22.272
4, 81.88, -454.81, 13.47, 14.20, 0.000, 0.000, 0.000, 15:20:22.273
5, 159.92, 97.45, 15.74, 13.47, 0.000, 0.000, 0.000, 15:20:22.274
6, -35.57, -263.79, 2.05, 5.84, 0.000, 0.000, 0.000, 15:20:22.274
7, 8.71, -617.19, 7.36, 11.55, 0.000, 0.000, 0.000, 15:20:22.274
8, 204.72, 21.87, 18.38, 17.33, 0.000, 0.000, 0.000, 15:20:22.275
9, 5.87, 27.34, 2.95, 6.08, 0.000, 0.000, 0.000, 15:20:22.293
10, -70.17, -650.89, 5.43, 8.38, 0.000, 0.000, 0.000, 15:20:22.294
11, 154.44, -430.15, 19.12, 19.78, 0.000, 0.000, 0.000, 15:20:22.296
12, 66.55, 78.39, 12.57, 13.46, 0.000, 0.000, 0.000, 15:20:22.296
13, -92.80, -491.11, 7.01, 7.90, 0.000, 0.000, 0.000, 15:20:22.317
14, 81.05, -609.70, 17.03, 10.50, 0.000, 0.000, 0.000, 15:20:22.317
15, 139.07, 225.55, 17.90, 15.23, 0.000, 0.000, 0.000, 15:20:22.317
16, -67.25, -63.16, 3.38, 9.63, 0.000, 0.000, 0.000, 15:20:22.317
17, -10.31, -705.52, 12.49, 12.70, 0.000, 0.000, 0.000, 15:20:22.339
18, 188.44, -140.78, 16.96, 18.12, 0.000, 0.000, 0.000, 15:20:22.339
19, -11.40, -23.94, 6.30, 10.18, 0.000, 0.000, 0.000, 15:20:22.339
20, -81.74, -617.54, 1.55, 6.73, 0.000, 0.000, 0.000, 15:20:22.340
21, 182.11, -291.33, 18.38, 17.72, 0.000, 0.000, 0.000, 15:20:22.361
22, 92.02, 217.68, 10.85, 9.53, 0.000, 0.000, 0.000, 15:20:22.361
23, -83.83, -314.33, 2.27, 6.45, 0.000, 0.000, 0.000, 15:20:22.362
24, 77.36, -650.00, 13.06, 16.43, 0.000, 0.000, 0.000, 15:20:22.362
25, 134.46, 8.47, 17.47, 17.41, 0.000, 0.000, 0.000, 15:20:22.362
26, -68.68, -379.97, 3.49, 6.61, 0.000, 0.000, 0.000, 15:20:22.362
27, -10.35, -702.77, 11.21, 9.91, 0.000, 0.000, 0.000, 15:20:22.384
28, 202.55, 45.55, 17.95, 17.13, 0.000, 0.000, 0.000, 15:20:22.384
29, -8.84, 23.95, 10.35, 11.17, 0.000, 0.000, 0.000, 15:20:22.384
30, -77.33, -582.35, 7.88, 6.38, 0.000, 0.000, 0.000, 15:20:22.384
31, 156.92, -283.70, 20.45, 13.66, 0.000, 0.000, 0.000, 15:20:22.406
32, 80.39, 55.68, 9.93, 13.36, 0.000, 0.000, 0.000, 15:20:22.407
33, -92.49, -404.32, 2.96, 8.19, 0.000, 0.000, 0.000, 15:20:22.407
34, 87.61, -485.82, 14.97, 12.15, 0.000, 0.000, 0.000, 15:20:22.408
35, 153.32, 309.23, 13.75, 15.17, 0.000, 0.000, 0.000, 15:20:22.428
36, -46.69, -264.25, 6.38, 12.86, 0.000, 0.000, 0.000, 15:20:22.429
37, -5.30, -676.95, 11.38, 13.52, 0.000, 0.000, 0.000, 15:20:22.429
38, 224.97, 62.42, 18.60, 18.94, 0.000, 0.000, 0.000, 15:20:22.429
39, 19.97, -65.72, 7.10, 8.61, 0.000, 0.000, 0.000, 15:20:22.451
40, -63.86, -683.53, 3.42, 5.15, 0.000, 0.000, 0.000, 15:20:22.451
41, 169.60, -392.79, 19.29, 17.70, 0.000, 0.000, 0.000, 15:20:22.452
42, 60.50, 55.55, 6.92, 13.75, 0.000, 0.000, 0.000, 15:20:22.452
43, -106.04, -577.62, 2.57, 7.19, 0.000, 0.000, 0.000, 15:20:22.452
44, 77.67, -569.53, 15.99, 12.87, 0.000, 0.000, 0.000, 15:20:22.453
45, 139.19, 30.55, 16.56, 14.36, 0.000, 0.000, 0.000, 15:20:22.473
46, -71.89, -318.21, 3.81, 6.70, 0.000, 0.000, 0.000, 15:20:22.474
47, -7.98, -464.33, 11.33, 9.34, 0.000, 0.000, 0.000, 15:20:22.474
48, 196.35, 36.71, 18.00, 17.56, 0.000, 0.000, 0.000, 15:20:22.474
49, 1.78, -26.71, 6.04, 8.19, 0.000, 0.000, 0.000, 15:20:22.496
50, -78.73, -505.15, 6.24, 7.81, 0.000, 0.000, 0.000, 15:20:22.496
51, 180.56, -477.96, 18.56, 17.31, 0.000, 0.000, 0.000, 15:20:22.497
52, 60.64, -30.18, 11.85, 11.12, 0.000, 0.000, 0.000, 15:20:22.497
53, -95.84, -289.63, 2.39, 8.28, 0.000, 0.000, 0.000, 15:20:22.518
54, 77.51, -388.74, 16.60, 13.46, 0.000, 0.000, 0.000, 15:20:22.519
55, 134.20, 234.00, 16.75, 12.47, 0.000, 0.000, 0.000, 15:20:22.519
56, -59.00, -158.68, 3.22, 9.54, 0.000, 0.000, 0.000, 15:20:22.519
57, -9.23, -729.37, 10.19, 8.70, 0.000, 0.000, 0.000, 15:20:22.541
58, 199.12, -204.02, 17.01, 18.57, 0.000, 0.000, 0.000, 15:20:22.542
59, -6.21, -97.15, 3.91, 11.76, 0.000, 0.000, 0.000, 15:20:22.544
60, -74.92, -631.47, 3.09, 7.55, 0.000, 0.000, 0.000, 15:20:22.544
61, 164.26, -355.71, 21.54, 17.04, 0.000, 0.000, 0.000, 15:20:22.545
62, 69.81, 41.27, 12.22, 12.47, 0.000, 0.000, 0.000, 15:20:22.546
63, -94.75, -436.18, 5.70, 9.71, 0.000, 0.000, 0.000, 15:20:22.564
64, 80.17, -455.93, 14.42, 15.20, 0.000, 0.000, 0.000, 15:20:22.564
65, 127.01, 118.74, 17.27, 12.92, 0.000, 0.000, 0.000, 15:20:22.564
66, -77.09, -208.29, 4.27, 9.31, 0.000, 0.000, 0.000, 15:20:22.565
67, 4.53, -765.99, 7.20, 11.32, 0.000, 0.000, 0.000, 15:20:22.586
68, 208.67, 32.61, 18.04, 16.33, 0.000, 0.000, 0.000, 15:20:22.586
69, -1.63, 164.52, 5.33, 7.96, 0.000, 0.000, 0.000, 15:20:22.587
70, -64.96, -712.68, 3.83, 4.67, 0.000, 0.000, 0.000, 15:20:22.587
71, 176.66, -264.39, 20.15, 16.64, 0.000, 0.000, 0.000, 15:20:22.609
72, 72.77, 82.89, 14.55, 12.36, 0.000, 0.000, 0.000, 15:20:22.609
73, -95.45, -515.09, -0.01, 3.90, 0.000, 0.000, 0.000, 15:20:22.609
74, 92.29, -539.54, 17.21, 12.31, 0.000, 0.000, 0.000, 15:20:22.610
75, 143.48, 198.24, 17.61, 16.00, 0.000, 0.000, 0.000, 15:20:22.631
76, -57.81, -386.78, 4.24, 5.24, 0.000, 0.000, 0.000, 15:20:22.632
77, 3.44, -789.80, 8.61, 10.54, 0.000, 0.000, 0.000, 15:20:22.632
78, 187.26, -109.17, 20.03, 19.14, 0.000, 0.000, 0.000, 15:20:22.632
79, -7.81, -83.83, 9.79, 7.35, 0.000, 0.000, 0.000, 15:20:22.632
80, -78.98, -571.12, 3.38, 7.38, 0.000, 0.000, 0.000, 15:20:22.633
81, 164.65, -156.00, 21.99, 19.50, 0.000, 0.000, 0.000, 15:20:22.653
82, 62.28, 326.00, 10.55, 14.10, 0.000, 0.000, 0.000, 15:20:22.654
83, -96.68, 238.80, 1.00, 6.41, 0.000, 0.000, 0.000, 15:20:22.654
84, 112.84, 450.36, 15.09, 11.66, 0.000, 0.000, 0.000, 15:20:22.654
85, 165.60, 1241.34, 12.74, 12.15, 0.000, 0.000, 0.000, 15:20:22.676
86, -44.44, 754.71, 3.69, 9.16, 0.000, 0.000, 0.000, 15:20:22.676
87, 4.70, 242.38, 6.99, 11.03, 0.000, 0.000, 0.000, 15:20:22.676
88, 180.37, 723.24, 18.71, 20.11, 0.000, 0.000, 0.000, 15:20:22.677
89, -31.46, 994.72, 10.40, 10.94, 0.000, 0.000, 0.000, 15:20:22.698
90, -87.79, 363.75, 3.45, 5.89, 0.000, 0.000, 0.000, 15:20:22.699
91, 184.71, 840.33, 19.31, 19.10, 0.000, 0.000, 0.000, 15:20:22.700
92, 71.24, 1021.34, 11.42, 10.68, 0.000, 0.000, 0.000, 15:20:22.700
93, -84.10, 404.22, 3.88, 5.10, 0.000, 0.000, 0.000, 15:20:22.721
94, 85.11, 368.37, 13.98, 15.82, 0.000, 0.000, 0.000, 15:20:22.722
95, 152.16, 1022.39, 15.45, 14.75, 0.000, 0.000, 0.000, 15:20:22.722
96, -57.75, 1172.90, 7.26, 6.28, 0.000, 0.000, 0.000, 15:20:22.722
97, 7.45, 285.13, 10.23, 10.84, 0.000, 0.000, 0.000, 15:20:22.723
98, 192.04, 820.04, 22.71, 16.79, 0.000, 0.000, 0.000, 15:20:22.723
99, -15.84, 768.30, 9.33, 10.34, 0.000, 0.000, 0.000, 15:20:22.743
100, -69.35, 484.61, 9.02, 8.70, 0.000, 0.000, 0.000, 15:20:22.744
101, 179.19, 875.28, 20.05, 21.29, 0.000, 0.000, 0.000, 15:20:22.744
102, 68.29, 901.17, 8.83, 15.11, 0.000, 0.000, 0.000, 15:20:22.744
103, -90.21, 416.56, 1.16, 3.62, 0.000, 0.000, 0.000, 15:20:22.766
104, 96.39, 490.53, 19.10, 15.64, 0.000, 0.000, 0.000, 15:20:22.766
105, 146.23, 991.11, 13.96, 17.52, 0.000, 0.000, 0.000, 15:20:22.766
106, -60.73, 817.77, 2.39, 6.35, 0.000, 0.000, 0.000, 15:20:22.767
107, 4.56, 255.05, 8.40, 11.36, 0.000, 0.000, 0.000, 15:20:22.788
108, 195.42, 1173.46, 17.18, 16.38, 0.000, 0.000, 0.000, 15:20:22.789
109, -16.55, 796.79, 8.00, 9.40, 0.000, 0.000, 0.000, 15:20:22.789
110, -68.11, 283.70, 8.23, 11.01, 0.000, 0.000, 0.000, 15:20:22.789
111, 174.05, 594.57, 18.65, 16.84, 0.000, 0.000, 0.000, 15:20:22.811
112, 59.49, 1066.79, 12.43, 14.51, 0.000, 0.000, 0.000, 15:20:22.811
113, -105.39, 687.83, 4.90, 8.73, 0.000, 0.000, 0.000, 15:20:22.811
114, 113.89, 615.50, 17.79, 14.42, 0.000, 0.000, 0.000, 15:20:22.812
115, 152.74, 994.00, 13.00, 12.30, 0.000, 0.000, 0.000, 15:20:22.834
116, -69.33, 625.41, 2.16, 8.31, 0.000, 0.000, 0.000, 15:20:22.834
117, -18.53, 328.94, 4.60, 11.67, 0.000, 0.000, 0.000, 15:20:22.835
118, 201.15, 865.27, 14.49, 17.36, 0.000, 0.000, 0.000, 15:20:22.835
119, -6.45, 892.06, 8.37, 8.84, 0.000, 0.000, 0.000, 15:20:22.835
120, -69.90, 653.43, 8.12, 9.29, 0.000, 0.000, 0.000, 15:20:22.835
121, 174.72, 689.36, 19.87, 15.95, 0.000, 0.000, 0.000, 15:20:22.856
122, 56.95, 938.59, 10.53, 9.06, 0.000, 0.000, 0.000, 15:20:22.856
123, -93.73, 443.52, 3.75, 4.58, 0.000, 0.000, 0.000, 15:20:22.857
124, 97.86, 328.08, 16.50, 13.29, 0.000, 0.000, 0.000, 15:20:22.857
125, 140.78, 1171.70, 18.49, 17.53, 0.000, 0.000, 0.000, 15:20:22.878
126, -72.80, 900.64, 2.90, 6.93, 0.000, 0.000, 0.000, 15:20:22.879
127, -36.85, 309.07, 11.48, 11.92, 0.000, 0.000, 0.000, 15:20:22.880
128, 203.68, 829.43, 21.47, 16.31, 0.000, 0.000, 0.000, 15:20:22.880
129, 1.74, 852.97, 5.59, 9.97, 0.000, 0.000, 0.000, 15:20:22.902
130, -65.32, 420.05, 4.25, 6.69, 0.000, 0.000, 0.000, 15:20:22.903
131, 182.69, 745.64, 14.72, 17.70, 0.000, 0.000, 0.000, 15:20:22.903
132, 41.85, 1126.15, 6.83, 7.61, 0.000, 0.000, 0.000, 15:20:22.903
133, -112.61, 637.44, 4.08, 6.01, 0.000, 0.000, 0.000, 15:20:22.904
134, 84.32, 426.55, 16.81, 16.95, 0.000, 0.000, 0.000, 15:20:22.904
135, 141.47, 954.72, 18.51, 15.11, 0.000, 0.000, 0.000, 15:20:22.923
136, -50.63, 853.25, 6.43, 7.49, 0.000, 0.000, 0.000, 15:20:22.924
137, 18.80, 313.12, 9.75, 10.05, 0.000, 0.000, 0.000, 15:20:22.924
138, 197.76, 573.25, 19.58, 18.16, 0.000, 0.000, 0.000, 15:20:22.924
139, 20.01, 1115.29, 9.54, 7.64, 0.000, 0.000, 0.000, 15:20:22.947
140, -28.02, 551.96, 5.79, 9.11, 0.000, 0.000, 0.000, 15:20:22.947
141, 220.20, 675.90, 18.99, 19.19, 0.000, 0.000, 0.000, 15:20:22.948
142, 85.98, 1215.81, 9.71, 13.73, 0.000, 0.000, 0.000, 15:20:22.949
143, -95.68, 451.79, -0.22, 7.61, 0.000, 0.000, 0.000, 15:20:22.969
144, 85.25, 368.54, 16.25, 13.04, 0.000, 0.000, 0.000, 15:20:22.970
145, 119.88, 833.52, 16.01, 17.58, 0.000, 0.000, 0.000, 15:20:22.970
146, -77.61, 902.38, 1.35, 4.50, 0.000, 0.000, 0.000, 15:20:22.970
147, 9.78, 479.14, 7.53, 13.75, 0.000, 0.000, 0.000, 15:20:22.991
148, 181.07, 835.88, 20.49, 17.35, 0.000, 0.000, 0.000, 15:20:22.991
149, 0.62, 1067.59, 6.73, 5.34, 0.000, 0.000, 0.000, 15:20:22.992
150, -61.30, 220.80, 7.96, 10.63, 0.000, 0.000, 0.000, 15:20:22.992
151, 175.00, 624.64, 21.99, 20.98, 0.000, 0.000, 0.000, 15:20:22.992
152, 42.00, 1022.11, 10.15, 13.37, 0.000, 0.000, 0.000, 15:20:22.992
153, -98.52, 514.50, 2.89, 2.56, 0.000, 0.000, 0.000, 15:20:23.014
154, 93.45, 464.53, 13.41, 14.14, 0.000, 0.000, 0.000, 15:20:23.014
155, 122.23, 1088.48, 14.64, 16.82, 0.000, 0.000, 0.000, 15:20:23.014
156, -80.42, 700.66, 3.69, 8.78, 0.000, 0.000, 0.000, 15:20:23.015
157, 6.75, 444.72, 14.52, 8.38, 0.000, 0.000, 0.000, 15:20:23.036
158, 180.92, 987.77, 14.95, 18.04, 0.000, 0.000, 0.000, 15:20:23.036
159, -20.89, 731.27, 9.65, 9.49, 0.000, 0.000, 0.000, 15:20:23.037
160, -49.75, 674.76, 6.73, 11.09, 0.000, 0.000, 0.000, 15:20:23.037
161, 186.48, 604.75, 18.29, 18.42, 0.000, 0.000, 0.000, 15:20:23.059
162, 34.06, 1071.91, 13.93, 9.13, 0.000, 0.000, 0.000, 15:20:23.059
163, -97.63, 278.14, 2.88, 4.62, 0.000, 0.000, 0.000, 15:20:23.060
164, 133.26, 305.11, 16.13, 14.11, 0.000, 0.000, 0.000, 15:20:23.060
165, 170.61, 1231.15, 13.71, 14.12, 0.000, 0.000, 0.000, 15:20:23.081
166, -54.81, 814.14, 3.79, 6.89, 0.000, 0.000, 0.000, 15:20:23.082
167, 4.82, 570.31, 8.58, 12.69, 0.000, 0.000, 0.000, 15:20:23.082
168, 177.98, 814.86, 18.82, 15.23, 0.000, 0.000, 0.000, 15:20:23.082
169, -37.26, 938.87, 5.31, 6.61, 0.000, 0.000, 0.000, 15:20:23.083
170, -84.76, 304.21, 4.31, 9.23, 0.000, 0.000, 0.000, 15:20:23.083
171, 169.63, 693.76, 18.13, 16.25, 0.000, 0.000, 0.000, 15:20:23.104
172, 43.04, 1197.93, 13.48, 16.21, 0.000, 0.000, 0.000, 15:20:23.104
173, -86.34, 401.80, 7.72, 5.21, 0.000, 0.000, 0.000, 15:20:23.105
174, 125.71, 303.40, 16.28, 14.27, 0.000, 0.000, 0.000, 15:20:23.105
175, 143.92, 1163.08, 16.46, 12.38, 0.000, 0.000, 0.000, 15:20:23.126
176, -52.60, 740.30, 2.16, 7.92, 0.000, 0.000, 0.000, 15:20:23.126
177, -4.63, 254.12, 9.12, 7.55, 0.000, 0.000, 0.000, 15:20:23.126
178, 171.47, 987.92, 19.02, 19.74, 0.000, 0.000, 0.000, 15:20:23.127
179, -22.31, 1013.48, 7.36, 5.47, 0.000, 0.000, 0.000, 15:20:23.149
180, -62.81, 432.93, 8.84, 10.95, 0.000, 0.000, 0.000, 15:20:23.149
181, 182.27, 784.78, 18.11, 19.33, 0.000, 0.000, 0.000, 15:20:23.149
182, 69.87, 993.32, 8.88, 11.57, 0.000, 0.000, 0.000, 15:20:23.150
183, -80.98, 374.52, 0.31, 4.77, 0.000, 0.000, 0.000, 15:20:23.171
184, 113.23, 425.31, 20.78, 15.45, 0.000, 0.000, 0.000, 15:20:23.172
185, 147.24, 1140.25, 13.94, 16.03, 0.000, 0.000, 0.000, 15:20:23.172
186, -45.25, 931.12, 0.50, 4.87, 0.000, 0.000, 0.000, 15:20:23.173
187, 25.34, 345.43, 11.31, 11.34, 0.000, 0.000, 0.000, 15:20:23.173
188, 189.35, 894.14, 17.79, 18.22, 0.000, 0.000, 0.000, 15:20:23.173
189, -16.10, 881.41, 3.68, 8.86, 0.000, 0.000, 0.000, 15:20:23.194
190, -90.24, 573.53, 3.89, 7.16, 0.000, 0.000, 0.000, 15:20:23.194
191, 173.49, 808.98, 20.52, 22.42, 0.000, 0.000, 0.000, 15:20:23.194
192, 81.05, 826.68, 10.88, 11.51, 0.000, 0.000, 0.000, 15:20:23.194
193, -84.79, 216.21, 0.59, 6.26, 0.000, 0.000, 0.000, 15:20:23.216
194, 112.95, 528.47, 16.18, 17.73, 0.000, 0.000, 0.000, 15:20:23.216
195, 126.22, 1145.57, 14.92, 13.75, 0.000, 0.000, 0.000, 15:20:23.217
196, -85.15, 720.21, 1.18, 3.52, 0.000, 0.000, 0.000, 15:20:23.217
197, 21.23, 419.13, 15.51, 13.11, 0.000, 0.000, 0.000, 15:20:23.238
198, 213.95, 1149.61, 21.51, 18.60, 0.000, 0.000, 0.000, 15:20:23.239
199, -16.35, 846.45, 4.96, 12.27, 0.000, 0.000, 0.000, 15:20:23.240
200, -59.10, 463.29, 5.18, 3.46, 0.000, 0.000, 0.000, 15:20:23.240
0, 179.30, -226.60, 17.53, 16.55, 0.000, 0.000, 0.000, 15:20:23.240
1, 49.57, 88.20, 10.17, 11.20, 0.000, 0.000, 0.000, 15:20:23.261
2, -101.44, -676.94, 3.05, 7.29, 0.000, 0.000, 0.000, 15:20:23.261
3, 103.48, -652.15, 14.42, 12.77, 0.000, 0.000, 0.000, 15:20:23.262
4, 125.65, 292.16, 16.03, 14.20, 0.000, 0.000, 0.000, 15:20:23.262
5, -87.21, -125.58, 1.47, 9.92, 0.000, 0.000, 0.000, 15:20:23.283
6, 19.83, -983.46, 11.98, 11.57, 0.000, 0.000, 0.000, 15:20:23.284
7, 198.96, -149.64, 20.75, 20.38, 0.000, 0.000, 0.000, 15:20:23.285
8, -15.66, 70.05, 9.59, 7.36, 0.000, 0.000, 0.000, 15:20:23.286
9, -75.11, -665.27, 5.93, 6.92, 0.000, 0.000, 0.000, 15:20:23.306
10, 172.36, -62.22, 21.49, 19.88, 0.000, 0.000, 0.000, 15:20:23.307
11, 43.43, 155.21, 7.40, 10.94, 0.000, 0.000, 0.000, 15:20:23.307
12, -98.85, -510.21, 4.10, 4.79, 0.000, 0.000, 0.000, 15:20:23.307
13, 93.68, -531.50, 18.86, 14.85, 0.000, 0.000, 0.000, 15:20:23.307
14, 105.20, 171.57, 15.44, 15.35, 0.000, 0.000, 0.000, 15:20:23.308
15, -65.88, -262.72, 2.69, 6.30, 0.000, 0.000, 0.000, 15:20:23.328
16, 29.60, -811.83, 11.77, 11.66, 0.000, 0.000, 0.000, 15:20:23.329
17, 194.74, -84.58, 19.74, 20.46, 0.000, 0.000, 0.000, 15:20:23.329
18, -21.13, -81.69, 5.61, 8.87, 0.000, 0.000, 0.000, 15:20:23.329
19, -67.71, -546.35, 6.82, 5.10, 0.000, 0.000, 0.000, 15:20:23.351
20, 175.71, -260.75, 17.55, 15.08, 0.000, 0.000, 0.000, 15:20:23.351
21, 52.42, 73.97, 8.90, 12.47, 0.000, 0.000, 0.000, 15:20:23.352
22, -110.29, -485.69, 3.90, 3.25, 0.000, 0.000, 0.000, 15:20:23.352
23, 75.02, -428.96, 16.65, 16.56, 0.000, 0.000, 0.000, 15:20:23.373
24, 87.78, 117.78, 17.44, 14.37, 0.000, 0.000, 0.000, 15:20:23.374
25, -60.98, -357.91, 3.85, 7.02, 0.000, 0.000, 0.000, 15:20:23.375
26, 35.20, -573.37, 11.76, 9.23, 0.000, 0.000, 0.000, 15:20:23.375
27, 202.08, -123.67, 18.09, 14.01, 0.000, 0.000, 0.000, 15:20:23.396
28, -14.79, -170.27, 6.23, 9.31, 0.000, 0.000, 0.000, 15:20:23.396
29, -72.45, -601.30, 6.09, 7.02, 0.000, 0.000, 0.000, 15:20:23.397
30, 187.19, -195.99, 16.66, 14.91, 0.000, 0.000, 0.000, 15:20:23.397
31, 71.93, 23.39, 11.58, 13.98, 0.000, 0.000, 0.000, 15:20:23.398
32, -84.80, -606.27, 0.32, 9.56, 0.000, 0.000, 0.000, 15:20:23.398
33, 113.64, -356.08, 15.33, 15.25, 0.000, 0.000, 0.000, 15:20:23.418
34, 127.83, 208.70, 13.76, 18.41, 0.000, 0.000, 0.000, 15:20:23.419
35, -80.82, -287.07, 2.57, 7.02, 0.000, 0.000, 0.000, 15:20:23.419
36, 2.01, -577.97, 7.78, 9.64, 0.000, 0.000, 0.000, 15:20:23.419
37, 183.41, -25.76, 15.39, 16.59, 0.000, 0.000, 0.000, 15:20:23.441
38, -18.14, -116.19, 5.85, 7.63, 0.000, 0.000, 0.000, 15:20:23.441
39, -60.06, -611.52, 8.77, 6.77, 0.000, 0.000, 0.000, 15:20:23.442
40, 172.32, -376.07, 19.26, 20.13, 0.000, 0.000, 0.000, 15:20:23.442
41, 52.35, 145.37, 9.35, 10.37, 0.000, 0.000, 0.000, 15:20:23.464
42, -100.64, -443.29, 2.01, 6.57, 0.000, 0.000, 0.000, 15:20:23.464
43, 134.33, -533.14, 15.04, 18.48, 0.000, 0.000, 0.000, 15:20:23.464
44, 135.16, 41.71, 14.00, 12.31, 0.000, 0.000, 0.000, 15:20:23.464
45, -86.79, -291.71, 7.44, 6.78, 0.000, 0.000, 0.000, 15:20:23.486
46, -1.35, -576.08, 14.26, 15.06, 0.000, 0.000, 0.000, 15:20:23.486
47, 167.06, 19.32, 19.58, 17.70, 0.000, 0.000, 0.000, 15:20:23.486
48, -26.67, -152.02, 3.91, 8.47, 0.000, 0.000, 0.000, 15:20:23.487
49, -38.38, -747.05, 6.04, 4.75, 0.000, 0.000, 0.000, 15:20:23.487
50, 196.82, -278.97, 19.12, 18.56, 0.000, 0.000, 0.000, 15:20:23.487
51, 71.79, 251.77, 11.17, 11.05, 0.000, 0.000, 0.000, 15:20:23.509
52, -82.43, -443.32, 4.51, 7.85, 0.000, 0.000, 0.000, 15:20:23.509
53, 108.50, -424.32, 16.57, 16.70, 0.000, 0.000, 0.000, 15:20:23.510
54, 104.15, 89.31, 13.61, 13.97, 0.000, 0.000, 0.000, 15:20:23.510
55, -92.86, -314.12, 1.51, 8.19, 0.000, 0.000, 0.000, 15:20:23.531
56, -0.63, -678.26, 10.57, 11.04, 0.000, 0.000, 0.000, 15:20:23.531
57, 190.89, -10.11, 18.93, 14.20, 0.000, 0.000, 0.000, 15:20:23.532
58, -28.62, -68.49, 7.12, 8.27, 0.000, 0.000, 0.000, 15:20:23.532
59, -61.88, -650.88, 4.57, 8.30, 0.000, 0.000, 0.000, 15:20:23.553
60, 188.05, -220.15, 20.30, 16.19, 0.000, 0.000, 0.000, 15:20:23.554
61, 46.38, 79.38, 10.92, 13.40, 0.000, 0.000, 0.000, 15:20:23.554
62, -96.68, -519.37, 1.27, 9.99, 0.000, 0.000, 0.000, 15:20:23.554
63, 107.97, -479.43, 14.37, 15.31, 0.000, 0.000, 0.000, 15:20:23.576
64, 127.22, 115.64, 16.40, 13.87, 0.000, 0.000, 0.000, 15:20:23.576
65, -79.22, -285.43, 5.36, 8.55, 0.000, 0.000, 0.000, 15:20:23.577
66, 30.08, -686.02, 8.27, 12.24, 0.000, 0.000, 0.000, 15:20:23.577
67, 199.38, -29.53, 18.84, 11.86, 0.000, 0.000, 0.000, 15:20:23.577
68, -36.85, -88.61, 4.35, 5.80, 0.000, 0.000, 0.000, 15:20:23.577
69, -56.42, -630.81, 6.98, 10.63, 0.000, 0.000, 0.000, 15:20:23.598
70, 178.95, -228.35, 20.49, 17.90, 0.000, 0.000, 0.000, 15:20:23.599
71, 31.85, 85.15, 9.01, 11.98, 0.000, 0.000, 0.000, 15:20:23.599
72, -73.98, -527.12, 4.83, 6.04, 0.000, 0.000, 0.000, 15:20:23.599
73, 109.45, -492.90, 20.91, 16.59, 0.000, 0.000, 0.000, 15:20:23.621
74, 136.50, 91.31, 13.22, 16.05, 0.000, 0.000, 0.000, 15:20:23.621
75, -68.08, -293.77, 3.84, 11.93, 0.000, 0.000, 0.000, 15:20:23.622
76, 10.32, -626.75, 11.98, 15.73, 0.000, 0.000, 0.000, 15:20:23.622
77, 179.19, 14.75, 18.97, 15.53, 0.000, 0.000, 0.000, 15:20:23.643
78, -31.99, -63.25, 4.87, 4.99, 0.000, 0.000, 0.000, 15:20:23.644
79, -67.77, -657.73, 6.68, 10.72, 0.000, 0.000, 0.000, 15:20:23.644
80, 186.87, -232.66, 19.86, 22.23, 0.000, 0.000, 0.000, 15:20:23.644
81, 48.76, 87.38, 11.63, 12.73, 0.000, 0.000, 0.000, 15:20:23.666
82, -76.47, -503.09, 5.08, 4.83, 0.000, 0.000, 0.000, 15:20:23.666
83, 117.52, -485.11, 15.76, 16.95, 0.000, 0.000, 0.000, 15:20:23.667
84, 127.37, 113.06, 13.07, 14.00, 0.000, 0.000, 0.000, 15:20:23.667
85, -65.07, -298.54, 0.16, 2.90, 0.000, 0.000, 0.000, 15:20:23.667
86, 1.58, -657.81, 13.19, 11.14, 0.000, 0.000, 0.000, 15:20:23.667
87, 185.23, 11.57, 18.39, 18.72, 0.000, 0.000, 0.000, 15:20:23.689
88, -6.89, -70.62, 4.17, 7.93, 0.000, 0.000, 0.000, 15:20:23.690
89, -57.12, -655.57, 7.11, 8.53, 0.000, 0.000, 0.000, 15:20:23.690
90, 185.53, -236.05, 21.18, 19.81, 0.000, 0.000, 0.000, 15:20:23.690
91, 42.75, 77.58, 7.58, 8.89, 0.000, 0.000, 0.000, 15:20:23.712
92, -83.58, -526.44, 2.51, 6.61, 0.000, 0.000, 0.000, 15:20:23.712
93, 117.47, -475.40, 16.68, 13.23, 0.000, 0.000, 0.000, 15:20:23.713
94, 131.93, 119.23, 12.97, 16.85, 0.000, 0.000, 0.000, 15:20:23.713
95, -87.73, -284.80, 1.72, 6.64, 0.000, 0.000, 0.000, 15:20:23.733
96, 17.01, -634.53, 11.77, 9.68, 0.000, 0.000, 0.000, 15:20:23.734
97, 188.17, 11.19, 21.77, 15.18, 0.000, 0.000, 0.000, 15:20:23.734
98, -28.79, -68.79, 9.68, 7.04, 0.000, 0.000, 0.000, 15:20:23.734
99, -50.55, -651.75, 9.30, 6.59, 0.000, 0.000, 0.000, 15:20:23.756
100, 185.96, -217.99, 16.68, 15.42, 0.000, 0.000, 0.000, 15:20:23.756
101, 51.61, 95.24, 6.51, 10.12, 0.000, 0.000, 0.000, 15:20:23.757
102, -91.21, -507.20, 5.00, 6.71, 0.000, 0.000, 0.000, 15:20:23.757
103, 111.43, -470.00, 16.16, 16.13, 0.000, 0.000, 0.000, 15:20:23.757
104, 129.05, 115.85, 17.63, 15.85, 0.000, 0.000, 0.000, 15:20:23.757
105, -74.92, -294.50, 2.14, 9.26, 0.000, 0.000, 0.000, 15:20:23.778
106, 16.39, -649.32, 10.67, 9.65, 0.000, 0.000, 0.000, 15:20:23.779
107, 201.54, 8.09, 19.15, 18.25, 0.000, 0.000, 0.000, 15:20:23.779
108, -25.21, -84.14, 8.24, 10.57, 0.000, 0.000, 0.000, 15:20:23.779
109, -58.29, -646.94, 4.70, 11.63, 0.000, 0.000, 0.000, 15:20:23.801
110, 195.03, -231.28, 22.68, 17.76, 0.000, 0.000, 0.000, 15:20:23.802
111, 44.94, 89.45, 9.42, 9.25, 0.000, 0.000, 0.000, 15:20:23.802
112, -94.47, -532.37, 2.02, 8.66, 0.000, 0.000, 0.000, 15:20:23.802
113, 117.80, -487.59, 17.75, 17.45, 0.000, 0.000, 0.000, 15:20:23.824
114, 135.47, 109.71, 12.65, 15.65, 0.000, 0.000, 0.000, 15:20:23.824
115, -67.22, -288.62, 5.65, 3.72, 0.000, 0.000, 0.000, 15:20:23.825
116, 25.42, -642.12, 14.44, 12.80, 0.000, 0.000, 0.000, 15:20:23.825
117, 184.35, 20.86, 15.05, 18.19, 0.000, 0.000, 0.000, 15:20:23.846
118, -21.00, -85.43, 3.54, 6.97, 0.000, 0.000, 0.000, 15:20:23.846
119, -49.09, -675.47, 7.11, 6.20, 0.000, 0.000, 0.000, 15:20:23.847
120, 196.38, -208.43, 18.21, 15.75, 0.000, 0.000, 0.000, 15:20:23.847
121, 42.28, 81.18, 10.19, 15.30, 0.000, 0.000, 0.000, 15:20:23.847
122, -101.37, -539.52, 3.85, 7.47, 0.000, 0.000, 0.000, 15:20:23.848
123, 122.00, -482.42, 17.64, 13.56, 0.000, 0.000, 0.000, 15:20:23.868
124, 127.82, 132.91, 18.62, 14.59, 0.000, 0.000, 0.000, 15:20:23.869
125, -80.15, -298.18, 4.85, 6.28, 0.000, 0.000, 0.000, 15:20:23.869
126, 19.98, -652.04, 13.00, 13.58, 0.000, 0.000, 0.000, 15:20:23.869
127, 182.29, 10.86, 17.81, 19.02, 0.000, 0.000, 0.000, 15:20:23.891
128, -31.82, -72.45, 5.45, 12.15, 0.000, 0.000, 0.000, 15:20:23.891
129, -55.74, -668.01, 6.26, 12.41, 0.000, 0.000, 0.000, 15:20:23.892
130, 183.71, -213.83, 19.01, 17.97, 0.000, 0.000, 0.000, 15:20:23.892
131, 38.96, 79.19, 10.05, 12.44, 0.000, 0.000, 0.000, 15:20:23.913
132, -95.34, -526.99, 1.48, 5.46, 0.000, 0.000, 0.000, 15:20:23.914
133, 112.66, -480.84, 20.39, 16.08, 0.000, 0.000, 0.000, 15:20:23.914
134, 133.12, 120.82, 13.34, 17.68, 0.000, 0.000, 0.000, 15:20:23.914
135, -76.39, -315.47, 4.25, 4.32, 0.000, 0.000, 0.000, 15:20:23.936
136, 29.37, -629.46, 11.27, 11.37, 0.000, 0.000, 0.000, 15:20:23.936
137, 181.50, 29.54, 18.13, 18.42, 0.000, 0.000, 0.000, 15:20:23.936
138, -34.62, -66.65, 5.64, 7.22, 0.000, 0.000, 0.000, 15:20:23.937
139, -73.30, -647.39, 5.91, 6.69, 0.000, 0.000, 0.000, 15:20:23.937
140, 167.90, -184.09, 22.38, 17.14, 0.000, 0.000, 0.000, 15:20:23.937
141, 55.44, 85.50, 9.19, 10.09, 0.000, 0.000, 0.000, 15:20:23.958
142, -79.33, -540.38, 0.72, 4.81, 0.000, 0.000, 0.000, 15:20:23.959
143, 139.37, -488.81, 13.99, 12.98, 0.000, 0.000, 0.000, 15:20:23.959
144, 132.18, 91.67, 14.72, 14.57, 0.000, 0.000, 0.000, 15:20:23.959
145, -68.99, -329.63, 2.71, 9.34, 0.000, 0.000, 0.000, 15:20:23.981
146, 52.59, -631.50, 13.59, 9.78, 0.000, 0.000, 0.000, 15:20:23.981
147, 219.26, 43.48, 16.48, 14.81, 0.000, 0.000, 0.000, 15:20:23.981
148, -11.54, -59.65, 3.35, 9.50, 0.000, 0.000, 0.000, 15:20:23.982
149, -45.63, -631.04, 7.77, 11.25, 0.000, 0.000, 0.000, 15:20:24.003
150, 200.11, -184.56, 20.39, 20.01, 0.000, 0.000, 0.000, 15:20:24.004
151, 52.24, 76.07, 9.81, 12.38, 0.000, 0.000, 0.000, 15:20:24.004
152, -105.65, -541.03, 5.45, 5.70, 0.000, 0.000, 0.000, 15:20:24.004
153, 102.15, -454.18, 16.86, 14.37, 0.000, 0.000, 0.000, 15:20:24.026
154, 107.19, 132.85, 11.59, 18.31, 0.000, 0.000, 0.000, 15:20:24.027
155, -83.13, -316.71, 4.71, 6.76, 0.000, 0.000, 0.000, 15:20:24.027
156, 30.01, -645.85, 12.14, 11.22, 0.000, 0.000, 0.000, 15:20:24.028
157, 174.34, 28.39, 18.28, 18.15, 0.000, 0.000, 0.000, 15:20:24.028
158, -47.75, -92.75, 5.28, 11.78, 0.000, 0.000, 0.000, 15:20:24.028
159, -51.89, -646.60, 6.73, 6.01, 0.000, 0.000, 0.000, 15:20:24.048
160, 189.10, -183.03, 18.47, 14.95, 0.000, 0.000, 0.000, 15:20:24.049
161, 24.42, 77.33, 8.64, 11.00, 0.000, 0.000, 0.000, 15:20:24.049
162, -86.22, -548.27, -1.79, 4.47, 0.000, 0.000, 0.000, 15:20:24.049
163, 125.63, -484.24, 16.92, 14.42, 0.000, 0.000, 0.000, 15:20:24.071
164, 100.15, 105.59, 14.68, 15.85, 0.000, 0.000, 0.000, 15:20:24.071
165, -79.61, -324.87, 0.06, 2.65, 0.000, 0.000, 0.000, 15:20:24.071
166, 41.54, -654.09, 9.78, 13.09, 0.000, 0.000, 0.000, 15:20:24.072
167, 179.92, 14.45, 17.26, 17.33, 0.000, 0.000, 0.000, 15:20:24.093
168, -35.28, -91.92, 6.49, 6.10, 0.000, 0.000, 0.000, 15:20:24.094
169, -63.26, -666.02, 8.31, 7.49, 0.000, 0.000, 0.000, 15:20:24.094
170, 194.88, -202.19, 19.48, 20.00, 0.000, 0.000, 0.000, 15:20:24.095
171, 47.92, 75.97, 14.07, 10.54, 0.000, 0.000, 0.000, 15:20:24.116
172, -87.05, -542.04, 2.72, 4.22, 0.000, 0.000, 0.000, 15:20:24.116
173, 127.42, -459.45, 15.95, 11.69, 0.000, 0.000, 0.000, 15:20:24.116
174, 124.46, 132.07, 15.57, 13.85, 0.000, 0.000, 0.000, 15:20:24.117
175, -77.37, -314.52, 0.64, 8.52, 0.000, 0.000, 0.000, 15:20:24.117
176, 21.75, -643.70, 14.05, 13.80, 0.000, 0.000, 0.000, 15:20:24.118
177, 187.40, 19.50, 15.13, 16.35, 0.000, 0.000, 0.000, 15:20:24.138
178, -35.67, -102.06, 6.73, 11.13, 0.000, 0.000, 0.000, 15:20:24.139
179, -60.56, -670.31, 7.86, 11.27, 0.000, 0.000, 0.000, 15:20:24.139
180, 175.28, -197.41, 21.15, 17.99, 0.000, 0.000, 0.000, 15:20:24.139
181, 51.93, 69.01, 10.16, 11.18, 0.000, 0.000, 0.000, 15:20:24.161
182, -90.31, -544.56, 2.92, 10.71, 0.000, 0.000, 0.000, 15:20:24.162
183, 146.78, -465.60, 19.38, 21.08, 0.000, 0.000, 0.000, 15:20:24.162
184, 111.23, 108.80, 14.81, 10.89, 0.000, 0.000, 0.000, 15:20:24.162
185, -78.26, -312.01, 9.36, 6.54, 0.000, 0.000, 0.000, 15:20:24.184
186, 49.52, -655.76, 11.72, 7.96, 0.000, 0.000, 0.000, 15:20:24.184
187, 182.96, 31.77, 18.93, 18.64, 0.000, 0.000, 0.000, 15:20:24.184
188, -37.14, -98.34, 4.50, 5.89, 0.000, 0.000, 0.000, 15:20:24.184
189, -43.87, -659.99, 6.98, 9.83, 0.000, 0.000, 0.000, 15:20:24.206
190, 182.52, -192.64, 20.03, 19.41, 0.000, 0.000, 0.000, 15:20:24.207
191, 36.31, 73.03, 8.23, 7.80, 0.000, 0.000, 0.000, 15:20:24.207
192, -93.31, -546.42, 0.85, 4.04, 0.000, 0.000, 0.000, 15:20:24.207
193, 142.02, -459.92, 17.73, 17.61, 0.000, 0.000, 0.000, 15:20:24.208
194, 124.20, 115.22, 13.53, 17.11, 0.000, 0.000, 0.000, 15:20:24.208
195, -59.34, -333.63, 6.80, 4.08, 0.000, 0.000, 0.000, 15:20:24.229
196, 42.10, -633.53, 11.98, 13.34, 0.000, 0.000, 0.000, 15:20:24.229
197, 174.63, 38.92, 22.67, 19.27, 0.000, 0.000, 0.000, 15:20:24.229
198, -33.14, -100.52, 9.49, 7.18, 0.000, 0.000, 0.000, 15:20:24.229
199, -49.79, -680.07, 6.83, 8.65, 0.000, 0.000, 0.000, 15:20:24.251
200, 198.55, -191.65, 17.14, 17.65, 0.000, 0.000, 0.000, 15:20:24.251
0, 41.68, 84.12, 5.65, 9.91, 0.000, 0.000, 0.000, 15:20:24.252
1, -84.29, -539.19, 3.85, 6.91, 0.000, 0.000, 0.000, 15:20:24.252
2, 136.34, -437.67, 20.01, 19.52, 0.000, 0.000, 0.000, 15:20:24.253
3, 114.89, 129.49, 17.46, 16.68, 0.000, 0.000, 0.000, 15:20:24.274
4, -65.47, -320.36, 5.06, 5.98, 0.000, 0.000, 0.000, 15:20:24.274
5, 23.24, -634.81, 12.96, 14.13, 0.000, 0.000, 0.000, 15:20:24.274
6, 178.43, 49.99, 18.63, 17.15, 0.000, 0.000, 0.000, 15:20:24.274
7, -45.14, -88.06, 8.34, 12.00, 0.000, 0.000, 0.000, 15:20:24.296
8, -46.57, -656.71, 8.76, 8.70, 0.000, 0.000, 0.000, 15:20:24.297
9, 193.63, -171.87, 19.44, 18.34, 0.000, 0.000, 0.000, 15:20:24.297
10, 25.88, 68.10, 10.25, 11.88, 0.000, 0.000, 0.000, 15:20:24.297
11, -80.10, -545.96, 0.19, 7.66, 0.000, 0.000, 0.000, 15:20:24.318
12, 121.94, -438.00, 22.44, 14.70, 0.000, 0.000, 0.000, 15:20:24.319
13, 113.10, 128.08, 13.79, 12.26, 0.000, 0.000, 0.000, 15:20:24.320
14, -85.92, -336.00, 2.74, 8.20, 0.000, 0.000, 0.000, 15:20:24.320
15, 30.77, -635.02, 14.25, 13.22, 0.000, 0.000, 0.000, 15:20:24.341
16, 173.47, 35.30, 18.16, 11.79, 0.000, 0.000, 0.000, 15:20:24.341
17, -48.55, -100.68, 4.09, 10.13, 0.000, 0.000, 0.000, 15:20:24.341
18, -60.77, -673.07, 5.18, 5.54, 0.000, 0.000, 0.000, 15:20:24.342
19, 178.22, -191.17, 14.36, 15.43, 0.000, 0.000, 0.000, 15:20:24.343
20, 33.54, 55.62, 4.13, 10.23, 0.000, 0.000, 0.000, 15:20:24.343
21, -86.65, -558.44, 3.64, 9.32, 0.000, 0.000, 0.000, 15:20:24.363
22, 133.05, -447.34, 15.96, 15.95, 0.000, 0.000, 0.000, 15:20:24.364
23, 102.36, 106.42, 15.91, 15.05, 0.000, 0.000, 0.000, 15:20:24.364
24, -86.49, -350.12, 4.13, 2.44, 0.000, 0.000, 0.000, 15:20:24.364
25, 30.43, -639.49, 14.19, 11.21, 0.000, 0.000, 0.000, 15:20:24.386
26, 177.11, 41.86, 20.94, 18.06, 0.000, 0.000, 0.000, 15:20:24.386
27, -31.95, -117.81, 7.19, 8.91, 0.000, 0.000, 0.000, 15:20:24.387
28, -42.77, -684.16, 5.05, 9.31, 0.000, 0.000, 0.000, 15:20:24.388
29, 190.60, -166.00, 19.27, 16.73, 0.000, 0.000, 0.000, 15:20:24.409
30, 28.03, 50.73, 8.88, 9.68, 0.000, 0.000, 0.000, 15:20:24.409
31, -85.92, -569.43, -0.42, 7.08, 0.000, 0.000, 0.000, 15:20:24.410
32, 142.11, -429.05, 15.29, 19.13, 0.000, 0.000, 0.000, 15:20:24.410
33, 101.76, 116.88, 11.71, 13.68, 0.000, 0.000, 0.000, 15:20:24.431
34, -92.97, -352.41, 4.10, 7.34, 0.000, 0.000, 0.000, 15:20:24.431
35, 28.05, -620.43, 12.94, 11.31, 0.000, 0.000, 0.000, 15:20:24.432
36, 174.30, 37.48, 18.34, 15.58, 0.000, 0.000, 0.000, 15:20:24.432
37, -37.71, -132.95, 8.47, 6.37, 0.000, 0.000, 0.000, 15:20:24.432
38, -39.71, -663.82, 6.54, 9.10, 0.000, 0.000, 0.000, 15:20:24.432
39, 190.88, -182.12, 15.99, 14.71, 0.000, 0.000, 0.000, 15:20:24.453
40, 22.50, 50.26, 7.65, 9.94, 0.000, 0.000, 0.000, 15:20:24.454
41, -78.30, -551.42, 0.89, 3.30, 0.000, 0.000, 0.000, 15:20:24.454
42, 129.43, -434.18, 19.17, 20.19, 0.000, 0.000, 0.000, 15:20:24.454
43, 111.27, 117.20, 14.62, 14.21, 0.000, 0.000, 0.000, 15:20:24.476
44, -77.51, -356.40, 2.86, 5.95, 0.000, 0.000, 0.000, 15:20:24.476
45, 46.36, -620.94, 9.96, 12.23, 0.000, 0.000, 0.000, 15:20:24.499
46, 177.90, 47.09, 17.21, 15.54, 0.000, 0.000, 0.000, 15:20:24.499
47, -51.43, -131.59, 2.45, 6.60, 0.000, 0.000, 0.000, 15:20:24.499
48, -36.35, -652.84, 7.48, 5.11, 0.000, 0.000, 0.000, 15:20:24.500
49, 188.47, -163.90, 18.38, 16.58, 0.000, 0.000, 0.000, 15:20:24.500
50, 27.79, 62.17, 10.25, 14.89, 0.000, 0.000, 0.000, 15:20:24.501
51, -100.54, -566.94, 3.96, 7.08, 0.000, 0.000, 0.000, 15:20:24.521
52, 133.24, -419.70, 19.30, 13.51, 0.000, 0.000, 0.000, 15:20:24.521
53, 115.84, 135.81, 12.96, 20.03, 0.000, 0.000, 0.000, 15:20:24.522
54, -88.37, -355.48, 3.02, 12.23, 0.000, 0.000, 0.000, 15:20:24.522
55, 45.37, -638.46, 14.60, 13.71, 0.000, 0.000, 0.000, 15:20:24.522
56, 179.93, 63.13, 21.97, 17.55, 0.000, 0.000, 0.000, 15:20:24.522
57, -48.22, -127.11, 3.22, 9.60, 0.000, 0.000, 0.000, 15:20:24.544
58, -38.60, -686.11, 7.17, 9.36, 0.000, 0.000, 0.000, 15:20:24.544
59, 200.86, -138.11, 21.48, 20.85, 0.000, 0.000, 0.000, 15:20:24.544
60, 37.71, 42.77, 13.01, 8.85, 0.000, 0.000, 0.000, 15:20:24.544
61, -88.23, -591.86, 5.32, 4.65, 0.000, 0.000, 0.000, 15:20:24.566
62, 139.69, -427.37, 18.80, 16.88, 0.000, 0.000, 0.000, 15:20:24.566
63, 104.86, 121.71, 11.19, 14.73, 0.000, 0.000, 0.000, 15:20:24.566
64, -103.46, -374.18, 4.65, 4.50, 0.000, 0.000, 0.000, 15:20:24.566
65, 43.01, -628.77, 15.21, 8.92, 0.000, 0.000, 0.000, 15:20:24.588
66, 183.30, 45.01, 18.49, 14.88, 0.000, 0.000, 0.000, 15:20:24.589
67, -42.97, -149.79, 2.34, 6.50, 0.000, 0.000, 0.000, 15:20:24.589
68, -50.10, -691.15, 4.09, 5.77, 0.000, 0.000, 0.000, 15:20:24.589
69, 197.55, -163.07, 18.80, 16.38, 0.000, 0.000, 0.000, 15:20:24.611
70, 25.52, 19.96, 8.12, 10.72, 0.000, 0.000, 0.000, 15:20:24.611
71, -105.57, -590.03, 7.66, 8.58, 0.000, 0.000, 0.000, 15:20:24.611
72, 135.41, -407.48, 18.69, 15.21, 0.000, 0.000, 0.000, 15:20:24.612
73, 113.42, 149.85, 16.25, 14.99, 0.000, 0.000, 0.000, 15:20:24.615
74, -84.89, -357.08, 2.22, 7.63, 0.000, 0.000, 0.000, 15:20:24.615
75, 35.07, -612.46, 15.13, 15.07, 0.000, 0.000, 0.000, 15:20:24.635
76, 188.97, 66.25, 15.74, 17.15, 0.000, 0.000, 0.000, 15:20:24.635
77, -37.77, -128.70, 6.79, 8.79, 0.000, 0.000, 0.000, 15:20:24.635
78, -37.47, -674.46, 7.53, 8.88, 0.000, 0.000, 0.000, 15:20:24.636
79, 184.44, -144.75, 17.74, 20.86, 0.000, 0.000, 0.000, 15:20:24.656
80, 34.42, 51.98, 8.35, 10.16, 0.000, 0.000, 0.000, 15:20:24.656
81, -93.53, -582.22, 1.53, 9.41, 0.000, 0.000, 0.000, 15:20:24.657
82, 153.51, -412.02, 15.94, 18.96, 0.000, 0.000, 0.000, 15:20:24.657
83, 115.02, 120.61, 14.10, 8.95, 0.000, 0.000, 0.000, 15:20:24.679
84, -88.98, -382.38, 0.88, 5.51, 0.000, 0.000, 0.000, 15:20:24.679
85, 47.25, -608.72, 9.97, 13.74, 0.000, 0.000, 0.000, 15:20:24.679
86, 172.65, 69.53, 17.56, 19.74, 0.000, 0.000, 0.000, 15:20:24.680
87, -59.53, -130.62, 5.80, 8.68, 0.000, 0.000, 0.000, 15:20:24.701
88, -61.26, -675.53, 5.78, 11.40, 0.000, 0.000, 0.000, 15:20:24.701
89, 199.88, -134.16, 22.56, 18.41, 0.000, 0.000, 0.000, 15:20:24.701
90, 17.82, 66.23, 7.41, 9.60, 0.000, 0.000, 0.000, 15:20:24.702
91, -76.97, -574.70, 3.76, 4.44, 0.000, 0.000, 0.000, 15:20:24.703
92, 146.74, -409.03, 18.67, 15.46, 0.000, 0.000, 0.000, 15:20:24.703
93, 108.72, 143.01, 14.28, 14.89, 0.000, 0.000, 0.000, 15:20:24.723
94, -86.22, -359.65, 0.72, 1.13, 0.000, 0.000, 0.000, 15:20:24.724
95, 44.48, -614.61, 12.38, 9.50, 0.000, 0.000, 0.000, 15:20:24.724
96, 179.69, 61.23, 17.34, 15.94, 0.000, 0.000, 0.000, 15:20:24.724
97, -42.62, -131.98, 5.31, 3.71, 0.000, 0.000, 0.000, 15:20:24.746
98, -30.32, -680.29, 10.39, 9.70, 0.000, 0.000, 0.000, 15:20:24.746
99, 197.49, -145.10, 20.63, 15.85, 0.000, 0.000, 0.000, 15:20:24.747
100, 23.56, 45.31, 7.58, 12.26, 0.000, 0.000, 0.000, 15:20:24.747
101, -91.88, -582.78, 5.87, 6.95, 0.000, 0.000, 0.000, 15:20:24.768
102, 148.17, -413.10, 20.36, 17.87, 0.000, 0.000, 0.000, 15:20:24.769
103, 99.86, 130.75, 14.27, 14.06, 0.000, 0.000, 0.000, 15:20:24.769
104, -96.17, -371.18, 4.03, 8.72, 0.000, 0.000, 0.000, 15:20:24.769
105, 38.39, -615.82, 16.43, 14.72, 0.000, 0.000, 0.000, 15:20:24.792
106, 195.54, 61.26, 17.67, 13.82, 0.000, 0.000, 0.000, 15:20:24.793
107, -41.09, -140.17, 3.22, 7.88, 0.000, 0.000, 0.000, 15:20:24.793
108, -47.03, -697.88, 4.16, 8.81, 0.000, 0.000, 0.000, 15:20:24.793
109, 199.61, -119.89, 16.45, 18.64, 0.000, 0.000, 0.000, 15:20:24.793
110, 27.22, 61.24, 9.15, 10.48, 0.000, 0.000, 0.000, 15:20:24.794
111, -98.19, -574.68, 3.67, 8.42, 0.000, 0.000, 0.000, 15:20:24.813
112, 151.66, -397.51, 19.09, 16.66, 0.000, 0.000, 0.000, 15:20:24.814
113, 114.44, 131.60, 11.58, 14.19, 0.000, 0.000, 0.000, 15:20:24.814
114, -96.11, -372.45, 4.89, 6.91, 0.000, 0.000, 0.000, 15:20:24.814
115, 45.30, -615.61, 12.46, 11.11, 0.000, 0.000, 0.000, 15:20:24.836
116, 188.58, 54.61, 20.25, 17.92, 0.000, 0.000, 0.000, 15:20:24.837
117, -42.87, -149.44, 4.26, 10.42, 0.000, 0.000, 0.000, 15:20:24.837
118, -44.85, -672.89, 7.05, 8.70, 0.000, 0.000, 0.000, 15:20:24.837
119, 192.67, -134.98, 16.73, 14.01, 0.000, 0.000, 0.000, 15:20:24.858
120, 1.79, 38.44, 6.05, 10.96, 0.000, 0.000, 0.000, 15:20:24.859
121, -78.72, -580.16, 2.65, 5.54, 0.000, 0.000, 0.000, 15:20:24.859
122, 155.00, -398.49, 20.09, 14.82, 0.000, 0.000, 0.000, 15:20:24.859
123, 110.34, 123.22, 15.25, 16.08, 0.000, 0.000, 0.000, 15:20:24.881
124, -94.93, -379.62, 4.59, 3.37, 0.000, 0.000, 0.000, 15:20:24.881
125, 59.08, -607.69, 12.65, 11.47, 0.000, 0.000, 0.000, 15:20:24.881
126, 181.00, 58.07, 17.30, 20.05, 0.000, 0.000, 0.000, 15:20:24.882
127, -44.56, -138.83, 3.17, 13.48, 0.000, 0.000, 0.000, 15:20:24.882
128, -26.68, -679.85, 6.82, 6.05, 0.000, 0.000, 0.000, 15:20:24.882
129, 196.16, -130.68, 18.97, 19.08, 0.000, 0.000, 0.000, 15:20:24.903
130, 17.66, 43.01, 7.91, 9.58, 0.000, 0.000, 0.000, 15:20:24.904
131, -88.29, -580.32, 5.01, 8.18, 0.000, 0.000, 0.000, 15:20:24.904
132, 152.50, -391.17, 18.95, 20.66, 0.000, 0.000, 0.000, 15:20:24.904
133, 83.55, 132.71, 14.72, 12.55, 0.000, 0.000, 0.000, 15:20:24.926
134, -84.77, -371.43, 1.35, 7.30, 0.000, 0.000, 0.000, 15:20:24.926
135, 75.07, -607.62, 12.48, 11.22, 0.000, 0.000, 0.000, 15:20:24.927
136, 181.61, 60.00, 19.03, 15.75, 0.000, 0.000, 0.000, 15:20:24.927
137, -62.42, -140.57, 2.75, 8.41, 0.000, 0.000, 0.000, 15:20:24.949
138, -44.90, -669.52, 7.79, 9.62, 0.000, 0.000, 0.000, 15:20:24.949
139, 197.60, -131.02, 19.69, 16.49, 0.000, 0.000, 0.000, 15:20:24.950
140, 25.80, 28.69, 7.92, 11.31, 0.000, 0.000, 0.000, 15:20:24.950
141, -104.62, -580.64, 5.61, 3.35, 0.000, 0.000, 0.000, 15:20:24.971
142, 135.89, -390.33, 18.89, 16.05, 0.000, 0.000, 0.000, 15:20:24.971
143, 112.22, 141.07, 13.66, 13.05, 0.000, 0.000, 0.000, 15:20:24.972
144, -83.82, -380.53, 0.69, 8.32, 0.000, 0.000, 0.000, 15:20:24.972
145, 46.71, -609.34, 14.88, 15.09, 0.000, 0.000, 0.000, 15:20:24.972
146, 156.80, 66.96, 17.87, 16.84, 0.000, 0.000, 0.000, 15:20:24.973
147, -59.86, -151.50, 5.20, 7.68, 0.000, 0.000, 0.000, 15:20:24.994
148, -46.96, -678.66, 7.81, 12.19, 0.000, 0.000, 0.000, 15:20:24.994
149, 204.92, -136.30, 19.88, 17.27, 0.000, 0.000, 0.000, 15:20:24.994
150, 23.30, 38.79, 9.39, 10.59, 0.000, 0.000, 0.000, 15:20:24.994
151, -84.28, -584.26, 6.32, 6.06, 0.000, 0.000, 0.000, 15:20:25.016
152, 150.99, -401.72, 19.38, 17.72, 0.000, 0.000, 0.000, 15:20:25.016
153, 100.95, 104.76, 14.86, 13.87, 0.000, 0.000, 0.000, 15:20:25.016
154, -77.68, -407.88, 0.59, 3.65, 0.000, 0.000, 0.000, 15:20:25.017
155, 80.15, -617.87, 9.61, 12.75, 0.000, 0.000, 0.000, 15:20:25.039
156, 196.98, 75.02, 14.80, 19.17, 0.000, 0.000, 0.000, 15:20:25.039
157, -42.60, -124.11, 4.62, 9.42, 0.000, 0.000, 0.000, 15:20:25.039
158, -17.93, -640.14, 10.92, 10.44, 0.000, 0.000, 0.000, 15:20:25.039
159, 218.55, -102.84, 18.16, 18.20, 0.000, 0.000, 0.000, 15:20:25.061
160, 24.22, 55.16, 11.23, 9.77, 0.000, 0.000, 0.000, 15:20:25.062
161, -94.86, -586.82, 5.61, 5.93, 0.000, 0.000, 0.000, 15:20:25.062
162, 132.32, -401.71, 18.83, 16.76, 0.000, 0.000, 0.000, 15:20:25.063
163, 83.74, 106.29, 12.74, 13.02, 0.000, 0.000, 0.000, 15:20:25.064
164, -92.34, -396.93, 2.15, 8.57, 0.000, 0.000, 0.000, 15:20:25.065
165, 75.04, -640.46, 10.55, 9.44, 0.000, 0.000, 0.000, 15:20:25.083
166, 167.74, 37.22, 15.46, 15.00, 0.000, 0.000, 0.000, 15:20:25.084
167, -57.36, -176.46, 1.01, 5.62, 0.000, 0.000, 0.000, 15:20:25.084
168, -43.26, -696.75, 8.54, 5.70, 0.000, 0.000, 0.000, 15:20:25.085
169, 178.29, -140.39, 19.58, 20.86, 0.000, 0.000, 0.000, 15:20:25.106
170, 13.90, 17.63, 6.11, 11.35, 0.000, 0.000, 0.000, 15:20:25.107
171, -92.65, -598.98, 5.08, 9.22, 0.000, 0.000, 0.000, 15:20:25.107
172, 128.62, -392.61, 21.40, 17.78, 0.000, 0.000, 0.000, 15:20:25.107
173, 94.13, 113.23, 12.33, 13.51, 0.000, 0.000, 0.000, 15:20:25.129
174, -69.06, -380.73, 0.77, 7.71, 0.000, 0.000, 0.000, 15:20:25.129
175, 56.38, -600.03, 16.66, 13.77, 0.000, 0.000, 0.000, 15:20:25.129
176, 155.81, 70.33, 20.10, 16.31, 0.000, 0.000, 0.000, 15:20:25.130
177, -36.04, -165.23, 5.22, 6.22, 0.000, 0.000, 0.000, 15:20:25.151
178, -30.05, -679.89, 10.42, 7.99, 0.000, 0.000, 0.000, 15:20:25.151
179, 184.32, -124.04, 17.58, 17.17, 0.000, 0.000, 0.000, 15:20:25.152
180, 9.75, 30.28, 7.05, 10.11, 0.000, 0.000, 0.000, 15:20:25.153
181, -66.62, -584.43, 4.30, 2.61, 0.000, 0.000, 0.000, 15:20:25.153
182, 148.03, -397.33, 18.46, 16.58, 0.000, 0.000, 0.000, 15:20:25.153
183, 86.14, 122.30, 12.61, 13.52, 0.000, 0.000, 0.000, 15:20:25.174
184, -76.26, -387.74, 4.20, 7.38, 0.000, 0.000, 0.000, 15:20:25.174
185, 59.58, -592.99, 18.51, 13.94, 0.000, 0.000, 0.000, 15:20:25.174
186, 172.77, 75.68, 17.81, 18.46, 0.000, 0.000, 0.000, 15:20:25.175
187, -40.58, -158.92, 5.07, 12.86, 0.000, 0.000, 0.000, 15:20:25.196
188, -35.62, -675.93, 10.26, 9.83, 0.000, 0.000, 0.000, 15:20:25.196
189, 179.22, -122.52, 21.27, 16.71, 0.000, 0.000, 0.000, 15:20:25.197
190, 13.06, 23.52, 5.89, 10.40, 0.000, 0.000, 0.000, 15:20:25.197
191, -84.99, -595.99, 3.33, 5.00, 0.000, 0.000, 0.000, 15:20:25.219
192, 163.01, -372.06, 20.05, 18.66, 0.000, 0.000, 0.000, 15:20:25.219
193, 96.73, 124.57, 14.26, 13.26, 0.000, 0.000, 0.000, 15:20:25.219
194, -85.31, -380.12, 5.93, 1.78, 0.000, 0.000, 0.000, 15:20:25.219
195, 63.25, -593.42, 11.14, 14.34, 0.000, 0.000, 0.000, 15:20:25.241
196, 170.53, 74.46, 15.23, 14.28, 0.000, 0.000, 0.000, 15:20:25.241
197, -40.65, -163.60, 0.36, 7.01, 0.000, 0.000, 0.000, 15:20:25.242
198, -24.17, -679.35, 8.51, 9.12, 0.000, 0.000, 0.000, 15:20:25.242
199, 180.75, -122.87, 19.23, 18.07, 0.000, 0.000, 0.000, 15:20:25.242
200, 12.67, 34.72, 6.23, 11.38, 0.000, 0.000, 0.000, 15:20:25.243
0, -67.13, -584.36, 5.41, 8.31, 0.000, 0.000, 0.000, 15:20:25.265
1, 164.01, -355.85, 23.74, 16.83, 0.000, 0.000, 0.000, 15:20:25.266
2, 93.79, 133.87, 13.92, 11.17, 0.000, 0.000, 0.000, 15:20:25.266
3, -84.47, -381.65, 1.62, 5.09, 0.000, 0.000, 0.000, 15:20:25.286
4, 63.74, -579.13, 13.43, 13.77, 0.000, 0.000, 0.000, 15:20:25.286
5, 163.21, 85.56, 16.65, 17.53, 0.000, 0.000, 0.000, 15:20:25.290
6, -37.20, -156.34, 5.93, 11.02, 0.000, 0.000, 0.000, 15:20:25.290
7, -10.65, -666.44, 5.50, 11.42, 0.000, 0.000, 0.000, 15:20:25.291
8, 191.67, -99.09, 18.91, 16.80, 0.000, 0.000, 0.000, 15:20:25.291
9, 17.10, 33.79, 10.41, 13.32, 0.000, 0.000, 0.000, 15:20:25.309
10, -70.20, -578.06, 3.53, 5.39, 0.000, 0.000, 0.000, 15:20:25.309
11, 151.83, -355.36, 17.53, 17.66, 0.000, 0.000, 0.000, 15:20:25.309
12, 90.41, 137.30, 10.98, 10.88, 0.000, 0.000, 0.000, 15:20:25.309
13, -85.66, -390.90, 4.58, 5.70, 0.000, 0.000, 0.000, 15:20:25.331
14, 73.22, -580.44, 16.50, 15.17, 0.000, 0.000, 0.000, 15:20:25.331
15, 163.22, 83.29, 20.35, 15.47, 0.000, 0.000, 0.000, 15:20:25.332
16, -50.66, -174.18, 2.72, 9.27, 0.000, 0.000, 0.000, 15:20:25.332
17, -37.44, -665.68, 8.59, 10.08, 0.000, 0.000, 0.000, 15:20:25.354
18, 205.87, -126.83, 20.11, 18.36, 0.000, 0.000, 0.000, 15:20:25.354
19, 6.82, 23.11, 8.55, 13.64, 0.000, 0.000, 0.000, 15:20:25.354
20, -88.81, -597.04, 4.86, 6.48, 0.000, 0.000, 0.000, 15:20:25.354
21, 141.14, -377.93, 19.61, 19.02, 0.000, 0.000, 0.000, 15:20:25.376
22, 58.96, 103.38, 13.13, 11.82, 0.000, 0.000, 0.000, 15:20:25.376
23, -87.49, -408.66, 3.96, 6.30, 0.000, 0.000, 0.000, 15:20:25.377
24, 77.71, -576.01, 16.57, 12.75, 0.000, 0.000, 0.000, 15:20:25.377
25, 169.70, 72.04, 16.86, 12.64, 0.000, 0.000, 0.000, 15:20:25.377
26, -53.78, -173.78, 3.17, 4.81, 0.000, 0.000, 0.000, 15:20:25.377
27, -42.85, -682.12, 8.97, 10.61, 0.000, 0.000, 0.000, 15:20:25.398
28, 188.36, -107.67, 18.80, 14.46, 0.000, 0.000, 0.000, 15:20:25.399
29, 2.93, 5.54, 6.25, 11.43, 0.000, 0.000, 0.000, 15:20:25.399
30, -84.10, -611.90, 2.40, 9.62, 0.000, 0.000, 0.000, 15:20:25.399
31, 152.64, -357.26, 16.05, 18.43, 0.000, 0.000, 0.000, 15:20:25.421
32, 80.15, 112.46, 17.33, 15.28, 0.000, 0.000, 0.000, 15:20:25.421
33, -89.23, -404.00, 0.66, 6.28, 0.000, 0.000, 0.000, 15:20:25.421
34, 51.02, -596.84, 16.08, 13.03, 0.000, 0.000, 0.000, 15:20:25.422
35, 157.57, 67.24, 16.46, 17.60, 0.000, 0.000, 0.000, 15:20:25.444
36, -38.95, -177.33, -0.20, 3.33, 0.000, 0.000, 0.000, 15:20:25.444
37, -29.67, -677.11, 9.83, 11.69, 0.000, 0.000, 0.000, 15:20:25.444
38, 188.20, -115.71, 17.99, 19.08, 0.000, 0.000, 0.000, 15:20:25.444
39, -10.52, 2.47, 8.89, 10.67, 0.000, 0.000, 0.000, 15:20:25.466
40, -75.29, -586.58, 3.80, 6.24, 0.000, 0.000, 0.000, 15:20:25.466
41, 173.58, -351.25, 23.36, 19.63, 0.000, 0.000, 0.000, 15:20:25.466
42, 81.62, 104.69, 12.84, 17.86, 0.000, 0.000, 0.000, 15:20:25.467
43, -83.84, -411.42, 4.90, 7.36, 0.000, 0.000, 0.000, 15:20:25.467
44, 74.98, -584.46, 14.05, 12.60, 0.000, 0.000, 0.000, 15:20:25.467
45, 155.59, 75.20, 15.50, 18.05, 0.000, 0.000, 0.000, 15:20:25.488
46, -59.23, -188.39, 3.93, 5.80, 0.000, 0.000, 0.000, 15:20:25.489
47, -24.90, -683.72, 8.26, 11.67, 0.000, 0.000, 0.000, 15:20:25.490
48, 210.26, -92.62, 18.40, 14.17, 0.000, 0.000, 0.000, 15:20:25.490
49, -2.64, 8.92, 8.54, 11.94, 0.000, 0.000, 0.000, 15:20:25.511
50, -92.29, -607.40, 4.82, 4.88, 0.000, 0.000, 0.000, 15:20:25.511
51, 143.62, -366.22, 18.07, 17.39, 0.000, 0.000, 0.000, 15:20:25.512
52, 83.56, 121.74, 13.34, 9.91, 0.000, 0.000, 0.000, 15:20:25.512
53, -95.90, -429.88, 2.62, 5.65, 0.000, 0.000, 0.000, 15:20:25.533
54, 73.60, -580.30, 17.96, 14.20, 0.000, 0.000, 0.000, 15:20:25.534
55, 178.49, 70.57, 15.38, 16.47, 0.000, 0.000, 0.000, 15:20:25.534
56, -53.80, -188.32, 6.25, 7.15, 0.000, 0.000, 0.000, 15:20:25.534
57, -21.04, -694.18, 7.92, 7.24, 0.000, 0.000, 0.000, 15:20:25.556
58, 193.53, -105.72, 19.25, 15.90, 0.000, 0.000, 0.000, 15:20:25.556
59, 1.40, 23.99, 6.89, 12.68, 0.000, 0.000, 0.000, 15:20:25.557
60, -89.91, -611.84, 6.37, 5.32, 0.000, 0.000, 0.000, 15:20:25.557
61, 153.48, -357.46, 19.68, 17.57, 0.000, 0.000, 0.000, 15:20:25.558
62, 90.04, 124.94, 6.32, 12.40, 0.000, 0.000, 0.000, 15:20:25.558
63, -91.27, -432.47, 2.51, 7.55, 0.000, 0.000, 0.000, 15:20:25.578
64, 72.88, -592.66, 14.27, 16.48, 0.000, 0.000, 0.000, 15:20:25.579
65, 142.47, 79.86, 16.53, 14.22, 0.000, 0.000, 0.000, 15:20:25.579
66, -62.74, -181.46, 6.30, 3.44, 0.000, 0.000, 0.000, 15:20:25.579
67, -13.33, -674.08, 8.20, 12.19, 0.000, 0.000, 0.000, 15:20:25.601
68, 190.81, -89.85, 19.96, 18.71, 0.000, 0.000, 0.000, 15:20:25.601
69, 15.11, 9.92, 4.88, 9.50, 0.000, 0.000, 0.000, 15:20:25.601
70, -70.93, -611.84, 4.84, 8.15, 0.000, 0.000, 0.000, 15:20:25.602
71, 166.02, -348.47, 16.08, 20.13, 0.000, 0.000, 0.000, 15:20:25.624
72, 92.07, 119.91, 12.04, 13.62, 0.000, 0.000, 0.000, 15:20:25.624
73, -97.19, -421.92, 4.89, 6.02, 0.000, 0.000, 0.000, 15:20:25.625
74, 72.28, -576.98, 17.74, 15.44, 0.000, 0.000, 0.000, 15:20:25.625
75, 150.90, 90.74, 14.32, 13.93, 0.000, 0.000, 0.000, 15:20:25.646
76, -67.22, -177.37, 3.93, 5.88, 0.000, 0.000, 0.000, 15:20:25.646
77, -24.12, -682.40, 9.85, 12.37, 0.000, 0.000, 0.000, 15:20:25.647
78, 198.81, -83.10, 21.07, 13.73, 0.000, 0.000, 0.000, 15:20:25.647
79, 11.40, 27.97, 10.90, 10.71, 0.000, 0.000, 0.000, 15:20:25.647
80, -82.61, -595.85, 0.07, 7.68, 0.000, 0.000, 0.000, 15:20:25.647
81, 168.75, -333.75, 21.57, 18.11, 0.000, 0.000, 0.000, 15:20:25.668
82, 73.48, 129.43, 11.46, 14.96, 0.000, 0.000, 0.000, 15:20:25.669
83, -94.35, -415.78, -0.35, -0.17, 0.000, 0.000, 0.000, 15:20:25.669
84, 70.83, -557.95, 17.79, 12.55, 0.000, 0.000, 0.000, 15:20:25.669
85, 171.99, 97.39, 17.09, 16.93, 0.000, 0.000, 0.000, 15:20:25.691
86, -50.41, -187.28, 1.03, 9.42, 0.000, 0.000, 0.000, 15:20:25.692
87, -13.45, -666.69, 5.55, 12.48, 0.000, 0.000, 0.000, 15:20:25.692
88, 202.26, -80.18, 19.40, 19.32, 0.000, 0.000, 0.000, 15:20:25.693
89, -1.96, 6.20, 5.68, 9.15, 0.000, 0.000, 0.000, 15:20:25.714
90, -86.12, -610.59, 5.45, 7.11, 0.000, 0.000, 0.000, 15:20:25.714
91, 155.83, -336.71, 19.02, 13.42, 0.000, 0.000, 0.000, 15:20:25.715
92, 66.85, 119.58, 6.98, 12.00, 0.000, 0.000, 0.000, 15:20:25.715
93, -73.78, -424.47, 2.25, 6.91, 0.000, 0.000, 0.000, 15:20:25.736
94, 77.20, -576.79, 12.32, 14.19, 0.000, 0.000, 0.000, 15:20:25.737
95, 157.47, 88.46, 14.81, 15.18, 0.000, 0.000, 0.000, 15:20:25.737
96, -61.00, -197.20, 5.51, 8.25, 0.000, 0.000, 0.000, 15:20:25.737
97, -27.94, -672.48, 9.25, 8.54, 0.000, 0.000, 0.000, 15:20:25.737
98, 174.51, -79.51, 16.41, 14.35, 0.000, 0.000, 0.000, 15:20:25.737
99, -0.35, 11.38, 4.61, 10.74, 0.000, 0.000, 0.000, 15:20:25.759
100, -57.47, -627.58, 6.77, 8.34, 0.000, 0.000, 0.000, 15:20:25.759
101, 181.13, -360.64, 19.88, 19.59, 0.000, 0.000, 0.000, 15:20:25.760
102, 74.71, 103.21, 15.54, 10.54, 0.000, 0.000, 0.000, 15:20:25.760
103, -80.95, -447.66, 8.27, 6.41, 0.000, 0.000, 0.000, 15:20:25.781
104, 75.90, -580.70, 15.20, 14.76, 0.000, 0.000, 0.000, 15:20:25.781
105, 148.26, 85.48, 17.87, 15.72, 0.000, 0.000, 0.000, 15:20:25.782
106, -59.34, -208.53, 5.69, 7.67, 0.000, 0.000, 0.000, 15:20:25.782
107, -30.28, -682.60, 11.48, 7.79, 0.000, 0.000, 0.000, 15:20:25.805
108, 187.68, -90.31, 17.44, 14.67, 0.000, 0.000, 0.000, 15:20:25.805
109, 10.54, -13.29, 6.58, 9.51, 0.000, 0.000, 0.000, 15:20:25.805
110, -79.02, -633.71, 6.42, 8.26, 0.000, 0.000, 0.000, 15:20:25.805
111, 171.99, -343.98, 23.24, 21.82, 0.000, 0.000, 0.000, 15:20:25.826
112, 68.86, 124.02, 11.09, 11.87, 0.000, 0.000, 0.000, 15:20:25.827
113, -96.15, -430.40, -1.52, 7.88, 0.000, 0.000, 0.000, 15:20:25.827
114, 73.58, -557.45, 15.13, 16.83, 0.000, 0.000, 0.000, 15:20:25.827
115, 172.60, 81.98, 16.26, 17.74, 0.000, 0.000, 0.000, 15:20:25.827
116, -47.27, -198.32, 5.88, 9.74, 0.000, 0.000, 0.000, 15:20:25.827
117, -9.73, -665.67, 12.56, 9.21, 0.000, 0.000, 0.000, 15:20:25.848
118, 206.38, -83.56, 19.33, 17.60, 0.000, 0.000, 0.000, 15:20:25.849
119, -9.49, -19.54, 9.10, 7.45, 0.000, 0.000, 0.000, 15:20:25.849
120, -79.89, -629.69, 6.73, 5.48, 0.000, 0.000, 0.000, 15:20:25.849
121, 174.89, -310.70, 19.17, 19.44, 0.000, 0.000, 0.000, 15:20:25.871
122, 73.03, 112.89, 10.45, 16.00, 0.000, 0.000, 0.000, 15:20:25.871
123, -88.13, -440.07, 0.91, 6.83, 0.000, 0.000, 0.000, 15:20:25.872
124, 89.40, -543.87, 13.70, 14.76, 0.000, 0.000, 0.000, 15:20:25.872
125, 146.99, 108.80, 14.13, 13.49, 0.000, 0.000, 0.000, 15:20:25.894
126, -60.22, -190.01, 3.85, 7.18, 0.000, 0.000, 0.000, 15:20:25.894
127, -20.97, -664.19, 10.46, 10.99, 0.000, 0.000, 0.000, 15:20:25.916
128, 169.89, -64.00, 20.28, 15.81, 0.000, 0.000, 0.000, 15:20:25.916
129, -3.88, 0.39, 8.29, 10.28, 0.000, 0.000, 0.000, 15:20:25.939
130, -68.77, -611.67, 3.55, 5.59, 0.000, 0.000, 0.000, 15:20:25.939
131, 180.76, -313.68, 20.94, 15.17, 0.000, 0.000, 0.000, 15:20:25.942
132, 64.71, 124.00, 10.94, 13.81, 0.000, 0.000, 0.000, 15:20:25.942
133, -108.81, -437.91, 2.18, 6.90, 0.000, 0.000, 0.000, 15:20:25.942
134, 86.74, -554.14, 14.55, 13.66, 0.000, 0.000, 0.000, 15:20:25.942
135, 162.50, 96.53, 15.92, 15.43, 0.000, 0.000, 0.000, 15:20:25.962
136, -71.00, -217.17, 4.93, 7.93, 0.000, 0.000, 0.000, 15:20:25.963
137, -14.74, -665.52, 7.12, 12.36, 0.000, 0.000, 0.000, 15:20:25.963
138, 198.98, -62.15, 16.25, 16.23, 0.000, 0.000, 0.000, 15:20:25.963
139, 7.88, -3.94, 5.74, 9.21, 0.000, 0.000, 0.000, 15:20:25.963
140, -85.28, -619.63, 3.97, 4.92, 0.000, 0.000, 0.000, 15:20:25.963
141, 141.29, -314.31, 18.31, 18.88, 0.000, 0.000, 0.000, 15:20:25.984
142, 51.91, 117.12, 13.39, 9.81, 0.000, 0.000, 0.000, 15:20:25.984
143, -98.49, -447.74, 4.32, 4.69, 0.000, 0.000, 0.000, 15:20:25.984
144, 83.05, -582.05, 14.42, 17.58, 0.000, 0.000, 0.000, 15:20:25.984
145, 143.51, 71.60, 13.79, 17.94, 0.000, 0.000, 0.000, 15:20:25.984
146, -62.08, -241.46, 6.10, 7.15, 0.000, 0.000, 0.000, 15:20:25.985
147, 1.82, -706.34, 6.57, 10.31, 0.000, 0.000, 0.000, 15:20:25.985
148, 228.53, -96.30, 17.71, 14.96, 0.000, 0.000, 0.000, 15:20:25.985
149, 26.88, -24.05, 7.94, 11.32, 0.000, 0.000, 0.000, 15:20:26.007
150, -44.54, -625.48, 1.23, 7.83, 0.000, 0.000, 0.000, 15:20:26.008
151, 205.10, -295.09, 17.96, 17.19, 0.000, 0.000, 0.000, 15:20:26.008
152, 84.07, 147.16, 9.69, 9.04, 0.000, 0.000, 0.000, 15:20:26.008
153, -91.56, -425.88, 3.90, 7.31, 0.000, 0.000, 0.000, 15:20:26.029
154, 84.79, -529.95, 15.77, 15.94, 0.000, 0.000, 0.000, 15:20:26.029
155, 151.86, 103.65, 20.31, 16.80, 0.000, 0.000, 0.000, 15:20:26.029
156, -82.82, -223.72, 2.80, 6.49, 0.000, 0.000, 0.000, 15:20:26.029
157, -8.06, -678.58, 11.34, 11.12, 0.000, 0.000, 0.000, 15:20:26.051
158, 195.92, -68.61, 24.72, 17.60, 0.000, 0.000, 0.000, 15:20:26.051
159, -13.17, -27.55, 9.35, 11.32, 0.000, 0.000, 0.000, 15:20:26.052
160, -89.64, -643.82, 4.25, 7.68, 0.000, 0.000, 0.000, 15:20:26.052
161, 147.30, -315.57, 19.58, 17.56, 0.000, 0.000, 0.000, 15:20:26.073
162, 62.03, 126.09, 10.63, 13.24, 0.000, 0.000, 0.000, 15:20:26.074
163, -111.37, -466.40, 5.39, 7.95, 0.000, 0.000, 0.000, 15:20:26.074
164, 90.49, -571.31, 13.57, 12.09, 0.000, 0.000, 0.000, 15:20:26.075
165, 146.90, 107.38, 14.32, 14.61, 0.000, 0.000, 0.000, 15:20:26.096
166, -62.84, -237.90, 4.63, 6.65, 0.000, 0.000, 0.000, 15:20:26.097
167, -8.50, -702.97, 8.70, 12.99, 0.000, 0.000, 0.000, 15:20:26.097
168, 193.74, -71.31, 20.42, 15.74, 0.000, 0.000, 0.000, 15:20:26.097
169, -25.78, 0.95, 2.92, 8.85, 0.000, 0.000, 0.000, 15:20:26.097
170, -71.20, -639.44, 5.48, 6.76, 0.000, 0.000, 0.000, 15:20:26.097
171, 193.58, -333.57, 22.57, 17.53, 0.000, 0.000, 0.000, 15:20:26.118
172, 53.09, 105.78, 14.10, 15.41, 0.000, 0.000, 0.000, 15:20:26.118
173, -82.37, -446.53, 2.15, 8.91, 0.000, 0.000, 0.000, 15:20:26.119
174, 102.44, -560.38, 14.41, 13.06, 0.000, 0.000, 0.000, 15:20:26.119
175, 128.77, 80.77, 14.89, 17.73, 0.000, 0.000, 0.000, 15:20:26.141
176, -74.83, -212.59, 5.57, 7.29, 0.000, 0.000, 0.000, 15:20:26.141
177, 8.72, -646.51, 14.55, 9.45, 0.000, 0.000, 0.000, 15:20:26.142
178, 181.71, -69.00, 16.01, 15.26, 0.000, 0.000, 0.000, 15:20:26.142
179, -4.80, -36.84, 6.05, 6.47, 0.000, 0.000, 0.000, 15:20:26.163
180, -64.06, -639.44, 7.94, 6.46, 0.000, 0.000, 0.000, 15:20:26.164
181, 164.56, -276.08, 18.40, 14.63, 0.000, 0.000, 0.000, 15:20:26.164
182, 80.52, 109.14, 10.73, 10.66, 0.000, 0.000, 0.000, 15:20:26.164
183, -68.36, -469.80, 0.54, 6.89, 0.000, 0.000, 0.000, 15:20:26.186
184, 96.08, -552.50, 16.61, 16.00, 0.000, 0.000, 0.000, 15:20:26.187
185, 128.90, 120.00, 14.60, 16.08, 0.000, 0.000, 0.000, 15:20:26.188
186, -70.72, -220.12, 1.95, 8.67, 0.000, 0.000, 0.000, 15:20:26.188
187, -1.39, -688.66, 11.23, 13.50, 0.000, 0.000, 0.000, 15:20:26.188
188, 200.83, -51.39, 15.42, 15.73, 0.000, 0.000, 0.000, 15:20:26.188
189, -8.41, -9.07, 7.69, 10.11, 0.000, 0.000, 0.000, 15:20:26.209
190, -87.38, -631.99, 9.87, 8.39, 0.000, 0.000, 0.000, 15:20:26.210
191, 181.65, -285.57, 19.76, 17.89, 0.000, 0.000, 0.000, 15:20:26.210
192, 82.60, 135.32, 9.92, 13.94, 0.000, 0.000, 0.000, 15:20:26.210
193, -76.54, -441.56, 2.49, 6.32, 0.000, 0.000, 0.000, 15:20:26.231
194, 91.35, -526.69, 17.57, 18.03, 0.000, 0.000, 0.000, 15:20:26.231
195, 135.14, 114.63, 15.65, 11.16, 0.000, 0.000, 0.000, 15:20:26.232
196, -66.20, -214.23, 6.48, 14.48, 0.000, 0.000, 0.000, 15:20:26.232
197, 8.04, -658.38, 9.57, 9.16, 0.000, 0.000, 0.000, 15:20:26.254
198, 197.61, -33.73, 21.19, 18.19, 0.000, 0.000, 0.000, 15:20:26.254
199, -10.45, -8.43, 6.02, 6.59, 0.000, 0.000, 0.000, 15:20:26.254
200, -70.32, -620.01, 3.28, 6.44, 0.000, 0.000, 0.000, 15:20:26.255
0, 162.93, -284.84, 18.85, 18.39, 0.000, 0.000, 0.000, 15:20:26.255
1, 73.45, 113.64, 10.39, 10.14, 0.000, 0.000, 0.000, 15:20:26.277
2, -64.28, -451.36, 1.27, 5.78, 0.000, 0.000, 0.000, 15:20:26.277
3, 103.42, -524.06, 12.81, 14.38, 0.000, 0.000, 0.000, 15:20:26.279
4, 143.22, 116.44, 19.38, 12.34, 0.000, 0.000, 0.000, 15:20:26.279
5, -80.78, -226.55, 1.02, 4.73, 0.000, 0.000, 0.000, 15:20:26.298
6, 11.54, -658.90, 9.22, 12.33, 0.000, 0.000, 0.000, 15:20:26.299
7, 214.27, -33.40, 19.17, 22.29, 0.000, 0.000, 0.000, 15:20:26.299
8, -11.55, -15.60, 7.94, 10.69, 0.000, 0.000, 0.000, 15:20:26.299
9, -92.85, -628.14, 2.75, 10.52, 0.000, 0.000, 0.000, 15:20:26.322
10, 192.55, -277.35, 19.40, 18.43, 0.000, 0.000, 0.000, 15:20:26.322
11, 65.01, 112.54, 12.08, 12.03, 0.000, 0.000, 0.000, 15:20:26.323
12, -102.82, -464.59, 3.58, 3.31, 0.000, 0.000, 0.000, 15:20:26.323
13, 73.61, -527.34, 15.73, 13.79, 0.000, 0.000, 0.000, 15:20:26.323
14, 140.76, 103.98, 14.65, 14.19, 0.000, 0.000, 0.000, 15:20:26.323
15, -73.13, -232.27, 2.49, 7.00, 0.000, 0.000, 0.000, 15:20:26.345
16, -3.15, -666.30, 11.24, 10.02, 0.000, 0.000, 0.000, 15:20:26.345
17, 193.38, -40.41, 17.11, 18.99, 0.000, 0.000, 0.000, 15:20:26.347
18, -12.34, -29.16, 5.33, 8.13, 0.000, 0.000, 0.000, 15:20:26.347
19, -83.23, -642.34, 7.47, 7.98, 0.000, 0.000, 0.000, 15:20:26.366
20, 181.49, -296.94, 20.49, 15.86, 0.000, 0.000, 0.000, 15:20:26.366
21, 43.93, 110.50, 10.93, 13.97, 0.000, 0.000, 0.000, 15:20:26.367
22, -137.34, -472.84, 2.62, 4.54, 0.000, 0.000, 0.000, 15:20:26.367
23, 110.87, -528.94, 16.35, 15.86, 0.000, 0.000, 0.000, 15:20:26.389
24, 137.71, 106.82, 14.35, 12.03, 0.000, 0.000, 0.000, 15:20:26.390
25, -56.13, -248.52, 2.66, 6.56, 0.000, 0.000, 0.000, 15:20:26.390
26, -20.18, -679.00, 7.43, 9.66, 0.000, 0.000, 0.000, 15:20:26.390
27, 154.53, -34.25, 17.40, 15.38, 0.000, 0.000, 0.000, 15:20:26.412
28, 0.19, -31.33, 5.87, 14.38, 0.000, 0.000, 0.000, 15:20:26.412
29, -33.54, -649.37, 5.57, 5.35, 0.000, 0.000, 0.000, 15:20:26.413
30, 188.28, -291.04, 17.21, 19.52, 0.000, 0.000, 0.000, 15:20:26.413
31, 70.64, 102.53, 10.09, 11.39, 0.000, 0.000, 0.000, 15:20:26.414
32, -102.02, -483.64, 3.27, 6.93, 0.000, 0.000, 0.000, 15:20:26.414
33, 92.69, -531.01, 16.58, 14.33, 0.000, 0.000, 0.000, 15:20:26.434
34, 131.80, 111.99, 13.58, 12.74, 0.000, 0.000, 0.000, 15:20:26.434
35, -71.22, -250.12, 2.86, 6.55, 0.000, 0.000, 0.000, 15:20:26.434
36, -12.91, -678.51, 12.82, 9.75, 0.000, 0.000, 0.000, 15:20:26.434
37, 198.08, -35.99, 21.04, 17.23, 0.000, 0.000, 0.000, 15:20:26.456
38, -9.46, -35.68, 5.31, 7.50, 0.000, 0.000, 0.000, 15:20:26.456
39, -88.29, -654.16, 5.67, 9.07, 0.000, 0.000, 0.000, 15:20:26.457
40, 188.37, -279.50, 22.11, 19.75, 0.000, 0.000, 0.000, 15:20:26.457
41, 84.33, 109.41, 12.83, 11.76, 0.000, 0.000, 0.000, 15:20:26.479
42, -126.43, -486.61, 1.35, 4.26, 0.000, 0.000, 0.000, 15:20:26.479
43, 102.22, -523.51, 19.94, 15.08, 0.000, 0.000, 0.000, 15:20:26.479
44, 144.14, 117.19, 18.89, 15.22, 0.000, 0.000, 0.000, 15:20:26.479
45, -80.59, -268.04, 4.06, 12.13, 0.000, 0.000, 0.000, 15:20:26.501
46, 20.13, -675.61, 9.84, 13.26, 0.000, 0.000, 0.000, 15:20:26.501
47, 200.74, -27.18, 17.39, 20.77, 0.000, 0.000, 0.000, 15:20:26.501
48, -36.37, -36.94, 4.11, 6.35, 0.000, 0.000, 0.000, 15:20:26.502
49, -45.25, -655.63, 7.42, 6.61, 0.000, 0.000, 0.000, 15:20:26.502
50, 171.69, -283.54, 20.83, 18.62, 0.000, 0.000, 0.000, 15:20:26.503
51, 64.27, 92.59, 11.67, 12.15, 0.000, 0.000, 0.000, 15:20:26.524
52, -97.89, -514.66, 4.07, 5.69, 0.000, 0.000, 0.000, 15:20:26.524
53, 92.34, -545.47, 15.45, 14.62, 0.000, 0.000, 0.000, 15:20:26.524
54, 160.68, 109.33, 17.61, 15.80, 0.000, 0.000, 0.000, 15:20:26.524
55, -92.58, -270.33, 1.50, 6.05, 0.000, 0.000, 0.000, 15:20:26.546
56, -9.73, -686.52, 11.89, 10.91, 0.000, 0.000, 0.000, 15:20:26.546
57, 179.51, -30.99, 18.21, 20.05, 0.000, 0.000, 0.000, 15:20:26.546
58, -8.78, -49.27, 4.56, 7.75, 0.000, 0.000, 0.000, 15:20:26.547
59, -56.11, -664.34, 4.85, 4.99, 0.000, 0.000, 0.000, 15:20:26.568
60, 187.53, -274.34, 20.54, 16.90, 0.000, 0.000, 0.000, 15:20:26.569
61, 69.41, 102.11, 10.52, 10.28, 0.000, 0.000, 0.000, 15:20:26.569
62, -101.01, -505.47, 4.55, 1.83, 0.000, 0.000, 0.000, 15:20:26.569
63, 78.48, -535.08, 14.95, 17.35, 0.000, 0.000, 0.000, 15:20:26.591
64, 120.29, 124.62, 15.40, 16.26, 0.000, 0.000, 0.000, 15:20:26.591
65, -47.74, -260.75, 1.56, 8.86, 0.000, 0.000, 0.000, 15:20:26.592
66, 5.62, -675.82, 10.83, 12.81, 0.000, 0.000, 0.000, 15:20:26.592
67, 188.27, -8.63, 17.78, 20.69, 0.000, 0.000, 0.000, 15:20:26.592
68, -3.24, -43.18, 7.69, 11.04, 0.000, 0.000, 0.000, 15:20:26.593
69, -67.03, -656.21, 6.21, 7.06, 0.000, 0.000, 0.000, 15:20:26.613
70, 175.89, -271.48, 19.32, 14.10, 0.000, 0.000, 0.000, 15:20:26.614
71, 51.16, 103.04, 7.65, 13.97, 0.000, 0.000, 0.000, 15:20:26.614
72, -97.17, -489.76, 6.05, 6.66, 0.000, 0.000, 0.000, 15:20:26.614
73, 102.62, -519.34, 15.23, 15.54, 0.000, 0.000, 0.000, 15:20:26.636
74, 144.26, 121.74, 14.55, 13.48, 0.000, 0.000, 0.000, 15:20:26.636
75, -68.35, -267.90, 1.74, 6.41, 0.000, 0.000, 0.000, 15:20:26.637
76, -9.89, -681.62, 9.89, 16.95, 0.000, 0.000, 0.000, 15:20:26.637
77, 192.58, -11.16, 17.92, 14.58, 0.000, 0.000, 0.000, 15:20:26.659
78, 0.75, -51.43, 9.67, 5.42, 0.000, 0.000, 0.000, 15:20:26.659
79, -106.50, -658.16, 4.22, 7.94, 0.000, 0.000, 0.000, 15:20:26.660
80, 180.39, -269.35, 20.06, 19.08, 0.000, 0.000, 0.000, 15:20:26.660
81, 71.72, 106.01, 10.01, 12.82, 0.000, 0.000, 0.000, 15:20:26.681
82, -86.69, -492.35, -0.97, 6.00, 0.000, 0.000, 0.000, 15:20:26.682
83, 117.52, -531.25, 15.95, 14.08, 0.000, 0.000, 0.000, 15:20:26.682
84, 144.20, 122.13, 14.50, 12.76, 0.000, 0.000, 0.000, 15:20:26.682
85, -77.30, -262.55, 3.18, 3.89, 0.000, 0.000, 0.000, 15:20:26.683
86, -6.40, -676.30, 14.36, 11.62, 0.000, 0.000, 0.000, 15:20:26.683
87, 190.51, -10.07, 18.95, 19.42, 0.000, 0.000, 0.000, 15:20:26.704
88, -20.60, -42.73, 4.51, 7.62, 0.000, 0.000, 0.000, 15:20:26.704
89, -78.20, -648.56, 5.64, 6.70, 0.000, 0.000, 0.000, 15:20:26.704
90, 189.41, -257.80, 19.17, 16.43, 0.000, 0.000, 0.000, 15:20:26.705
91, 60.47, 110.38, 14.33, 14.64, 0.000, 0.000, 0.000, 15:20:26.727
92, -108.11, -486.79, 4.62, 5.91, 0.000, 0.000, 0.000, 15:20:26.727
93, 65.32, -525.35, 18.44, 13.74, 0.000, 0.000, 0.000, 15:20:26.727
94, 137.81, 118.29, 15.52, 18.20, 0.000, 0.000, 0.000, 15:20:26.728
95, -47.69, -276.58, 3.64, 13.56, 0.000, 0.000, 0.000, 15:20:26.749
96, -1.87, -680.81, 10.30, 9.41, 0.000, 0.000, 0.000, 15:20:26.749
97, 182.46, -24.40, 21.81, 18.37, 0.000, 0.000, 0.000, 15:20:26.749
98, 1.57, -46.95, 4.82, 8.51, 0.000, 0.000, 0.000, 15:20:26.749
99, -61.15, -666.90, -0.15, 7.79, 0.000, 0.000, 0.000, 15:20:26.771
100, 185.86, -265.73, 18.51, 18.02, 0.000, 0.000, 0.000, 15:20:26.771
101, 64.84, 104.93, 13.64, 14.49, 0.000, 0.000, 0.000, 15:20:26.772
102, -97.49, -503.75, 5.99, 9.30, 0.000, 0.000, 0.000, 15:20:26.772
103, 101.76, -510.06, 14.60, 14.22, 0.000, 0.000, 0.000, 15:20:26.772
104, 134.60, 132.39, 16.67, 14.71, 0.000, 0.000, 0.000, 15:20:26.772
105, -79.77, -259.82, 5.70, 5.25, 0.000, 0.000, 0.000, 15:20:26.794
106, 0.69, -654.10, 9.00, 11.16, 0.000, 0.000, 0.000, 15:20:26.794
107, 189.06, 1.89, 20.97, 15.90, 0.000, 0.000, 0.000, 15:20:26.795
108, -12.94, -39.68, 4.90, 6.82, 0.000, 0.000, 0.000, 15:20:26.795
109, -73.86, -648.97, 6.64, 5.36, 0.000, 0.000, 0.000, 15:20:26.816
110, 192.02, -243.63, 16.09, 18.55, 0.000, 0.000, 0.000, 15:20:26.816
111, 43.10, 114.11, 11.35, 9.81, 0.000, 0.000, 0.000, 15:20:26.817
112, -125.01, -494.31, 5.77, 6.08, 0.000, 0.000, 0.000, 15:20:26.817
113, 108.48, -501.79, 16.99, 15.81, 0.000, 0.000, 0.000, 15:20:26.840
114, 160.20, 127.26, 12.56, 11.89, 0.000, 0.000, 0.000, 15:20:26.840
115, -74.99, -269.61, 1.24, 7.85, 0.000, 0.000, 0.000, 15:20:26.840
116, 8.24, -664.79, 12.05, 10.49, 0.000, 0.000, 0.000, 15:20:26.840
117, 178.57, -2.34, 18.23, 20.34, 0.000, 0.000, 0.000, 15:20:26.862
118, -37.72, -46.58, 5.64, 11.14, 0.000, 0.000, 0.000, 15:20:26.862
119, -64.43, -654.70, 4.89, 3.78, 0.000, 0.000, 0.000, 15:20:26.862
120, 196.88, -247.86, 18.53, 14.80, 0.000, 0.000, 0.000, 15:20:26.862
121, 66.16, 78.04, 10.76, 12.02, 0.000, 0.000, 0.000, 15:20:26.863
122, -90.37, -516.17, 5.43, 5.27, 0.000, 0.000, 0.000, 15:20:26.864
123, 121.68, -526.21, 21.53, 14.97, 0.000, 0.000, 0.000, 15:20:26.884
124, 144.89, 108.06, 16.32, 14.97, 0.000, 0.000, 0.000, 15:20:26.884
125, -59.55, -292.21, 4.43, 7.75, 0.000, 0.000, 0.000, 15:20:26.884
126, 16.29, -676.47, 8.99, 8.04, 0.000, 0.000, 0.000, 15:20:26.884
127, 185.45, -4.27, 18.58, 15.65, 0.000, 0.000, 0.000, 15:20:26.906
128, -18.00, -51.38, 4.16, 8.93, 0.000, 0.000, 0.000, 15:20:26.907
129, -67.42, -661.49, 5.44, 6.71, 0.000, 0.000, 0.000, 15:20:26.907
130, 170.67, -251.60, 20.58, 16.90, 0.000, 0.000, 0.000, 15:20:26.907
131, 61.33, 98.68, 9.02, 11.61, 0.000, 0.000, 0.000, 15:20:26.929
132, -92.96, -506.94, 5.13, 5.94, 0.000, 0.000, 0.000, 15:20:26.929
133, 103.93, -496.09, 17.91, 14.71, 0.000, 0.000, 0.000, 15:20:26.929
134, 135.94, 134.68, 12.87, 17.11, 0.000, 0.000, 0.000, 15:20:26.929
135, -85.11, -277.27, 1.47, 6.12, 0.000, 0.000, 0.000, 15:20:26.951
136, -6.28, -660.08, 11.76, 13.73, 0.000, 0.000, 0.000, 15:20:26.951
137, 189.40, -1.30, 21.27, 14.89, 0.000, 0.000, 0.000, 15:20:26.952
138, -38.58, -59.36, 4.20, 9.04, 0.000, 0.000, 0.000, 15:20:26.952
139, -46.68, -656.44, 7.43, 6.52, 0.000, 0.000, 0.000, 15:20:26.952
140, 188.75, -245.83, 17.77, 16.55, 0.000, 0.000, 0.000, 15:20:26.952
141, 63.57, 99.17, 6.43, 9.93, 0.000, 0.000, 0.000, 15:20:26.974
142, -99.80, -507.39, 3.40, 10.23, 0.000, 0.000, 0.000, 15:20:26.974
143, 94.40, -502.16, 20.60, 17.50, 0.000, 0.000, 0.000, 15:20:26.975
144, 125.54, 118.09, 16.89, 12.66, 0.000, 0.000, 0.000, 15:20:26.975
145, -73.83, -287.93, 0.75, 8.43, 0.000, 0.000, 0.000, 15:20:26.996
146, 21.39, -659.62, 11.65, 13.58, 0.000, 0.000, 0.000, 15:20:26.996
147, 181.50, 2.10, 20.31, 17.29, 0.000, 0.000, 0.000, 15:20:26.997
148, -31.45, -60.69, 6.94, 13.74, 0.000, 0.000, 0.000, 15:20:26.997
149, -83.19, -664.74, 7.89, 9.82, 0.000, 0.000, 0.000, 15:20:27.019
150, 167.59, -242.38, 20.80, 16.40, 0.000, 0.000, 0.000, 15:20:27.019
151, 41.02, 96.63, 10.61, 12.05, 0.000, 0.000, 0.000, 15:20:27.019
152, -79.40, -527.34, 2.19, 5.51, 0.000, 0.000, 0.000, 15:20:27.019
153, 114.28, -510.05, 18.06, 18.76, 0.000, 0.000, 0.000, 15:20:27.041
154, 142.38, 104.70, 15.85, 15.96, 0.000, 0.000, 0.000, 15:20:27.041
155, -44.20, -310.74, 1.67, 8.00, 0.000, 0.000, 0.000, 15:20:27.041
156, 26.82, -677.74, 13.74, 12.41, 0.000, 0.000, 0.000, 15:20:27.042
157, 197.69, 22.35, 18.33, 17.66, 0.000, 0.000, 0.000, 15:20:27.042
158, 7.54, -28.89, 6.14, 6.48, 0.000, 0.000, 0.000, 15:20:27.043
159, -36.16, -632.73, 7.23, 6.41, 0.000, 0.000, 0.000, 15:20:27.063
160, 190.67, -217.23, 22.07, 17.71, 0.000, 0.000, 0.000, 15:20:27.064
161, 47.06, 100.78, 8.00, 10.77, 0.000, 0.000, 0.000, 15:20:27.064
162, -92.67, -497.07, 3.12, 6.42, 0.000, 0.000, 0.000, 15:20:27.064
163, 105.19, -483.73, 14.70, 12.79, 0.000, 0.000, 0.000, 15:20:27.086
164, 141.45, 126.98, 14.58, 15.13, 0.000, 0.000, 0.000, 15:20:27.087
165, -85.07, -292.01, -1.01, 7.16, 0.000, 0.000, 0.000, 15:20:27.087
166, -9.62, -664.54, 6.90, 11.00, 0.000, 0.000, 0.000, 15:20:27.087
167, 168.60, -8.92, 17.06, 16.30, 0.000, 0.000, 0.000, 15:20:27.110
168, -22.76, -79.34, 1.70, 7.59, 0.000, 0.000, 0.000, 15:20:27.111
169, -76.06, -677.85, 6.17, 5.95, 0.000, 0.000, 0.000, 15:20:27.111
170, 177.34, -233.54, 23.56, 20.33, 0.000, 0.000, 0.000, 15:20:27.111
171, 52.88, 83.62, 13.85, 11.98, 0.000, 0.000, 0.000, 15:20:27.131
172, -112.28, -527.59, 2.67, 7.49, 0.000, 0.000, 0.000, 15:20:27.132
173, 101.06, -481.58, 18.20, 15.80, 0.000, 0.000, 0.000, 15:20:27.132
174, 155.96, 129.27, 17.94, 13.06, 0.000, 0.000, 0.000, 15:20:27.133
175, -82.68, -281.30, 4.53, 10.49, 0.000, 0.000, 0.000, 15:20:27.133
176, -3.25, -650.89, 10.81, 11.86, 0.000, 0.000, 0.000, 15:20:27.133
177, 196.12, 23.88, 16.72, 15.72, 0.000, 0.000, 0.000, 15:20:27.154
178, -23.80, -61.73, 5.42, 7.73, 0.000, 0.000, 0.000, 15:20:27.154
179, -60.16, -657.66, 6.55, 8.97, 0.000, 0.000, 0.000, 15:20:27.156
180, 185.74, -217.79, 20.79, 17.90, 0.000, 0.000, 0.000, 15:20:27.157
181, 48.65, 102.71, 12.67, 11.41, 0.000, 0.000, 0.000, 15:20:27.207
182, -105.81, -508.08, -0.32, 5.26, 0.000, 0.000, 0.000, 15:20:27.207
183, 118.08, -474.49, 17.46, 12.55, 0.000, 0.000, 0.000, 15:20:27.208
184, 122.09, 125.47, 14.33, 17.52, 0.000, 0.000, 0.000, 15:20:27.208
185, -71.10, -301.93, 1.71, 5.89, 0.000, 0.000, 0.000, 15:20:27.208
186, 19.59, -658.84, 11.78, 9.02, 0.000, 0.000, 0.000, 15:20:27.208
187, 192.00, -7.00, 18.83, 16.35, 0.000, 0.000, 0.000, 15:20:27.209
188, -29.93, -90.66, 3.94, 8.92, 0.000, 0.000, 0.000, 15:20:27.209
189, -66.54, -676.09, 5.85, 12.06, 0.000, 0.000, 0.000, 15:20:27.221
190, 200.01, -232.17, 20.80, 19.89, 0.000, 0.000, 0.000, 15:20:27.221
191, 44.42, 82.72, 8.54, 9.13, 0.000, 0.000, 0.000, 15:20:27.222
192, -101.25, -533.20, 5.14, 7.49, 0.000, 0.000, 0.000, 15:20:27.222
193, 121.34, -480.75, 13.96, 17.45, 0.000, 0.000, 0.000, 15:20:27.222
194, 138.34, 122.17, 12.46, 17.92, 0.000, 0.000, 0.000, 15:20:27.222
195, -77.20, -293.99, 2.00, 7.68, 0.000, 0.000, 0.000, 15:20:27.244
196, 29.75, -652.08, 11.27, 10.71, 0.000, 0.000, 0.000, 15:20:27.244
197, 178.80, 5.13, 18.98, 16.68, 0.000, 0.000, 0.000, 15:20:27.244
198, -33.43, -70.76, 7.26, 7.53, 0.000, 0.000, 0.000, 15:20:27.244
199, -48.19, -682.38, 7.80, 8.93, 0.000, 0.000, 0.000, 15:20:27.266
200, 191.52, -218.74, 22.46, 21.30, 0.000, 0.000, 0.000, 15:20:27.267
0, 32.71, 71.54, 10.73, 8.38, 0.000, 0.000, 0.000, 15:20:27.267
1, -87.17, -526.55, 3.92, 3.93, 0.000, 0.000, 0.000, 15:20:27.267
2, 130.42, -472.21, 17.20, 19.02, 0.000, 0.000, 0.000, 15:20:27.267
3, 129.68, 114.73, 13.50, 14.44, 0.000, 0.000, 0.000, 15:20:27.288
4, -62.41, -304.61, 3.43, 9.70, 0.000, 0.000, 0.000, 15:20:27.289
5, 22.84, -656.49, 13.74, 11.65, 0.000, 0.000, 0.000, 15:20:27.289
6, 181.72, 12.07, 14.55, 18.32, 0.000, 0.000, 0.000, 15:20:27.289
7, -30.84, -67.50, 6.80, 8.27, 0.000, 0.000, 0.000, 15:20:27.312
8, -64.03, -665.36, 5.38, 11.26, 0.000, 0.000, 0.000, 15:20:27.312
9, 198.23, -203.02, 16.75, 18.42, 0.000, 0.000, 0.000, 15:20:27.312
10, 64.29, 85.08, 11.03, 11.75, 0.000, 0.000, 0.000, 15:20:27.312
11, -87.55, -533.08, 1.23, 2.17, 0.000, 0.000, 0.000, 15:20:27.333
12, 135.16, -457.92, 16.48, 13.99, 0.000, 0.000, 0.000, 15:20:27.334
13, 115.29, 140.93, 13.41, 14.05, 0.000, 0.000, 0.000, 15:20:27.334
14, -87.15, -299.95, 4.70, 5.47, 0.000, 0.000, 0.000, 15:20:27.334
15, 48.67, -642.24, 12.82, 15.54, 0.000, 0.000, 0.000, 15:20:27.356
16, 195.46, 24.20, 19.38, 16.17, 0.000, 0.000, 0.000, 15:20:27.357
17, -42.46, -70.85, 2.65, 10.34, 0.000, 0.000, 0.000, 15:20:27.357
18, -58.16, -648.61, 8.63, 3.70, 0.000, 0.000, 0.000, 15:20:27.357
19, 191.69, -198.22, 20.62, 15.71, 0.000, 0.000, 0.000, 15:20:27.357
20, 41.66, 94.31, 9.93, 11.61, 0.000, 0.000, 0.000, 15:20:27.357
21, -104.73, -517.90, 3.11, 9.34, 0.000, 0.000, 0.000, 15:20:27.379
22, 110.53, -454.68, 13.42, 16.35, 0.000, 0.000, 0.000, 15:20:27.380
23, 112.84, 136.09, 14.73, 12.69, 0.000, 0.000, 0.000, 15:20:27.380
24, -89.35, -295.26, 3.21, 9.77, 0.000, 0.000, 0.000, 15:20:27.380
25, 18.00, -639.16, 12.77, 14.00, 0.000, 0.000, 0.000, 15:20:27.401
26, 205.32, 27.49, 20.78, 17.59, 0.000, 0.000, 0.000, 15:20:27.401
27, -48.37, -97.76, 4.77, 7.53, 0.000, 0.000, 0.000, 15:20:27.402
28, -93.35, -690.31, 6.55, 8.64, 0.000, 0.000, 0.000, 15:20:27.402
29, 205.26, -214.55, 20.92, 14.86, 0.000, 0.000, 0.000, 15:20:27.424
30, 29.32, 64.85, 8.36, 10.00, 0.000, 0.000, 0.000, 15:20:27.424
31, -89.77, -543.20, 4.75, 5.30, 0.000, 0.000, 0.000, 15:20:27.424
32, 125.20, -472.08, 19.00, 12.40, 0.000, 0.000, 0.000, 15:20:27.424
33, 126.82, 123.59, 13.90, 12.54, 0.000, 0.000, 0.000, 15:20:27.447
34, -89.57, -321.26, 3.20, 6.31, 0.000, 0.000, 0.000, 15:20:27.447
35, 33.59, -655.97, 10.09, 13.16, 0.000, 0.000, 0.000, 15:20:27.447
36, 175.41, 14.80, 15.84, 18.23, 0.000, 0.000, 0.000, 15:20:27.447
37, -37.25, -99.68, 11.15, 7.93, 0.000, 0.000, 0.000, 15:20:27.447
38, -83.01, -679.30, 9.07, 9.35, 0.000, 0.000, 0.000, 15:20:27.448
39, 173.21, -204.39, 17.22, 17.10, 0.000, 0.000, 0.000, 15:20:27.468
40, 40.04, 71.78, 13.33, 18.21, 0.000, 0.000, 0.000, 15:20:27.469
41, -70.92, -543.19, 5.01, 8.32, 0.000, 0.000, 0.000, 15:20:27.469
42, 134.76, -466.56, 19.36, 15.91, 0.000, 0.000, 0.000, 15:20:27.470
43, 118.85, 123.50, 14.08, 17.64, 0.000, 0.000, 0.000, 15:20:27.491
44, -85.57, -337.05, 1.98, 9.75, 0.000, 0.000, 0.000, 15:20:27.491
45, 27.12, -664.06, 13.00, 12.85, 0.000, 0.000, 0.000, 15:20:27.492
46, 197.96, 12.80, 21.47, 13.90, 0.000, 0.000, 0.000, 15:20:27.492
47, -25.09, -94.35, 2.24, 7.47, 0.000, 0.000, 0.000, 15:20:27.513
48, -53.65, -667.09, 5.05, 8.57, 0.000, 0.000, 0.000, 15:20:27.514
49, 182.63, -206.79, 18.70, 18.19, 0.000, 0.000, 0.000, 15:20:27.514
50, 34.61, 72.56, 9.90, 8.25, 0.000, 0.000, 0.000, 15:20:27.514
51, -96.77, -542.68, 2.27, 3.90, 0.000, 0.000, 0.000, 15:20:27.536
52, 116.67, -461.08, 20.47, 14.15, 0.000, 0.000, 0.000, 15:20:27.536
53, 81.93, 126.64, 10.03, 16.41, 0.000, 0.000, 0.000, 15:20:27.537
54, -60.78, -314.78, 0.88, 8.56, 0.000, 0.000, 0.000, 15:20:27.537
55, 57.88, -641.81, 8.26, 11.82, 0.000, 0.000, 0.000, 15:20:27.537
56, 181.52, 35.82, 19.94, 17.12, 0.000, 0.000, 0.000, 15:20:27.538
57, -22.09, -88.63, 1.64, 5.64, 0.000, 0.000, 0.000, 15:20:27.559
58, -57.96, -679.17, 4.27, 7.66, 0.000, 0.000, 0.000, 15:20:27.559
59, 168.75, -202.18, 21.34, 19.10, 0.000, 0.000, 0.000, 15:20:27.559
60, 31.34, 70.25, 9.78, 11.39, 0.000, 0.000, 0.000, 15:20:27.560
61, -114.99, -528.98, 1.85, 7.77, 0.000, 0.000, 0.000, 15:20:27.581
62, 133.97, -449.03, 20.42, 17.49, 0.000, 0.000, 0.000, 15:20:27.581
63, 137.43, 122.18, 14.62, 14.30, 0.000, 0.000, 0.000, 15:20:27.581
64, -85.06, -334.55, 3.55, 5.83, 0.000, 0.000, 0.000, 15:20:27.582
65, 36.62, -652.99, 17.65, 8.47, 0.000, 0.000, 0.000, 15:20:27.605
66, 164.82, 31.45, 21.74, 15.28, 0.000, 0.000, 0.000, 15:20:27.606
67, -56.60, -90.46, 5.24, 9.11, 0.000, 0.000, 0.000, 15:20:27.606
68, -23.71, -667.75, 3.18, 10.49, 0.000, 0.000, 0.000, 15:20:27.606
69, 189.45, -199.67, 21.74, 15.85, 0.000, 0.000, 0.000, 15:20:27.627
70, 31.57, 67.77, 8.35, 8.76, 0.000, 0.000, 0.000, 15:20:27.634
71, -78.24, -555.73, 5.29, 5.37, 0.000, 0.000, 0.000, 15:20:27.634
72, 127.02, -446.92, 17.49, 15.19, 0.000, 0.000, 0.000, 15:20:27.634
73, 126.06, 133.30, 11.71, 14.51, 0.000, 0.000, 0.000, 15:20:27.634
74, -90.23, -321.36, 1.08, 8.06, 0.000, 0.000, 0.000, 15:20:27.634
75, 15.30, -641.32, 11.83, 12.43, 0.000, 0.000, 0.000, 15:20:27.649
76, 182.68, 29.88, 18.12, 18.42, 0.000, 0.000, 0.000, 15:20:27.649
77, -19.65, -114.46, 6.51, 9.71, 0.000, 0.000, 0.000, 15:20:27.649
78, -70.43, -681.69, 8.56, 7.04, 0.000, 0.000, 0.000, 15:20:27.650
79, 193.83, -192.14, 19.01, 15.56, 0.000, 0.000, 0.000, 15:20:27.673
80, 46.53, 67.06, 8.50, 12.56, 0.000, 0.000, 0.000, 15:20:27.673
81, -79.02, -551.92, 5.88, 5.77, 0.000, 0.000, 0.000, 15:20:27.673
82, 121.96, -444.73, 15.73, 14.38, 0.000, 0.000, 0.000, 15:20:27.674
83, 118.25, 130.07, 12.77, 13.80, 0.000, 0.000, 0.000, 15:20:27.696
84, -77.54, -332.36, 3.55, 5.81, 0.000, 0.000, 0.000, 15:20:27.696
85, 31.23, -642.16, 12.34, 13.00, 0.000, 0.000, 0.000, 15:20:27.696
86, 167.54, 22.18, 15.60, 16.93, 0.000, 0.000, 0.000, 15:20:27.697
87, -41.06, -105.90, 7.77, 10.58, 0.000, 0.000, 0.000, 15:20:27.717
88, -74.80, -671.41, 7.67, 7.83, 0.000, 0.000, 0.000, 15:20:27.717
89, 205.69, -178.30, 22.48, 19.00, 0.000, 0.000, 0.000, 15:20:27.718
90, 40.38, 70.24, 5.91, 11.93, 0.000, 0.000, 0.000, 15:20:27.718
91, -58.06, -554.53, 5.13, 8.57, 0.000, 0.000, 0.000, 15:20:27.718
92, 133.13, -443.54, 19.14, 16.31, 0.000, 0.000, 0.000, 15:20:27.718
93, 105.74, 130.38, 11.20, 17.15, 0.000, 0.000, 0.000, 15:20:27.739
94, -89.88, -341.92, 3.45, 7.11, 0.000, 0.000, 0.000, 15:20:27.740
95, 42.95, -639.03, 11.47, 11.05, 0.000, 0.000, 0.000, 15:20:27.740
96, 175.57, 33.06, 20.10, 13.92, 0.000, 0.000, 0.000, 15:20:27.741
97, -36.71, -99.99, 5.80, 7.11, 0.000, 0.000, 0.000, 15:20:27.762
98, -58.96, -671.59, 10.81, 10.51, 0.000, 0.000, 0.000, 15:20:27.762
99, 180.29, -181.68, 18.11, 20.57, 0.000, 0.000, 0.000, 15:20:27.763
100, 15.02, 68.23, 7.76, 12.38, 0.000, 0.000, 0.000, 15:20:27.763
101, -59.31, -545.69, 5.77, 5.59, 0.000, 0.000, 0.000, 15:20:27.784
102, 131.36, -449.91, 21.85, 14.87, 0.000, 0.000, 0.000, 15:20:27.784
103, 116.11, 116.80, 11.96, 15.97, 0.000, 0.000, 0.000, 15:20:27.785
104, -75.85, -332.08, 7.24, 6.25, 0.000, 0.000, 0.000, 15:20:27.785
105, 28.60, -632.27, 10.10, 14.18, 0.000, 0.000, 0.000, 15:20:27.806
106, 179.98, 29.45, 16.45, 13.86, 0.000, 0.000, 0.000, 15:20:27.806
107, -33.23, -108.41, 5.97, 5.81, 0.000, 0.000, 0.000, 15:20:27.807
108, -57.30, -658.18, 5.74, 7.13, 0.000, 0.000, 0.000, 15:20:27.807
109, 178.12, -192.49, 19.12, 17.78, 0.000, 0.000, 0.000, 15:20:27.809
110, 2.15, 50.91, 4.94, 13.11, 0.000, 0.000, 0.000, 15:20:27.809
111, -122.44, -549.85, 6.08, 7.57, 0.000, 0.000, 0.000, 15:20:27.829
112, 188.10, -442.84, 17.56, 15.98, 0.000, 0.000, 0.000, 15:20:27.829
113, 155.63, 105.96, 11.52, 13.80, 0.000, 0.000, 0.000, 15:20:27.829
114, -101.06, -319.67, 2.60, 6.64, 0.000, 0.000, 0.000, 15:20:27.829
115, 37.89, -635.57, 12.98, 10.38, 0.000, 0.000, 0.000, 15:20:27.851
116, 172.25, 22.90, 18.76, 18.38, 0.000, 0.000, 0.000, 15:20:27.851
117, -50.94, -105.23, 6.18, 8.53, 0.000, 0.000, 0.000, 15:20:27.852
118, -40.31, -658.36, 7.81, 11.01, 0.000, 0.000, 0.000, 15:20:27.852
119, 174.42, -185.29, 20.01, 18.36, 0.000, 0.000, 0.000, 15:20:27.874
120, 58.55, 70.73, 8.08, 7.87, 0.000, 0.000, 0.000, 15:20:27.875
121, -109.43, -554.78, 2.86, 10.42, 0.000, 0.000, 0.000, 15:20:27.875
122, 142.36, -451.52, 18.51, 17.05, 0.000, 0.000, 0.000, 15:20:27.875
123, 119.95, 118.30, 13.97, 12.52, 0.000, 0.000, 0.000, 15:20:27.896
124, -66.70, -332.99, 2.94, 6.77, 0.000, 0.000, 0.000, 15:20:27.897
125, 29.08, -648.79, 8.52, 8.92, 0.000, 0.000, 0.000, 15:20:27.897
126, 185.37, 25.58, 18.77, 12.43, 0.000, 0.000, 0.000, 15:20:27.897
127, -35.62, -95.86, 7.08, 8.92, 0.000, 0.000, 0.000, 15:20:27.898
128, -58.32, -678.14, 6.94, 5.91, 0.000, 0.000, 0.000, 15:20:27.898
129, 184.29, -178.48, 18.79, 19.41, 0.000, 0.000, 0.000, 15:20:27.919
130, 42.71, 80.67, 8.18, 11.39, 0.000, 0.000, 0.000, 15:20:27.920
131, -74.19, -555.43, 3.16, 6.48, 0.000, 0.000, 0.000, 15:20:27.920
132, 139.20, -457.59, 18.89, 16.30, 0.000, 0.000, 0.000, 15:20:27.920
133, 109.72, 116.07, 16.78, 18.15, 0.000, 0.000, 0.000, 15:20:27.941
134, -73.02, -322.67, 3.06, 8.24, 0.000, 0.000, 0.000, 15:20:27.941
135, 34.49, -637.09, 10.37, 13.91, 0.000, 0.000, 0.000, 15:20:27.942
136, 170.88, 36.51, 14.74, 15.72, 0.000, 0.000, 0.000, 15:20:27.942
137, -38.69, -101.62, 3.11, 10.57, 0.000, 0.000, 0.000, 15:20:27.963
138, -45.62, -659.32, 7.87, 13.16, 0.000, 0.000, 0.000, 15:20:27.964
139, 162.64, -167.77, 22.29, 18.62, 0.000, 0.000, 0.000, 15:20:27.964
140, 10.37, 76.48, 9.29, 8.62, 0.000, 0.000, 0.000, 15:20:27.964
141, -75.31, -545.15, 3.24, 7.21, 0.000, 0.000, 0.000, 15:20:27.986
142, 156.54, -430.80, 18.51, 17.55, 0.000, 0.000, 0.000, 15:20:27.986
143, 114.36, 137.29, 13.88, 14.22, 0.000, 0.000, 0.000, 15:20:27.987
144, -92.46, -351.95, 4.47, 6.23, 0.000, 0.000, 0.000, 15:20:27.987
145, 7.88, -646.84, 15.41, 15.74, 0.000, 0.000, 0.000, 15:20:27.987
146, 216.55, 33.73, 17.29, 14.45, 0.000, 0.000, 0.000, 15:20:27.987
147, -28.96, -135.26, 2.59, 8.05, 0.000, 0.000, 0.000, 15:20:28.009
148, -58.94, -692.89, 9.87, 10.81, 0.000, 0.000, 0.000, 15:20:28.009
149, 175.71, -168.98, 21.10, 16.58, 0.000, 0.000, 0.000, 15:20:28.009
150, 34.14, 58.95, 7.12, 7.92, 0.000, 0.000, 0.000, 15:20:28.009
151, -88.31, -579.04, 1.80, 7.67, 0.000, 0.000, 0.000, 15:20:28.031
152, 80.28, -436.93, 17.81, 15.74, 0.000, 0.000, 0.000, 15:20:28.031
153, 109.19, 132.41, 10.03, 17.82, 0.000, 0.000, 0.000, 15:20:28.032
154, -45.21, -347.57, 3.20, 7.73, 0.000, 0.000, 0.000, 15:20:28.032
155, 47.65, -619.65, 10.43, 10.26, 0.000, 0.000, 0.000, 15:20:28.053
156, 186.70, 36.77, 21.26, 17.97, 0.000, 0.000, 0.000, 15:20:28.054
157, -31.22, -148.53, 8.25, 7.87, 0.000, 0.000, 0.000, 15:20:28.054
158, -45.51, -688.27, 8.29, 7.79, 0.000, 0.000, 0.000, 15:20:28.054
159, 186.88, -158.45, 21.57, 14.61, 0.000, 0.000, 0.000, 15:20:28.077
160, 87.19, 83.77, 4.30, 8.27, 0.000, 0.000, 0.000, 15:20:28.077
161, -55.18, -525.01, 2.10, 6.17, 0.000, 0.000, 0.000, 15:20:28.078
162, 153.44, -376.49, 18.63, 20.75, 0.000, 0.000, 0.000, 15:20:28.078
163, 117.41, 162.95, 11.65, 11.79, 0.000, 0.000, 0.000, 15:20:28.078
164, -89.29, -337.41, 3.80, 2.60, 0.000, 0.000, 0.000, 15:20:28.078
165, 22.93, -607.79, 16.78, 11.09, 0.000, 0.000, 0.000, 15:20:28.098
166, 166.37, 62.88, 16.88, 15.28, 0.000, 0.000, 0.000, 15:20:28.099
167, -51.49, -143.88, 7.17, 7.70, 0.000, 0.000, 0.000, 15:20:28.099
168, -70.89, -703.51, 10.70, 10.53, 0.000, 0.000, 0.000, 15:20:28.099
169, 189.18, -164.34, 19.02, 15.15, 0.000, 0.000, 0.000, 15:20:28.121
170, 37.70, 53.10, 6.53, 6.11, 0.000, 0.000, 0.000, 15:20:28.121
171, -91.42, -591.38, -0.68, 6.95, 0.000, 0.000, 0.000, 15:20:28.121
172, 117.32, -440.24, 19.57, 18.90, 0.000, 0.000, 0.000, 15:20:28.121
173, 103.49, 117.79, 16.85, 12.56, 0.000, 0.000, 0.000, 15:20:28.143
174, -91.52, -364.30, 7.60, 6.78, 0.000, 0.000, 0.000, 15:20:28.144
175, 34.63, -641.38, 14.46, 15.40, 0.000, 0.000, 0.000, 15:20:28.144
176, 171.75, 52.43, 16.99, 14.58, 0.000, 0.000, 0.000, 15:20:28.145
177, -12.25, -132.78, 1.99, 8.56, 0.000, 0.000, 0.000, 15:20:28.166
178, -37.43, -674.64, 6.13, 10.79, 0.000, 0.000, 0.000, 15:20:28.166
179, 185.55, -166.39, 18.40, 15.22, 0.000, 0.000, 0.000, 15:20:28.167
180, 8.37, 44.58, 4.59, 10.02, 0.000, 0.000, 0.000, 15:20:28.167
181, -94.66, -569.20, 4.54, 6.66, 0.000, 0.000, 0.000, 15:20:28.167
182, 138.09, -422.59, 17.09, 16.59, 0.000, 0.000, 0.000, 15:20:28.168
183, 104.86, 115.18, 16.43, 12.32, 0.000, 0.000, 0.000, 15:20:28.189
184, -73.55, -351.40, 3.51, 2.89, 0.000, 0.000, 0.000, 15:20:28.189
185, 46.76, -611.47, 12.02, 13.66, 0.000, 0.000, 0.000, 15:20:28.189
186, 176.65, 53.62, 15.37, 15.81, 0.000, 0.000, 0.000, 15:20:28.189
187, -33.83, -115.94, 4.22, 5.19, 0.000, 0.000, 0.000, 15:20:28.212
188, -55.37, -678.24, 7.02, 12.57, 0.000, 0.000, 0.000, 15:20:28.212
189, 180.34, -152.12, 18.72, 19.41, 0.000, 0.000, 0.000, 15:20:28.234
190, 41.87, 68.55, 12.25, 12.85, 0.000, 0.000, 0.000, 15:20:28.234
191, -98.07, -577.05, 5.58, 6.34, 0.000, 0.000, 0.000, 15:20:28.234
192, 140.06, -423.90, 19.29, 20.03, 0.000, 0.000, 0.000, 15:20:28.234
193, 92.27, 150.31, 12.55, 12.17, 0.000, 0.000, 0.000, 15:20:28.235
194, -79.00, -366.74, 3.95, 5.99, 0.000, 0.000, 0.000, 15:20:28.235
195, 42.10, -628.86, 11.75, 12.29, 0.000, 0.000, 0.000, 15:20:28.236
196, 199.72, 72.51, 16.02, 17.41, 0.000, 0.000, 0.000, 15:20:28.236
197, -40.21, -142.11, 7.09, 6.33, 0.000, 0.000, 0.000, 15:20:28.258
198, -31.37, -699.34, 8.38, 8.28, 0.000, 0.000, 0.000, 15:20:28.258
199, 195.99, -124.45, 19.66, 13.40, 0.000, 0.000, 0.000, 15:20:28.258
200, 19.35, 58.28, 12.40, 8.89, 0.000, 0.000, 0.000, 15:20:28.258
0, -91.05, -579.63, 2.80, 6.80, 0.000, 0.000, 0.000, 15:20:28.279
1, 135.92, -395.55, 17.63, 19.81, 0.000, 0.000, 0.000, 15:20:28.279
2, 107.79, 141.53, 13.06, 12.32, 0.000, 0.000, 0.000, 15:20:28.279
3, -81.27, -361.63, 3.10, 1.42, 0.000, 0.000, 0.000, 15:20:28.301
4, 59.49, -615.50, 14.98, 15.08, 0.000, 0.000, 0.000, 15:20:28.301
5, 186.13, 62.41, 20.14, 19.81, 0.000, 0.000, 0.000, 15:20:28.302
6, -26.47, -130.01, 4.97, 9.44, 0.000, 0.000, 0.000, 15:20:28.302
7, -38.15, -669.41, 6.94, 9.05, 0.000, 0.000, 0.000, 15:20:28.302
8, 175.22, -142.01, 18.76, 20.43, 0.000, 0.000, 0.000, 15:20:28.303
9, 0.54, 52.61, 5.96, 9.83, 0.000, 0.000, 0.000, 15:20:28.323
10, -54.97, -580.36, 0.21, 5.96, 0.000, 0.000, 0.000, 15:20:28.326
11, 164.44, -403.72, 20.81, 14.47, 0.000, 0.000, 0.000, 15:20:28.326
12, 105.52, 134.97, 9.72, 11.40, 0.000, 0.000, 0.000, 15:20:28.326
13, -71.78, -363.26, 2.59, 7.11, 0.000, 0.000, 0.000, 15:20:28.346
14, 66.07, -596.35, 11.44, 13.04, 0.000, 0.000, 0.000, 15:20:28.346
15, 160.34, 58.04, 19.63, 12.53, 0.000, 0.000, 0.000, 15:20:28.346
16, -45.79, -149.59, 7.76, 7.98, 0.000, 0.000, 0.000, 15:20:28.346
17, -18.31, -687.55, 9.49, 9.11, 0.000, 0.000, 0.000, 15:20:28.368
18, 194.27, -136.72, 17.20, 15.40, 0.000, 0.000, 0.000, 15:20:28.369
19, 8.10, 50.69, 11.05, 14.25, 0.000, 0.000, 0.000, 15:20:28.369
20, -97.16, -579.47, 2.73, 3.33, 0.000, 0.000, 0.000, 15:20:28.369
21, 135.72, -397.20, 18.07, 20.40, 0.000, 0.000, 0.000, 15:20:28.391
22, 116.34, 132.96, 15.95, 19.14, 0.000, 0.000, 0.000, 15:20:28.391
23, -90.00, -371.95, 1.72, 4.61, 0.000, 0.000, 0.000, 15:20:28.392
24, 28.56, -616.81, 14.98, 13.84, 0.000, 0.000, 0.000, 15:20:28.392
25, 158.97, 60.27, 15.61, 21.34, 0.000, 0.000, 0.000, 15:20:28.392
26, -38.69, -156.98, 5.85, 6.87, 0.000, 0.000, 0.000, 15:20:28.393
27, -76.97, -679.49, 7.41, 8.18, 0.000, 0.000, 0.000, 15:20:28.413
28, 214.70, -135.28, 17.76, 14.84, 0.000, 0.000, 0.000, 15:20:28.414
29, 13.92, 28.13, 9.01, 12.57, 0.000, 0.000, 0.000, 15:20:28.414
30, -96.15, -589.55, 4.49, 7.73, 0.000, 0.000, 0.000, 15:20:28.414
31, 145.32, -398.85, 17.10, 16.12, 0.000, 0.000, 0.000, 15:20:28.436
32, 95.79, 119.23, 13.57, 13.77, 0.000, 0.000, 0.000, 15:20:28.436
33, -90.02, -383.31, 2.92, 6.18, 0.000, 0.000, 0.000, 15:20:28.437
34, 57.74, -596.81, 10.25, 14.82, 0.000, 0.000, 0.000, 15:20:28.437
35, 163.55, 59.60, 19.62, 16.17, 0.000, 0.000, 0.000, 15:20:28.458
36, -59.48, -162.38, 3.18, 4.52, 0.000, 0.000, 0.000, 15:20:28.459
37, -40.93, -669.37, 5.62, 6.97, 0.000, 0.000, 0.000, 15:20:28.460
38, 198.97, -145.08, 19.30, 18.34, 0.000, 0.000, 0.000, 15:20:28.460
39, 8.97, 22.06, 6.85, 7.45, 0.000, 0.000, 0.000, 15:20:28.481
40, -106.22, -581.16, 4.84, 5.68, 0.000, 0.000, 0.000, 15:20:28.481
41, 161.79, -391.20, 20.38, 17.81, 0.000, 0.000, 0.000, 15:20:28.481
42, 109.26, 112.45, 12.71, 15.89, 0.000, 0.000, 0.000, 15:20:28.481
43, -92.64, -392.60, -0.16, 5.42, 0.000, 0.000, 0.000, 15:20:28.482
44, 47.64, -599.45, 15.51, 12.46, 0.000, 0.000, 0.000, 15:20:28.482
45, 174.12, 71.98, 21.35, 19.21, 0.000, 0.000, 0.000, 15:20:28.503
46, -43.29, -176.60, 4.28, 6.13, 0.000, 0.000, 0.000, 15:20:28.504
47, -50.25, -709.14, 12.63, 9.09, 0.000, 0.000, 0.000, 15:20:28.504
48, 186.45, -124.25, 20.18, 17.59, 0.000, 0.000, 0.000, 15:20:28.504
49, 25.22, 47.93, 4.23, 10.42, 0.000, 0.000, 0.000, 15:20:28.526
50, -100.06, -594.79, 6.04, 7.92, 0.000, 0.000, 0.000, 15:20:28.526
51, 132.23, -403.67, 21.50, 15.04, 0.000, 0.000, 0.000, 15:20:28.526
52, 83.83, 109.81, 12.17, 17.03, 0.000, 0.000, 0.000, 15:20:28.527
53, -74.31, -397.81, 3.56, 4.87, 0.000, 0.000, 0.000, 15:20:28.548
54, 84.96, -621.50, 15.48, 12.19, 0.000, 0.000, 0.000, 15:20:28.549
55, 159.94, 82.24, 13.24, 16.32, 0.000, 0.000, 0.000, 15:20:28.549
56, -76.28, -140.65, 3.35, 8.29, 0.000, 0.000, 0.000, 15:20:28.549
57, -20.66, -675.17, 8.48, 6.40, 0.000, 0.000, 0.000, 15:20:28.571
58, 206.41, -126.22, 19.49, 18.26, 0.000, 0.000, 0.000, 15:20:28.571
59, 7.89, 31.88, 10.32, 15.17, 0.000, 0.000, 0.000, 15:20:28.571
60, -90.26, -596.82, 3.24, 8.65, 0.000, 0.000, 0.000, 15:20:28.572
61, 163.05, -395.33, 17.81, 15.34, 0.000, 0.000, 0.000, 15:20:28.572
62, 96.23, 121.01, 12.00, 14.77, 0.000, 0.000, 0.000, 15:20:28.573
63, -86.27, -398.54, 1.17, 6.25, 0.000, 0.000, 0.000, 15:20:28.593
64, 34.52, -606.83, 14.51, 9.79, 0.000, 0.000, 0.000, 15:20:28.594
65, 161.58, 68.49, 14.46, 12.56, 0.000, 0.000, 0.000, 15:20:28.594
66, -50.47, -160.77, 2.35, 8.50, 0.000, 0.000, 0.000, 15:20:28.594
67, -40.72, -688.87, 8.90, 10.78, 0.000, 0.000, 0.000, 15:20:28.616
68, 217.31, -119.43, 18.71, 17.85, 0.000, 0.000, 0.000, 15:20:28.616
69, 21.70, 41.13, 9.53, 13.13, 0.000, 0.000, 0.000, 15:20:28.616
70, -95.18, -593.24, 5.88, 5.91, 0.000, 0.000, 0.000, 15:20:28.617
71, 155.33, -373.45, 19.19, 20.53, 0.000, 0.000, 0.000, 15:20:28.638
72, 95.62, 131.06, 15.40, 12.64, 0.000, 0.000, 0.000, 15:20:28.639
73, -91.31, -395.83, 3.54, 12.37, 0.000, 0.000, 0.000, 15:20:28.639
74, 59.37, -600.72, 12.81, 11.14, 0.000, 0.000, 0.000, 15:20:28.639
75, 165.44, 73.36, 20.11, 16.26, 0.000, 0.000, 0.000, 15:20:28.661
76, -52.26, -171.54, 1.63, 8.24, 0.000, 0.000, 0.000, 15:20:28.661
77, -34.55, -691.51, 8.83, 10.04, 0.000, 0.000, 0.000, 15:20:28.662
78, 196.04, -115.61, 17.99, 18.61, 0.000, 0.000, 0.000, 15:20:28.662
79, 23.37, 32.06, 7.34, 9.78, 0.000, 0.000, 0.000, 15:20:28.664
80, -98.48, -595.78, 1.11, 7.80, 0.000, 0.000, 0.000, 15:20:28.664
81, 137.24, -385.45, 20.02, 14.89, 0.000, 0.000, 0.000, 15:20:28.683
82, 88.93, 127.37, 15.00, 17.00, 0.000, 0.000, 0.000, 15:20:28.684
83, -82.29, -375.57, -2.32, 6.90, 0.000, 0.000, 0.000, 15:20:28.684
84, 59.88, -590.84, 23.14, 15.80, 0.000, 0.000, 0.000, 15:20:28.684
85, 191.34, 76.45, 14.35, 14.66, 0.000, 0.000, 0.000, 15:20:28.706
86, -48.08, -157.27, -1.34, 7.87, 0.000, 0.000, 0.000, 15:20:28.706
87, -27.49, -676.63, 10.85, 9.68, 0.000, 0.000, 0.000, 15:20:28.707
88, 198.21, -108.63, 18.43, 21.79, 0.000, 0.000, 0.000, 15:20:28.707
89, 2.99, 40.39, 7.20, 8.44, 0.000, 0.000, 0.000, 15:20:28.729
90, -94.35, -594.55, 2.42, 6.68, 0.000, 0.000, 0.000, 15:20:28.730
91, 145.30, -362.75, 14.32, 14.41, 0.000, 0.000, 0.000, 15:20:28.730
92, 101.80, 135.26, 15.58, 9.51, 0.000, 0.000, 0.000, 15:20:28.730
93, -80.09, -399.43, 6.01, 4.53, 0.000, 0.000, 0.000, 15:20:28.751
94, 62.08, -592.65, 13.07, 15.66, 0.000, 0.000, 0.000, 15:20:28.751
95, 163.93, 83.05, 15.40, 16.42, 0.000, 0.000, 0.000, 15:20:28.751
96, -85.98, -165.51, -0.49, 7.11, 0.000, 0.000, 0.000, 15:20:28.751
97, -13.76, -683.38, 6.73, 8.87, 0.000, 0.000, 0.000, 15:20:28.752
98, 203.33, -107.32, 24.04, 20.03, 0.000, 0.000, 0.000, 15:20:28.753
99, 18.83, 28.69, 6.99, 8.22, 0.000, 0.000, 0.000, 15:20:28.773
100, -81.76, -603.70, 0.22, 4.08, 0.000, 0.000, 0.000, 15:20:28.774
101, 159.75, -365.78, 18.56, 14.85, 0.000, 0.000, 0.000, 15:20:28.796
102, 106.24, 128.26, 17.50, 14.20, 0.000, 0.000, 0.000, 15:20:28.796
103, -93.46, -407.00, 1.34, 4.89, 0.000, 0.000, 0.000, 15:20:28.796
104, 59.42, -591.59, 11.43, 14.40, 0.000, 0.000, 0.000, 15:20:28.796
105, 160.00, 87.67, 16.75, 16.34, 0.000, 0.000, 0.000, 15:20:28.797
106, -56.41, -172.34, 6.28, 4.92, 0.000, 0.000, 0.000, 15:20:28.797
107, -45.02, -688.54, 11.71, 8.94, 0.000, 0.000, 0.000, 15:20:28.818
108, 181.30, -110.02, 20.95, 16.27, 0.000, 0.000, 0.000, 15:20:28.819
109, 24.19, 21.57, 3.94, 14.65, 0.000, 0.000, 0.000, 15:20:28.819
110, -79.91, -605.71, 4.24, 7.02, 0.000, 0.000, 0.000, 15:20:28.819
111, 160.54, -368.21, 16.71, 14.63, 0.000, 0.000, 0.000, 15:20:28.841
112, 88.01, 120.71, 11.25, 10.89, 0.000, 0.000, 0.000, 15:20:28.842
113, -83.46, -409.42, 1.75, 9.34, 0.000, 0.000, 0.000, 15:20:28.842
114, 57.45, -592.40, 18.13, 13.59, 0.000, 0.000, 0.000, 15:20:28.842
115, 147.13, 85.23, 17.55, 17.38, 0.000, 0.000, 0.000, 15:20:28.843
116, -16.31, -174.17, 5.58, 7.46, 0.000, 0.000, 0.000, 15:20:28.843
117, -11.29, -682.97, 6.34, 7.74, 0.000, 0.000, 0.000, 15:20:28.863
118, 188.25, -98.87, 22.50, 21.71, 0.000, 0.000, 0.000, 15:20:28.863
119, 20.93, 28.47, 6.97, 11.93, 0.000, 0.000, 0.000, 15:20:28.864
120, -81.83, -598.70, 4.08, 7.41, 0.000, 0.000, 0.000, 15:20:28.864
121, 149.62, -357.68, 19.33, 14.70, 0.000, 0.000, 0.000, 15:20:28.886
122, 86.47, 125.18, 15.71, 13.41, 0.000, 0.000, 0.000, 15:20:28.886
123, -81.69, -418.38, 2.35, -0.24, 0.000, 0.000, 0.000, 15:20:28.887
124, 45.24, -587.35, 16.75, 11.40, 0.000, 0.000, 0.000, 15:20:28.887
125, 156.48, 93.48, 16.93, 13.60, 0.000, 0.000, 0.000, 15:20:28.908
126, -54.30, -175.92, 6.24, 5.10, 0.000, 0.000, 0.000, 15:20:28.909
127, -33.59, -684.35, 9.08, 13.77, 0.000, 0.000, 0.000, 15:20:28.909
128, 213.26, -95.76, 17.24, 17.61, 0.000, 0.000, 0.000, 15:20:28.909
129, 11.85, 19.37, 6.79, 10.37, 0.000, 0.000, 0.000, 15:20:28.931
130, -84.18, -612.52, 8.48, 9.76, 0.000, 0.000, 0.000, 15:20:28.931
131, 135.16, -364.57, 17.24, 20.22, 0.000, 0.000, 0.000, 15:20:28.932
132, 54.50, 118.27, 16.33, 13.93, 0.000, 0.000, 0.000, 15:20:28.932
133, -76.99, -433.82, -0.13, 5.57, 0.000, 0.000, 0.000, 15:20:28.933
134, 73.16, -615.59, 14.75, 14.39, 0.000, 0.000, 0.000, 15:20:28.933
135, 161.52, 63.93, 15.31, 19.11, 0.000, 0.000, 0.000, 15:20:28.954
136, -50.12, -199.32, 4.12, 5.45, 0.000, 0.000, 0.000, 15:20:28.954
137, -33.22, -694.50, 8.19, 7.82, 0.000, 0.000, 0.000, 15:20:28.954
138, 202.02, -105.66, 19.48, 20.95, 0.000, 0.000, 0.000, 15:20:28.954
139, 3.24, 2.10, 8.54, 10.09, 0.000, 0.000, 0.000, 15:20:28.976
140, -109.95, -624.89, 3.62, 8.27, 0.000, 0.000, 0.000, 15:20:28.976
141, 133.67, -373.98, 17.60, 19.39, 0.000, 0.000, 0.000, 15:20:28.977
142, 108.37, 102.94, 11.16, 14.11, 0.000, 0.000, 0.000, 15:20:28.977
143, -95.18, -445.65, 2.72, 3.50, 0.000, 0.000, 0.000, 15:20:28.999
144, 72.07, -614.92, 13.37, 14.19, 0.000, 0.000, 0.000, 15:20:28.999
145, 186.91, 55.14, 17.76, 16.29, 0.000, 0.000, 0.000, 15:20:28.999
146, -21.58, -198.32, 3.46, 1.92, 0.000, 0.000, 0.000, 15:20:28.999
147, 5.01, -671.39, 9.10, 9.23, 0.000, 0.000, 0.000, 15:20:29.021
148, 208.61, -65.91, 20.28, 17.84, 0.000, 0.000, 0.000, 15:20:29.021
149, 20.72, 39.07, 10.33, 9.70, 0.000, 0.000, 0.000, 15:20:29.022
150, -57.93, -586.32, 8.66, 5.47, 0.000, 0.000, 0.000, 15:20:29.022
151, 162.16, -319.31, 17.78, 15.00, 0.000, 0.000, 0.000, 15:20:29.022
152, 79.22, 147.98, 10.79, 13.10, 0.000, 0.000, 0.000, 15:20:29.023
153, -99.57, -417.28, -0.11, 8.43, 0.000, 0.000, 0.000, 15:20:29.047
154, 61.78, -584.33, 12.87, 14.62, 0.000, 0.000, 0.000, 15:20:29.048
155, 150.32, 79.72, 17.86, 15.73, 0.000, 0.000, 0.000, 15:20:29.050
156, -78.16, -192.18, 7.31, 3.97, 0.000, 0.000, 0.000, 15:20:29.051
157, -35.58, -675.25, 6.70, 10.34, 0.000, 0.000, 0.000, 15:20:29.066
158, 188.26, -91.08, 18.61, 22.45, 0.000, 0.000, 0.000, 15:20:29.067
159, 10.97, 11.57, 4.82, 10.81, 0.000, 0.000, 0.000, 15:20:29.067
160, -81.54, -614.75, 6.91, 2.98, 0.000, 0.000, 0.000, 15:20:29.067
161, 146.24, -342.60, 19.88, 18.27, 0.000, 0.000, 0.000, 15:20:29.088
162, 99.14, 118.52, 12.20, 14.04, 0.000, 0.000, 0.000, 15:20:29.089
163, -101.52, -421.86, 3.74, 9.03, 0.000, 0.000, 0.000, 15:20:29.089
164, 62.23, -574.97, 15.99, 14.15, 0.000, 0.000, 0.000, 15:20:29.090
165, 154.50, 92.90, 14.49, 18.37, 0.000, 0.000, 0.000, 15:20:29.111
166, -53.31, -196.56, 3.73, 5.42, 0.000, 0.000, 0.000, 15:20:29.112
167, -26.51, -682.94, 8.88, 7.55, 0.000, 0.000, 0.000, 15:20:29.113
168, 176.31, -83.18, 21.65, 17.67, 0.000, 0.000, 0.000, 15:20:29.113
169, 5.54, -1.45, 6.70, 11.56, 0.000, 0.000, 0.000, 15:20:29.113
170, -67.30, -614.25, 3.00, 9.50, 0.000, 0.000, 0.000, 15:20:29.113
171, 160.71, -341.01, 20.87, 19.30, 0.000, 0.000, 0.000, 15:20:29.134
172, 64.67, 124.27, 10.68, 10.42, 0.000, 0.000, 0.000, 15:20:29.134
173, -95.00, -433.17, 1.60, -0.44, 0.000, 0.000, 0.000, 15:20:29.134
174, 72.58, -573.01, 16.39, 13.28, 0.000, 0.000, 0.000, 15:20:29.134
175, 164.86, 93.42, 14.52, 13.92, 0.000, 0.000, 0.000, 15:20:29.156
176, -37.78, -209.57, 5.56, 10.58, 0.000, 0.000, 0.000, 15:20:29.156
177, -35.04, -693.87, 7.28, 11.47, 0.000, 0.000, 0.000, 15:20:29.157
178, 205.46, -67.17, 22.28, 20.45, 0.000, 0.000, 0.000, 15:20:29.157
179, 9.20, -1.35, 5.53, 8.18, 0.000, 0.000, 0.000, 15:20:29.179
180, -88.08, -643.28, 8.52, 7.13, 0.000, 0.000, 0.000, 15:20:29.179
181, 162.04, -323.79, 19.80, 18.65, 0.000, 0.000, 0.000, 15:20:29.180
182, 78.93, 128.82, 7.38, 12.73, 0.000, 0.000, 0.000, 15:20:29.180
183, -92.18, -456.38, 1.83, 7.01, 0.000, 0.000, 0.000, 15:20:29.202
184, 75.26, -578.14, 16.09, 12.05, 0.000, 0.000, 0.000, 15:20:29.202
185, 151.77, 114.29, 15.85, 13.92, 0.000, 0.000, 0.000, 15:20:29.203
186, -42.61, -201.29, 1.13, 5.78, 0.000, 0.000, 0.000, 15:20:29.203
187, -29.96, -689.64, 11.12, 9.05, 0.000, 0.000, 0.000, 15:20:29.203
188, 181.79, -72.60, 17.77, 14.25, 0.000, 0.000, 0.000, 15:20:29.203
189, 25.96, 18.40, 10.05, 10.86, 0.000, 0.000, 0.000, 15:20:29.224
190, -76.73, -626.40, 1.37, 8.70, 0.000, 0.000, 0.000, 15:20:29.224
191, 157.47, -356.86, 18.58, 18.83, 0.000, 0.000, 0.000, 15:20:29.224
192, 87.91, 135.85, 12.01, 15.93, 0.000, 0.000, 0.000, 15:20:29.224
193, -83.65, -428.74, 2.83, 8.70, 0.000, 0.000, 0.000, 15:20:29.248
194, 79.41, -577.88, 17.40, 17.79, 0.000, 0.000, 0.000, 15:20:29.249
195, 169.50, 95.26, 15.36, 19.62, 0.000, 0.000, 0.000, 15:20:29.249
196, -45.89, -196.45, 4.30, 7.23, 0.000, 0.000, 0.000, 15:20:29.249
197, -8.29, -678.07, 7.91, 10.92, 0.000, 0.000, 0.000, 15:20:29.271
198, 187.78, -65.06, 19.06, 17.42, 0.000, 0.000, 0.000, 15:20:29.271
199, -3.62, 15.06, 10.55, 12.40, 0.000, 0.000, 0.000, 15:20:29.271
200, -84.87, -621.57, 7.88, 8.04, 0.000, 0.000, 0.000, 15:20:29.271
0, 165.80, -328.72, 20.13, 15.20, 0.000, 0.000, 0.000, 15:20:29.272
1, 100.97, 125.56, 14.34, 11.13, 0.000, 0.000, 0.000, 15:20:29.294
2, -69.93, -432.76, 0.81, 4.84, 0.000, 0.000, 0.000, 15:20:29.294
3, 51.13, -562.51, 13.88, 14.07, 0.000, 0.000, 0.000, 15:20:29.294
4, 161.10, 98.59, 14.94, 14.49, 0.000, 0.000, 0.000, 15:20:29.294
5, -45.83, -209.16, 0.75, 4.96, 0.000, 0.000, 0.000, 15:20:29.316
6, -14.72, -675.10, 8.18, 10.36, 0.000, 0.000, 0.000, 15:20:29.316
7, 190.68, -58.93, 19.63, 18.78, 0.000, 0.000, 0.000, 15:20:29.317
8, -17.20, 5.12, 6.47, 11.24, 0.000, 0.000, 0.000, 15:20:29.317
9, -86.83, -634.21, 2.05, 5.97, 0.000, 0.000, 0.000, 15:20:29.348
10, 176.67, -328.58, 23.03, 15.07, 0.000, 0.000, 0.000, 15:20:29.348
11, 92.56, 112.90, 13.65, 13.17, 0.000, 0.000, 0.000, 15:20:29.349
12, -87.64, -446.46, 5.00, 3.80, 0.000, 0.000, 0.000, 15:20:29.349
13, 75.89, -558.93, 15.25, 14.51, 0.000, 0.000, 0.000, 15:20:29.349
14, 134.16, 104.46, 14.48, 19.21, 0.000, 0.000, 0.000, 15:20:29.349
15, -72.02, -214.29, 4.18, 3.19, 0.000, 0.000, 0.000, 15:20:29.361
16, -24.28, -683.49, 9.25, 11.22, 0.000, 0.000, 0.000, 15:20:29.361
17, 184.97, -60.51, 19.89, 19.58, 0.000, 0.000, 0.000, 15:20:29.361
18, -2.02, 10.37, 6.75, 12.01, 0.000, 0.000, 0.000, 15:20:29.361
19, -82.91, -621.23, 2.95, 7.89, 0.000, 0.000, 0.000, 15:20:29.385
20, 166.83, -312.56, 18.22, 18.27, 0.000, 0.000, 0.000, 15:20:29.386
21, 72.93, 125.57, 10.73, 12.68, 0.000, 0.000, 0.000, 15:20:29.386
22, -86.24, -446.47, 3.77, 7.23, 0.000, 0.000, 0.000, 15:20:29.386
23, 83.22, -557.36, 14.94, 19.61, 0.000, 0.000, 0.000, 15:20:29.403
24, 135.80, 100.65, 17.59, 12.32, 0.000, 0.000, 0.000, 15:20:29.403
25, -82.43, -206.78, 3.72, 7.50, 0.000, 0.000, 0.000, 15:20:29.404
26, -17.78, -676.76, 9.82, 9.95, 0.000, 0.000, 0.000, 15:20:29.404
27, 198.10, -62.66, 22.19, 17.04, 0.000, 0.000, 0.000, 15:20:29.426
28, 8.24, -9.18, 7.28, 9.90, 0.000, 0.000, 0.000, 15:20:29.426
29, -73.32, -627.67, 2.96, 8.37, 0.000, 0.000, 0.000, 15:20:29.427
30, 161.34, -317.65, 19.28, 19.13, 0.000, 0.000, 0.000, 15:20:29.427
31, 69.35, 109.48, 10.63, 13.19, 0.000, 0.000, 0.000, 15:20:29.428
32, -110.79, -454.84, 0.99, 6.22, 0.000, 0.000, 0.000, 15:20:29.428
33, 70.80, -562.49, 16.00, 11.67, 0.000, 0.000, 0.000, 15:20:29.448
34, 152.84, 115.57, 14.45, 10.00, 0.000, 0.000, 0.000, 15:20:29.449
35, -59.63, -211.33, -1.74, 4.79, 0.000, 0.000, 0.000, 15:20:29.449
36, -12.27, -678.17, 9.95, 10.58, 0.000, 0.000, 0.000, 15:20:29.449
37, 207.55, -63.45, 20.47, 17.57, 0.000, 0.000, 0.000, 15:20:29.471
38, -0.54, -9.94, 5.02, 10.66, 0.000, 0.000, 0.000, 15:20:29.471
39, -89.91, -630.51, 4.69, 7.65, 0.000, 0.000, 0.000, 15:20:29.471
40, 174.71, -309.93, 19.26, 18.90, 0.000, 0.000, 0.000, 15:20:29.471
41, 74.21, 116.31, 14.07, 10.68, 0.000, 0.000, 0.000, 15:20:29.494
42, -109.87, -452.71, 3.01, 9.15, 0.000, 0.000, 0.000, 15:20:29.494
43, 69.42, -553.16, 14.71, 14.67, 0.000, 0.000, 0.000, 15:20:29.495
44, 182.62, 101.54, 13.48, 17.92, 0.000, 0.000, 0.000, 15:20:29.495
45, -55.16, -225.77, 1.51, 2.33, 0.000, 0.000, 0.000, 15:20:29.516
46, -11.98, -680.60, 8.44, 13.44, 0.000, 0.000, 0.000, 15:20:29.516
47, 181.78, -57.26, 16.45, 17.84, 0.000, 0.000, 0.000, 15:20:29.517
48, -21.57, -16.06, 5.17, 9.21, 0.000, 0.000, 0.000, 15:20:29.517
49, -85.87, -635.32, 5.63, 9.67, 0.000, 0.000, 0.000, 15:20:29.538
50, 163.44, -311.08, 17.33, 13.47, 0.000, 0.000, 0.000, 15:20:29.539
51, 76.19, 118.76, 12.72, 12.56, 0.000, 0.000, 0.000, 15:20:29.539
52, -73.96, -458.63, 5.30, 7.51, 0.000, 0.000, 0.000, 15:20:29.539
53, 87.60, -553.13, 17.32, 12.31, 0.000, 0.000, 0.000, 15:20:29.540
54, 145.15, 110.43, 15.29, 14.13, 0.000, 0.000, 0.000, 15:20:29.540
55, -63.30, -224.91, 6.04, 10.04, 0.000, 0.000, 0.000, 15:20:29.561
56, -8.64, -682.34, 9.35, 11.74, 0.000, 0.000, 0.000, 15:20:29.561
57, 184.33, -54.25, 18.47, 15.70, 0.000, 0.000, 0.000, 15:20:29.562
58, -24.86, -13.12, 7.62, 10.13, 0.000, 0.000, 0.000, 15:20:29.562
59, -59.35, -641.25, 2.13, 5.06, 0.000, 0.000, 0.000, 15:20:29.583
60, 165.31, -300.79, 19.60, 13.45, 0.000, 0.000, 0.000, 15:20:29.584
61, 73.17, 117.14, 15.63, 14.78, 0.000, 0.000, 0.000, 15:20:29.584
62, -69.89, -464.78, 5.89, 4.58, 0.000, 0.000, 0.000, 15:20:29.584
63, 86.75, -552.50, 17.44, 17.24, 0.000, 0.000, 0.000, 15:20:29.606
64, 143.93, 105.32, 16.57, 14.05, 0.000, 0.000, 0.000, 15:20:29.606
65, -70.72, -227.14, 4.78, 9.86, 0.000, 0.000, 0.000, 15:20:29.606
66, -23.46, -681.44, 12.94, 10.71, 0.000, 0.000, 0.000, 15:20:29.607
67, 177.66, -48.75, 19.94, 16.07, 0.000, 0.000, 0.000, 15:20:29.607
68, 21.08, -19.07, 9.81, 14.44, 0.000, 0.000, 0.000, 15:20:29.608
69, -84.23, -648.89, 5.20, 7.42, 0.000, 0.000, 0.000, 15:20:29.628
70, 160.18, -300.08, 18.28, 18.77, 0.000, 0.000, 0.000, 15:20:29.629
71, 73.59, 109.35, 12.83, 12.06, 0.000, 0.000, 0.000, 15:20:29.629
72, -83.57, -481.40, -0.31, 6.10, 0.000, 0.000, 0.000, 15:20:29.629
73, 93.64, -573.75, 18.29, 13.76, 0.000, 0.000, 0.000, 15:20:29.651
74, 150.29, 82.21, 16.04, 14.48, 0.000, 0.000, 0.000, 15:20:29.651
75, -64.84, -246.44, 1.27, 9.68, 0.000, 0.000, 0.000, 15:20:29.651
76, -25.05, -696.53, 10.66, 11.58, 0.000, 0.000, 0.000, 15:20:29.651
77, 187.83, -47.76, 21.01, 18.28, 0.000, 0.000, 0.000, 15:20:29.673
78, -28.14, -37.02, 6.14, 11.90, 0.000, 0.000, 0.000, 15:20:29.674
79, -71.07, -659.46, 5.39, 9.58, 0.000, 0.000, 0.000, 15:20:29.674
80, 185.14, -306.18, 16.13, 13.91, 0.000, 0.000, 0.000, 15:20:29.674
81, 93.77, 109.98, 7.82, 10.50, 0.000, 0.000, 0.000, 15:20:29.696
82, -101.19, -467.67, 2.72, 6.80, 0.000, 0.000, 0.000, 15:20:29.696
83, 83.85, -559.41, 18.56, 14.03, 0.000, 0.000, 0.000, 15:20:29.696
84, 147.67, 98.40, 17.47, 16.52, 0.000, 0.000, 0.000, 15:20:29.696
85, -74.02, -238.41, 4.91, 6.46, 0.000, 0.000, 0.000, 15:20:29.697
86, -0.13, -672.88, 8.43, 7.66, 0.000, 0.000, 0.000, 15:20:29.697
87, 211.37, -61.76, 17.99, 17.21, 0.000, 0.000, 0.000, 15:20:29.718
88, -12.45, -38.83, 9.22, 8.38, 0.000, 0.000, 0.000, 15:20:29.718
89, -86.10, -654.68, 6.51, 5.15, 0.000, 0.000, 0.000, 15:20:29.719
90, 167.20, -280.09, 20.47, 19.47, 0.000, 0.000, 0.000, 15:20:29.719
91, 71.25, 124.29, 12.34, 12.92, 0.000, 0.000, 0.000, 15:20:29.741
92, -86.83, -482.52, 0.77, 3.53, 0.000, 0.000, 0.000, 15:20:29.741
93, 86.44, -549.01, 18.44, 18.16, 0.000, 0.000, 0.000, 15:20:29.741
94, 146.84, 99.10, 13.35, 14.83, 0.000, 0.000, 0.000, 15:20:29.742
95, -65.53, -223.76, 1.18, 6.34, 0.000, 0.000, 0.000, 15:20:29.763
96, -14.82, -652.81, 8.41, 9.22, 0.000, 0.000, 0.000, 15:20:29.764
97, 197.84, -32.58, 19.68, 19.06, 0.000, 0.000, 0.000, 15:20:29.764
98, -8.95, -32.01, 5.19, 9.94, 0.000, 0.000, 0.000, 15:20:29.764
99, -82.10, -655.00, 2.88, 10.02, 0.000, 0.000, 0.000, 15:20:29.786
100, 181.27, -286.52, 16.31, 16.23, 0.000, 0.000, 0.000, 15:20:29.786
101, 69.91, 119.15, 9.56, 11.11, 0.000, 0.000, 0.000, 15:20:29.786
102, -102.46, -475.88, 3.10, 6.67, 0.000, 0.000, 0.000, 15:20:29.787
103, 88.81, -537.55, 15.41, 8.82, 0.000, 0.000, 0.000, 15:20:29.787
104, 155.07, 113.33, 16.35, 16.04, 0.000, 0.000, 0.000, 15:20:29.787
105, -73.58, -241.08, 4.10, 7.58, 0.000, 0.000, 0.000, 15:20:29.808
106, -3.85, -680.67, 11.76, 9.62, 0.000, 0.000, 0.000, 15:20:29.809
107, 204.68, -44.93, 20.32, 17.62, 0.000, 0.000, 0.000, 15:20:29.809
108, -20.65, -32.45, 7.35, 9.16, 0.000, 0.000, 0.000, 15:20:29.809
109, -95.48, -640.66, 5.32, 2.22, 0.000, 0.000, 0.000, 15:20:29.831
110, 173.93, -283.06, 22.53, 20.45, 0.000, 0.000, 0.000, 15:20:29.831
111, 77.66, 104.39, 9.00, 11.00, 0.000, 0.000, 0.000, 15:20:29.831
112, -115.44, -486.26, 2.73, 6.32, 0.000, 0.000, 0.000, 15:20:29.832
113, 94.01, -539.59, 18.21, 15.49, 0.000, 0.000, 0.000, 15:20:29.853
114, 158.46, 114.17, 14.97, 18.80, 0.000, 0.000, 0.000, 15:20:29.854
115, -74.17, -249.08, 2.49, 9.17, 0.000, 0.000, 0.000, 15:20:29.854
116, -2.52, -675.43, 14.39, 11.68, 0.000, 0.000, 0.000, 15:20:29.854
117, 209.44, -37.87, 17.83, 16.03, 0.000, 0.000, 0.000, 15:20:29.876
118, -2.59, -22.90, 9.73, 11.30, 0.000, 0.000, 0.000, 15:20:29.876
119, -72.92, -645.82, 3.25, 6.17, 0.000, 0.000, 0.000, 15:20:29.876
120, 183.17, -283.20, 18.21, 18.72, 0.000, 0.000, 0.000, 15:20:29.877
121, 80.06, 114.52, 10.66, 9.24, 0.000, 0.000, 0.000, 15:20:29.877
122, -95.84, -468.58, 5.01, 9.96, 0.000, 0.000, 0.000, 15:20:29.877
123, 90.13, -521.35, 15.70, 17.47, 0.000, 0.000, 0.000, 15:20:29.898
124, 145.30, 124.01, 12.72, 17.10, 0.000, 0.000, 0.000, 15:20:29.899
125, -67.06, -247.19, 3.74, 6.63, 0.000, 0.000, 0.000, 15:20:29.899
126, 27.65, -673.41, 14.68, 11.44, 0.000, 0.000, 0.000, 15:20:29.899
127, 188.09, -23.97, 13.94, 16.09, 0.000, 0.000, 0.000, 15:20:29.921
128, -38.47, -33.88, 7.80, 6.26, 0.000, 0.000, 0.000, 15:20:29.921
129, -82.65, -645.05, 3.94, 7.34, 0.000, 0.000, 0.000, 15:20:29.921
130, 193.84, -276.32, 19.28, 14.76, 0.000, 0.000, 0.000, 15:20:29.921
131, 60.40, 102.86, 12.34, 11.84, 0.000, 0.000, 0.000, 15:20:29.943
132, -103.47, -484.98, -3.09, 7.37, 0.000, 0.000, 0.000, 15:20:29.944
133, 98.98, -527.32, 18.58, 15.72, 0.000, 0.000, 0.000, 15:20:29.944
134, 136.16, 116.35, 16.98, 16.30, 0.000, 0.000, 0.000, 15:20:29.944
135, -68.53, -256.86, 5.81, 5.20, 0.000, 0.000, 0.000, 15:20:29.966
136, -11.28, -671.22, 8.56, 10.47, 0.000, 0.000, 0.000, 15:20:29.966
137, 171.51, -24.47, 19.15, 19.30, 0.000, 0.000, 0.000, 15:20:29.967
138, -7.75, -39.67, 7.25, 7.38, 0.000, 0.000, 0.000, 15:20:29.967
139, -69.35, -647.26, 4.24, 6.03, 0.000, 0.000, 0.000, 15:20:29.967
140, 196.45, -272.36, 20.57, 17.44, 0.000, 0.000, 0.000, 15:20:29.967
141, 62.43, 102.72, 11.31, 12.17, 0.000, 0.000, 0.000, 15:20:29.988
142, -111.01, -491.39, 4.53, 2.78, 0.000, 0.000, 0.000, 15:20:29.988
143, 101.15, -523.44, 21.33, 14.75, 0.000, 0.000, 0.000, 15:20:29.989
144, 129.90, 105.34, 17.70, 15.49, 0.000, 0.000, 0.000, 15:20:29.989
145, -67.39, -267.45, 2.61, 5.69, 0.000, 0.000, 0.000, 15:20:30.011
146, 17.01, -677.04, 8.81, 8.78, 0.000, 0.000, 0.000, 15:20:30.011
147, 185.96, -25.01, 19.62, 15.65, 0.000, 0.000, 0.000, 15:20:30.012
148, -27.53, -45.06, 6.95, 10.94, 0.000, 0.000, 0.000, 15:20:30.012
149, -62.65, -659.71, 5.81, 7.24, 0.000, 0.000, 0.000, 15:20:30.033
150, 181.39, -274.53, 20.86, 17.51, 0.000, 0.000, 0.000, 15:20:30.033
151, 85.53, 105.14, 8.79, 18.78, 0.000, 0.000, 0.000, 15:20:30.034
152, -63.14, -469.18, 1.45, 7.14, 0.000, 0.000, 0.000, 15:20:30.034
153, 132.21, -480.35, 15.37, 12.91, 0.000, 0.000, 0.000, 15:20:30.056
154, 143.33, 167.95, 10.13, 14.06, 0.000, 0.000, 0.000, 15:20:30.056
155, -35.24, -227.71, 2.66, 8.94, 0.000, 0.000, 0.000, 15:20:30.056
156, 8.86, -644.93, 9.32, 9.58, 0.000, 0.000, 0.000, 15:20:30.056
157, 183.23, -18.16, 19.54, 19.02, 0.000, 0.000, 0.000, 15:20:30.057
158, -23.26, -57.05, 10.51, 11.47, 0.000, 0.000, 0.000, 15:20:30.057
