%OpenBCI Raw EEG Data
%
%Sample Rate = 200.0 Hz
%First Column = SampleIndex
%Last Column = Timestamp 
%Other Columns = EEG data in microvolts followed by Accel Data (in G) interleaved with Aux Data
0, -508.66, 10.04, 8.82, 6.05, 0.000, 0.000, 0.000, 15:35:55.004
1, -159.11, -0.09, 16.75, 16.20, 0.000, 0.000, 0.000, 15:35:55.008
2, 508.27, 6.56, 13.42, 14.95, 0.000, 0.000, 0.000, 15:35:55.009
3, -221.17, 17.95, 3.59, 5.07, 0.000, 0.000, 0.000, 15:35:55.024
4, -450.90, -2.65, 13.26, 18.74, 0.000, 0.000, 0.000, 15:35:55.025
5, 405.90, 6.81, 12.39, 18.40, 0.000, 0.000, 0.000, 15:35:55.025
6, 143.56, 11.97, 7.30, 8.61, 0.000, 0.000, 0.000, 15:35:55.025
7, -607.08, 7.68, 10.46, 15.44, 0.000, 0.000, 0.000, 15:35:55.047
8, 186.69, 3.72, 16.94, 13.55, 0.000, 0.000, 0.000, 15:35:55.047
9, 415.31, 10.58, 11.33, 13.07, 0.000, 0.000, 0.000, 15:35:55.048
10, -514.49, 11.66, 9.68, 8.95, 0.000, 0.000, 0.000, 15:35:55.048
11, -165.63, 5.42, 16.58, 15.39, 0.000, 0.000, 0.000, 15:35:55.069
12, 508.22, 8.92, 11.62, 10.04, 0.000, 0.000, 0.000, 15:35:55.070
13, -234.41, 8.72, 4.79, 6.52, 0.000, 0.000, 0.000, 15:35:55.070
14, -458.67, 5.32, 16.06, 17.81, 0.000, 0.000, 0.000, 15:35:55.071
15, 423.11, 9.15, 17.78, 14.26, 0.000, 0.000, 0.000, 15:35:55.105
16, 153.05, 12.66, 5.91, 8.23, 0.000, 0.000, 0.000, 15:35:55.105
17, -600.00, 5.66, 8.95, 11.12, 0.000, 0.000, 0.000, 15:35:55.106
18, 174.90, 3.15, 12.00, 15.90, 0.000, 0.000, 0.000, 15:35:55.106
19, 404.32, 8.23, 8.24, 9.63, 0.000, 0.000, 0.000, 15:35:55.106
20, -527.79, 12.52, 3.52, 9.26, 0.000, 0.000, 0.000, 15:35:55.107
21, -148.06, 2.64, 13.56, 11.08, 0.000, 0.000, 0.000, 15:35:55.120
22, 517.37, 4.67, 9.92, 14.10, 0.000, 0.000, 0.000, 15:35:55.121
23, -237.70, 10.17, 4.16, 4.51, 0.000, 0.000, 0.000, 15:35:55.121
24, -445.02, 3.30, 12.59, 16.29, 0.000, 0.000, 0.000, 15:35:55.121
25, 417.18, 5.74, 12.89, 14.53, 0.000, 0.000, 0.000, 15:35:55.137
26, 127.42, 15.30, 5.17, 7.50, 0.000, 0.000, 0.000, 15:35:55.137
27, -602.45, 8.83, 13.65, 11.81, 0.000, 0.000, 0.000, 15:35:55.138
28, 179.38, 2.84, 20.89, 9.68, 0.000, 0.000, 0.000, 15:35:55.138
29, 413.02, 10.21, 8.32, 12.00, 0.000, 0.000, 0.000, 15:35:55.159
30, -510.51, 20.33, 6.14, 8.78, 0.000, 0.000, 0.000, 15:35:55.160
31, -152.21, -0.39, 19.87, 16.55, 0.000, 0.000, 0.000, 15:35:55.160
32, 511.64, 5.91, 12.44, 13.79, 0.000, 0.000, 0.000, 15:35:55.160
33, -231.92, 15.94, 5.21, 5.61, 0.000, 0.000, 0.000, 15:35:55.182
34, -459.90, 1.27, 14.83, 15.87, 0.000, 0.000, 0.000, 15:35:55.182
35, 404.52, 5.21, 8.70, 11.79, 0.000, 0.000, 0.000, 15:35:55.183
36, 161.65, 13.43, 2.85, 5.93, 0.000, 0.000, 0.000, 15:35:55.183
37, -588.18, 9.08, 10.98, 12.44, 0.000, 0.000, 0.000, 15:35:55.184
38, 194.05, 4.34, 18.09, 13.61, 0.000, 0.000, 0.000, 15:35:55.184
39, 417.48, 15.49, 8.90, 14.05, 0.000, 0.000, 0.000, 15:35:55.205
40, -506.88, 11.30, 4.23, 6.87, 0.000, 0.000, 0.000, 15:35:55.205
41, -167.62, 3.21, 15.83, 15.06, 0.000, 0.000, 0.000, 15:35:55.205
42, 495.66, 7.08, 12.42, 14.31, 0.000, 0.000, 0.000, 15:35:55.206
43, -242.54, 15.66, 2.64, 6.14, 0.000, 0.000, 0.000, 15:35:55.227
44, -437.53, 7.27, 18.38, 13.77, 0.000, 0.000, 0.000, 15:35:55.227
45, 412.65, 4.16, 17.60, 16.04, 0.000, 0.000, 0.000, 15:35:55.228
46, 124.78, 11.22, 9.10, 2.03, 0.000, 0.000, 0.000, 15:35:55.228
47, -604.41, 10.79, 9.55, 12.18, 0.000, 0.000, 0.000, 15:35:55.249
48, 176.72, 12.15, 18.27, 17.16, 0.000, 0.000, 0.000, 15:35:55.250
49, 422.17, 4.84, 9.36, 10.74, 0.000, 0.000, 0.000, 15:35:55.250
50, -501.96, 12.50, 8.71, 8.54, 0.000, 0.000, 0.000, 15:35:55.250
51, -146.68, -1.51, 18.09, 18.55, 0.000, 0.000, 0.000, 15:35:55.272
52, 495.78, 4.69, 11.16, 13.01, 0.000, 0.000, 0.000, 15:35:55.272
53, -264.10, 15.96, 3.50, 7.67, 0.000, 0.000, 0.000, 15:35:55.272
54, -454.29, 2.47, 13.49, 16.43, 0.000, 0.000, 0.000, 15:35:55.273
55, 433.74, 4.74, 12.61, 16.59, 0.000, 0.000, 0.000, 15:35:55.273
56, 160.55, 12.03, 4.45, 5.59, 0.000, 0.000, 0.000, 15:35:55.273
57, -596.75, 8.45, 9.39, 12.64, 0.000, 0.000, 0.000, 15:35:55.294
58, 185.17, 2.15, 14.96, 16.34, 0.000, 0.000, 0.000, 15:35:55.295
59, 409.65, 15.21, 8.26, 9.39, 0.000, 0.000, 0.000, 15:35:55.317
60, -523.63, 15.04, 7.16, 5.90, 0.000, 0.000, 0.000, 15:35:55.317
61, -147.96, 3.62, 16.38, 14.94, 0.000, 0.000, 0.000, 15:35:55.318
62, 500.26, 10.44, 14.92, 16.06, 0.000, 0.000, 0.000, 15:35:55.318
63, -231.38, 19.63, 2.47, 7.85, 0.000, 0.000, 0.000, 15:35:55.318
64, -442.17, 2.50, 16.15, 14.08, 0.000, 0.000, 0.000, 15:35:55.319
65, 426.77, 7.67, 14.86, 14.31, 0.000, 0.000, 0.000, 15:35:55.427
66, 141.71, 12.84, 5.73, 5.95, 0.000, 0.000, 0.000, 15:35:55.428
67, -560.38, 4.95, 14.60, 10.69, 0.000, 0.000, 0.000, 15:35:55.428
68, 190.60, 8.20, 13.62, 14.47, 0.000, 0.000, 0.000, 15:35:55.428
69, 438.62, 8.87, 8.45, 13.12, 0.000, 0.000, 0.000, 15:35:55.429
70, -506.97, 16.83, 5.11, 8.46, 0.000, 0.000, 0.000, 15:35:55.429
71, -164.49, 1.19, 15.06, 13.11, 0.000, 0.000, 0.000, 15:35:55.429
72, 455.78, 6.13, 16.08, 14.89, 0.000, 0.000, 0.000, 15:35:55.430
73, -268.01, 13.12, 1.08, 6.37, 0.000, 0.000, 0.000, 15:35:55.430
74, -421.35, 2.98, 16.16, 17.38, 0.000, 0.000, 0.000, 15:35:55.430
75, 386.08, 5.26, 13.31, 12.06, 0.000, 0.000, 0.000, 15:35:55.431
76, 126.32, 14.07, 4.47, 7.38, 0.000, 0.000, 0.000, 15:35:55.431
77, -616.75, 6.15, 10.05, 16.78, 0.000, 0.000, 0.000, 15:35:55.431
78, 175.55, 4.74, 18.90, 16.60, 0.000, 0.000, 0.000, 15:35:55.432
79, 390.11, 10.75, 11.07, 11.96, 0.000, 0.000, 0.000, 15:35:55.432
80, -512.98, 12.44, 5.63, 10.30, 0.000, 0.000, 0.000, 15:35:55.432
81, -148.87, 1.46, 13.54, 17.38, 0.000, 0.000, 0.000, 15:35:55.432
82, 502.92, 6.18, 11.51, 11.36, 0.000, 0.000, 0.000, 15:35:55.433
83, -219.18, 12.85, 3.77, 3.55, 0.000, 0.000, 0.000, 15:35:55.433
84, -434.83, 11.83, 17.82, 14.72, 0.000, 0.000, 0.000, 15:35:55.433
85, 414.27, 0.76, 10.09, 15.72, 0.000, 0.000, 0.000, 15:35:55.434
86, 133.75, 12.09, 5.19, 6.47, 0.000, 0.000, 0.000, 15:35:55.434
87, -577.35, 8.01, 10.32, 12.43, 0.000, 0.000, 0.000, 15:35:55.452
88, 164.45, 6.11, 11.87, 13.31, 0.000, 0.000, 0.000, 15:35:55.453
89, 419.05, 8.07, 9.61, 11.94, 0.000, 0.000, 0.000, 15:35:55.453
90, -508.80, 13.96, 7.32, 10.84, 0.000, 0.000, 0.000, 15:35:55.454
91, -131.92, 2.39, 17.13, 17.86, 0.000, 0.000, 0.000, 15:35:55.454
92, 482.15, 6.87, 12.52, 14.56, 0.000, 0.000, 0.000, 15:35:55.455
93, -237.98, 19.40, 5.23, 5.34, 0.000, 0.000, 0.000, 15:35:55.475
94, -417.91, 0.53, 17.21, 16.09, 0.000, 0.000, 0.000, 15:35:55.475
95, 419.45, 3.12, 11.19, 12.16, 0.000, 0.000, 0.000, 15:35:55.476
96, 131.35, 14.62, 6.12, 6.40, 0.000, 0.000, 0.000, 15:35:55.477
97, -608.63, 6.63, 10.20, 10.00, 0.000, 0.000, 0.000, 15:35:55.497
98, 183.22, 0.36, 16.84, 16.37, 0.000, 0.000, 0.000, 15:35:55.497
99, 416.16, 7.84, 7.80, 5.64, 0.000, 0.000, 0.000, 15:35:55.498
100, -487.82, 11.70, 5.50, 4.41, 0.000, 0.000, 0.000, 15:35:55.498
101, -155.36, 1.48, 17.66, 18.68, 0.000, 0.000, 0.000, 15:35:55.520
102, 512.41, 13.19, 13.48, 12.15, 0.000, 0.000, 0.000, 15:35:55.520
103, -236.74, 12.69, 2.25, 7.42, 0.000, 0.000, 0.000, 15:35:55.520
104, -427.56, 7.58, 19.24, 16.82, 0.000, 0.000, 0.000, 15:35:55.521
105, 401.96, 6.88, 14.64, 18.33, 0.000, 0.000, 0.000, 15:35:55.541
106, 150.50, 16.12, 6.54, 5.94, 0.000, 0.000, 0.000, 15:35:55.542
107, -622.18, 5.63, 10.71, 11.79, 0.000, 0.000, 0.000, 15:35:55.543
108, 176.39, 6.00, 16.64, 15.14, 0.000, 0.000, 0.000, 15:35:55.543
109, 413.22, 9.13, 10.27, 7.32, 0.000, 0.000, 0.000, 15:35:55.544
110, -493.72, 15.24, 5.24, 6.23, 0.000, 0.000, 0.000, 15:35:55.544
111, -143.72, 5.77, 15.60, 21.35, 0.000, 0.000, 0.000, 15:35:55.564
112, 522.61, 2.80, 15.06, 11.64, 0.000, 0.000, 0.000, 15:35:55.565
113, -217.89, 12.96, 3.10, 2.83, 0.000, 0.000, 0.000, 15:35:55.565
114, -436.90, 4.92, 17.64, 14.59, 0.000, 0.000, 0.000, 15:35:55.565
115, 413.13, 4.83, 15.04, 16.92, 0.000, 0.000, 0.000, 15:35:55.587
116, 137.00, 10.80, 3.04, 8.73, 0.000, 0.000, 0.000, 15:35:55.587
117, -588.35, 10.56, 12.56, 15.85, 0.000, 0.000, 0.000, 15:35:55.587
118, 167.64, 6.10, 10.26, 18.65, 0.000, 0.000, 0.000, 15:35:55.587
119, 441.58, 14.92, 8.26, 8.15, 0.000, 0.000, 0.000, 15:35:55.609
120, -507.34, 13.13, 3.17, 5.88, 0.000, 0.000, 0.000, 15:35:55.610
121, -130.45, -3.01, 19.51, 18.53, 0.000, 0.000, 0.000, 15:35:55.611
122, 486.64, 8.78, 12.74, 11.04, 0.000, 0.000, 0.000, 15:35:55.611
123, -216.56, 14.29, 4.66, 4.52, 0.000, 0.000, 0.000, 15:35:55.632
124, -445.11, 9.67, 13.23, 16.85, 0.000, 0.000, 0.000, 15:35:55.634
125, 417.73, 5.18, 14.40, 15.93, 0.000, 0.000, 0.000, 15:35:55.636
126, 133.80, 13.27, 4.76, 5.12, 0.000, 0.000, 0.000, 15:35:55.637
127, -600.69, 6.48, 14.34, 12.32, 0.000, 0.000, 0.000, 15:35:55.639
128, 168.21, 1.93, 16.07, 21.05, 0.000, 0.000, 0.000, 15:35:55.639
129, 425.46, 13.38, 13.25, 11.27, 0.000, 0.000, 0.000, 15:35:55.655
130, -521.58, 3.42, 6.71, 7.71, 0.000, 0.000, 0.000, 15:35:55.655
131, -147.94, -0.74, 14.60, 14.78, 0.000, 0.000, 0.000, 15:35:55.655
132, 502.12, 6.66, 11.09, 10.50, 0.000, 0.000, 0.000, 15:35:55.656
133, -241.76, 14.54, 4.61, 4.91, 0.000, 0.000, 0.000, 15:35:55.677
134, -454.68, 5.72, 15.45, 15.88, 0.000, 0.000, 0.000, 15:35:55.678
135, 377.17, 6.30, 13.28, 14.94, 0.000, 0.000, 0.000, 15:35:55.679
136, 146.49, 15.81, 4.97, 4.89, 0.000, 0.000, 0.000, 15:35:55.679
137, -596.37, 8.06, 10.89, 13.34, 0.000, 0.000, 0.000, 15:35:55.702
138, 170.69, 7.40, 17.29, 17.55, 0.000, 0.000, 0.000, 15:35:55.703
139, 395.56, 4.53, 10.78, 12.41, 0.000, 0.000, 0.000, 15:35:55.704
140, -529.76, 11.36, 5.13, 8.18, 0.000, 0.000, 0.000, 15:35:55.705
141, -157.15, 5.22, 13.19, 16.93, 0.000, 0.000, 0.000, 15:35:55.723
142, 479.67, 8.84, 12.75, 13.26, 0.000, 0.000, 0.000, 15:35:55.723
143, -227.92, 13.98, 7.06, 3.75, 0.000, 0.000, 0.000, 15:35:55.724
144, -431.72, 3.87, 16.01, 15.20, 0.000, 0.000, 0.000, 15:35:55.725
145, 393.33, 4.89, 11.40, 17.00, 0.000, 0.000, 0.000, 15:35:55.725
146, 126.54, 10.81, 5.91, 6.56, 0.000, 0.000, 0.000, 15:35:55.725
147, -590.30, 10.25, 9.58, 15.26, 0.000, 0.000, 0.000, 15:35:55.744
148, 173.48, -0.45, 12.94, 14.83, 0.000, 0.000, 0.000, 15:35:55.745
149, 385.74, 10.00, 11.72, 9.83, 0.000, 0.000, 0.000, 15:35:55.745
150, -536.49, 14.42, 1.88, 9.30, 0.000, 0.000, 0.000, 15:35:55.745
151, -119.27, 5.59, 16.39, 16.80, 0.000, 0.000, 0.000, 15:35:55.767
152, 481.34, 4.72, 13.37, 12.61, 0.000, 0.000, 0.000, 15:35:55.767
153, -218.34, 17.73, 5.36, 8.01, 0.000, 0.000, 0.000, 15:35:55.768
154, -438.85, 6.10, 14.51, 13.54, 0.000, 0.000, 0.000, 15:35:55.768
155, 397.72, 5.76, 14.82, 14.46, 0.000, 0.000, 0.000, 15:35:55.789
156, 110.84, 18.46, 3.95, 9.19, 0.000, 0.000, 0.000, 15:35:55.789
157, -566.59, 4.61, 10.25, 14.48, 0.000, 0.000, 0.000, 15:35:55.790
158, 187.58, 6.36, 14.43, 15.13, 0.000, 0.000, 0.000, 15:35:55.790
159, 400.10, 8.06, 8.51, 8.98, 0.000, 0.000, 0.000, 15:35:55.811
160, -509.91, 13.81, 7.36, 8.58, 0.000, 0.000, 0.000, 15:35:55.814
161, -163.05, -0.99, 15.17, 17.06, 0.000, 0.000, 0.000, 15:35:55.814
162, 504.14, 6.57, 9.62, 13.32, 0.000, 0.000, 0.000, 15:35:55.814
163, -232.19, 16.93, 5.46, 5.42, 0.000, 0.000, 0.000, 15:35:55.815
164, -460.40, 5.16, 18.88, 13.06, 0.000, 0.000, 0.000, 15:35:55.815
165, 417.52, 9.61, 15.21, 15.67, 0.000, 0.000, 0.000, 15:35:55.835
166, 116.05, 11.82, 6.20, 7.03, 0.000, 0.000, 0.000, 15:35:55.835
167, -608.39, 2.35, 12.80, 10.41, 0.000, 0.000, 0.000, 15:35:55.835
168, 189.44, 3.67, 14.48, 16.40, 0.000, 0.000, 0.000, 15:35:55.836
169, 399.64, 9.92, 11.61, 9.77, 0.000, 0.000, 0.000, 15:35:55.857
170, -507.02, 9.96, 7.00, 9.39, 0.000, 0.000, 0.000, 15:35:55.858
171, -163.56, 3.30, 14.25, 14.33, 0.000, 0.000, 0.000, 15:35:55.860
172, 502.53, 6.29, 12.70, 11.72, 0.000, 0.000, 0.000, 15:35:55.861
173, -236.48, 14.66, 3.99, 4.67, 0.000, 0.000, 0.000, 15:35:55.880
174, -443.69, 9.60, 13.63, 18.10, 0.000, 0.000, 0.000, 15:35:55.880
175, 424.42, 3.16, 12.05, 16.06, 0.000, 0.000, 0.000, 15:35:55.880
176, 118.95, 15.89, 6.58, 6.97, 0.000, 0.000, 0.000, 15:35:55.881
177, -597.32, 8.29, 15.00, 13.28, 0.000, 0.000, 0.000, 15:35:55.902
178, 155.38, 5.58, 17.97, 14.13, 0.000, 0.000, 0.000, 15:35:55.903
179, 406.16, 12.24, 9.55, 12.44, 0.000, 0.000, 0.000, 15:35:55.903
180, -466.80, 13.51, 6.27, 9.25, 0.000, 0.000, 0.000, 15:35:55.903
181, -143.48, 1.83, 15.89, 15.20, 0.000, 0.000, 0.000, 15:35:55.904
182, 487.85, 9.14, 9.03, 14.17, 0.000, 0.000, 0.000, 15:35:55.904
183, -241.15, 14.88, 4.80, 6.65, 0.000, 0.000, 0.000, 15:35:55.924
184, -433.71, 2.39, 15.20, 14.25, 0.000, 0.000, 0.000, 15:35:55.924
185, 411.37, 2.92, 13.54, 12.90, 0.000, 0.000, 0.000, 15:35:55.925
186, 136.36, 14.22, 7.67, 2.85, 0.000, 0.000, 0.000, 15:35:55.926
187, -585.81, 11.94, 10.63, 11.75, 0.000, 0.000, 0.000, 15:35:55.947
188, 178.00, 5.19, 15.45, 11.86, 0.000, 0.000, 0.000, 15:35:55.947
189, 376.21, 13.03, 9.34, 8.47, 0.000, 0.000, 0.000, 15:35:55.948
190, -512.64, 11.57, 5.88, 8.50, 0.000, 0.000, 0.000, 15:35:55.948
191, -123.79, 1.85, 15.75, 15.27, 0.000, 0.000, 0.000, 15:35:55.969
192, 482.23, 10.63, 9.69, 15.45, 0.000, 0.000, 0.000, 15:35:55.970
193, -221.70, 11.81, -0.12, 9.57, 0.000, 0.000, 0.000, 15:35:55.971
194, -433.85, 5.19, 15.90, 17.38, 0.000, 0.000, 0.000, 15:35:55.971
195, 414.77, 3.75, 14.31, 15.58, 0.000, 0.000, 0.000, 15:35:55.992
196, 127.81, 10.16, 2.46, 6.63, 0.000, 0.000, 0.000, 15:35:55.992
197, -580.56, 8.09, 13.93, 11.60, 0.000, 0.000, 0.000, 15:35:55.993
198, 177.13, 2.58, 17.00, 15.38, 0.000, 0.000, 0.000, 15:35:55.993
199, 370.46, 12.25, 10.92, 12.80, 0.000, 0.000, 0.000, 15:35:56.014
200, -487.42, 11.46, 6.36, 7.10, 0.000, 0.000, 0.000, 15:35:56.014
0, -134.48, 9.55, 15.95, 16.96, 0.000, 0.000, 0.000, 15:35:56.015
1, 505.14, -2.02, 14.39, 14.92, 0.000, 0.000, 0.000, 15:35:56.015
2, -223.89, 12.08, 3.52, 5.30, 0.000, 0.000, 0.000, 15:35:56.016
3, -423.22, 5.18, 18.75, 12.94, 0.000, 0.000, 0.000, 15:35:56.038
4, 400.53, 6.88, 9.28, 13.65, 0.000, 0.000, 0.000, 15:35:56.038
5, 126.72, 16.07, 6.82, 10.19, 0.000, 0.000, 0.000, 15:35:56.038
6, -588.06, 10.15, 18.10, 10.17, 0.000, 0.000, 0.000, 15:35:56.038
7, 183.58, 3.03, 13.42, 16.74, 0.000, 0.000, 0.000, 15:35:56.039
8, 381.07, 10.49, 9.21, 9.89, 0.000, 0.000, 0.000, 15:35:56.039
9, -506.13, 14.51, 5.32, 7.91, 0.000, 0.000, 0.000, 15:35:56.060
10, -117.86, -1.47, 15.14, 18.10, 0.000, 0.000, 0.000, 15:35:56.060
11, 492.74, 7.47, 10.48, 12.70, 0.000, 0.000, 0.000, 15:35:56.061
12, -233.89, 14.76, 2.10, 3.64, 0.000, 0.000, 0.000, 15:35:56.061
13, -447.22, 4.47, 16.29, 16.10, 0.000, 0.000, 0.000, 15:35:56.082
14, 401.43, 2.24, 15.23, 17.30, 0.000, 0.000, 0.000, 15:35:56.082
15, 133.75, 12.66, 6.39, 9.85, 0.000, 0.000, 0.000, 15:35:56.083
16, -588.82, 8.66, 9.27, 12.60, 0.000, 0.000, 0.000, 15:35:56.083
17, 165.81, 2.06, 14.77, 15.38, 0.000, 0.000, 0.000, 15:35:56.104
18, 403.45, 13.22, 9.71, 10.85, 0.000, 0.000, 0.000, 15:35:56.105
19, -507.26, 10.83, 9.36, 5.51, 0.000, 0.000, 0.000, 15:35:56.105
20, -151.96, 4.99, 14.87, 16.25, 0.000, 0.000, 0.000, 15:35:56.105
21, 472.11, 4.85, 10.44, 10.34, 0.000, 0.000, 0.000, 15:35:56.127
22, -219.70, 13.12, 1.91, 5.85, 0.000, 0.000, 0.000, 15:35:56.127
23, -404.91, 2.07, 18.72, 12.87, 0.000, 0.000, 0.000, 15:35:56.128
24, 407.03, 5.41, 14.98, 16.23, 0.000, 0.000, 0.000, 15:35:56.129
25, 144.62, 11.66, 5.98, 7.43, 0.000, 0.000, 0.000, 15:35:56.129
26, -583.75, 9.44, 15.68, 14.51, 0.000, 0.000, 0.000, 15:35:56.129
27, 172.30, 8.15, 20.54, 13.07, 0.000, 0.000, 0.000, 15:35:56.149
28, 388.67, 4.92, 11.85, 12.44, 0.000, 0.000, 0.000, 15:35:56.149
29, -503.76, 14.34, 9.03, 10.35, 0.000, 0.000, 0.000, 15:35:56.150
30, -139.52, 5.85, 17.92, 18.42, 0.000, 0.000, 0.000, 15:35:56.150
31, 491.09, 5.52, 9.10, 12.99, 0.000, 0.000, 0.000, 15:35:56.172
32, -219.95, 12.55, 6.25, 3.67, 0.000, 0.000, 0.000, 15:35:56.172
33, -422.03, 3.34, 12.67, 12.51, 0.000, 0.000, 0.000, 15:35:56.195
34, 385.74, 4.75, 13.01, 12.96, 0.000, 0.000, 0.000, 15:35:56.195
35, 142.64, 13.97, 7.43, 5.65, 0.000, 0.000, 0.000, 15:35:56.196
36, -597.88, 3.43, 9.62, 16.46, 0.000, 0.000, 0.000, 15:35:56.196
37, 150.42, 12.13, 17.98, 19.96, 0.000, 0.000, 0.000, 15:35:56.196
38, 415.88, 9.05, 8.05, 10.60, 0.000, 0.000, 0.000, 15:35:56.196
39, -489.74, 13.39, 6.78, 7.55, 0.000, 0.000, 0.000, 15:35:56.217
40, -123.07, 3.97, 14.05, 16.39, 0.000, 0.000, 0.000, 15:35:56.217
41, 489.49, 6.86, 10.53, 13.68, 0.000, 0.000, 0.000, 15:35:56.217
42, -234.49, 17.56, 2.03, 4.57, 0.000, 0.000, 0.000, 15:35:56.218
43, -447.22, 5.11, 16.62, 16.92, 0.000, 0.000, 0.000, 15:35:56.218
44, 399.90, 2.82, 14.16, 14.55, 0.000, 0.000, 0.000, 15:35:56.218
45, 138.77, 17.81, 7.53, 6.32, 0.000, 0.000, 0.000, 15:35:56.239
46, -569.52, 3.27, 12.32, 14.58, 0.000, 0.000, 0.000, 15:35:56.240
47, 181.38, 6.89, 11.84, 14.70, 0.000, 0.000, 0.000, 15:35:56.240
48, 401.13, 14.85, 10.31, 7.89, 0.000, 0.000, 0.000, 15:35:56.240
49, -501.15, 10.02, 9.32, 7.96, 0.000, 0.000, 0.000, 15:35:56.262
50, -135.55, 1.36, 15.09, 16.61, 0.000, 0.000, 0.000, 15:35:56.263
51, 489.59, 7.05, 12.57, 12.96, 0.000, 0.000, 0.000, 15:35:56.263
52, -222.54, 17.44, 4.91, 7.49, 0.000, 0.000, 0.000, 15:35:56.263
53, -432.72, 2.98, 19.66, 16.11, 0.000, 0.000, 0.000, 15:35:56.284
54, 393.68, 7.03, 12.05, 11.02, 0.000, 0.000, 0.000, 15:35:56.285
55, 150.17, 9.61, 6.84, 10.02, 0.000, 0.000, 0.000, 15:35:56.285
56, -600.21, 7.26, 9.51, 16.70, 0.000, 0.000, 0.000, 15:35:56.286
57, 168.58, 3.40, 10.31, 15.66, 0.000, 0.000, 0.000, 15:35:56.307
58, 383.20, 8.44, 7.33, 10.61, 0.000, 0.000, 0.000, 15:35:56.307
59, -498.98, 13.65, 7.64, 5.52, 0.000, 0.000, 0.000, 15:35:56.308
60, -144.78, 5.62, 12.62, 16.29, 0.000, 0.000, 0.000, 15:35:56.309
61, 476.93, 4.06, 13.33, 12.88, 0.000, 0.000, 0.000, 15:35:56.310
62, -223.99, 14.36, 1.68, 10.29, 0.000, 0.000, 0.000, 15:35:56.310
63, -432.18, 6.12, 18.18, 11.20, 0.000, 0.000, 0.000, 15:35:56.329
64, 382.91, 6.98, 10.40, 12.55, 0.000, 0.000, 0.000, 15:35:56.329
65, 142.89, 16.43, 8.60, 9.86, 0.000, 0.000, 0.000, 15:35:56.330
66, -594.20, 7.63, 12.99, 13.00, 0.000, 0.000, 0.000, 15:35:56.330
67, 171.89, 5.67, 14.51, 15.71, 0.000, 0.000, 0.000, 15:35:56.352
68, 384.84, 8.24, 12.00, 11.71, 0.000, 0.000, 0.000, 15:35:56.352
69, -529.72, 13.99, 5.95, 8.76, 0.000, 0.000, 0.000, 15:35:56.353
70, -142.29, 3.70, 15.12, 12.04, 0.000, 0.000, 0.000, 15:35:56.353
71, 491.63, 6.67, 10.95, 11.84, 0.000, 0.000, 0.000, 15:35:56.374
72, -215.06, 19.26, 6.54, 5.17, 0.000, 0.000, 0.000, 15:35:56.374
73, -455.72, 0.39, 17.73, 17.66, 0.000, 0.000, 0.000, 15:35:56.375
74, 396.10, 6.76, 13.43, 16.34, 0.000, 0.000, 0.000, 15:35:56.375
75, 139.53, 14.63, 4.80, 8.79, 0.000, 0.000, 0.000, 15:35:56.397
76, -584.10, 5.93, 11.68, 13.01, 0.000, 0.000, 0.000, 15:35:56.398
77, 175.30, 3.87, 16.11, 14.20, 0.000, 0.000, 0.000, 15:35:56.398
78, 393.45, 9.61, 8.67, 12.58, 0.000, 0.000, 0.000, 15:35:56.398
79, -493.77, 12.20, 7.04, 8.60, 0.000, 0.000, 0.000, 15:35:56.398
80, -151.26, 5.14, 20.04, 17.90, 0.000, 0.000, 0.000, 15:35:56.399
81, 533.82, 10.71, 10.67, 12.68, 0.000, 0.000, 0.000, 15:35:56.420
82, -181.82, 13.90, 3.30, 6.65, 0.000, 0.000, 0.000, 15:35:56.421
83, -424.04, 3.39, 17.77, 15.76, 0.000, 0.000, 0.000, 15:35:56.421
84, 404.49, 5.02, 13.80, 8.41, 0.000, 0.000, 0.000, 15:35:56.421
85, 107.20, 12.93, 1.31, 7.34, 0.000, 0.000, 0.000, 15:35:56.442
86, -593.83, 5.48, 8.04, 10.91, 0.000, 0.000, 0.000, 15:35:56.442
87, 151.07, 4.18, 14.16, 13.22, 0.000, 0.000, 0.000, 15:35:56.443
88, 382.20, 5.44, 8.32, 11.84, 0.000, 0.000, 0.000, 15:35:56.443
89, -527.60, 5.82, 4.64, 6.57, 0.000, 0.000, 0.000, 15:35:56.464
90, -185.42, 6.92, 20.06, 16.21, 0.000, 0.000, 0.000, 15:35:56.465
91, 489.50, 5.21, 15.20, 16.96, 0.000, 0.000, 0.000, 15:35:56.465
92, -215.19, 16.27, 1.97, 2.78, 0.000, 0.000, 0.000, 15:35:56.465
93, -432.38, 5.97, 13.83, 14.37, 0.000, 0.000, 0.000, 15:35:56.487
94, 399.02, 8.09, 13.16, 13.78, 0.000, 0.000, 0.000, 15:35:56.487
95, 143.45, 10.81, 4.12, 8.34, 0.000, 0.000, 0.000, 15:35:56.488
96, -572.45, 11.46, 9.30, 12.95, 0.000, 0.000, 0.000, 15:35:56.488
97, 168.86, 5.21, 14.06, 18.14, 0.000, 0.000, 0.000, 15:35:56.488
98, 402.73, 11.99, 9.40, 10.19, 0.000, 0.000, 0.000, 15:35:56.489
99, -520.15, 12.35, 6.35, 4.99, 0.000, 0.000, 0.000, 15:35:56.509
100, -118.59, 3.11, 16.78, 14.22, 0.000, 0.000, 0.000, 15:35:56.509
101, 509.71, 8.18, 15.33, 10.12, 0.000, 0.000, 0.000, 15:35:56.510
102, -224.65, 12.90, 3.75, 5.77, 0.000, 0.000, 0.000, 15:35:56.511
103, -428.51, 2.81, 17.28, 12.73, 0.000, 0.000, 0.000, 15:35:56.532
104, 390.12, 2.83, 12.47, 14.48, 0.000, 0.000, 0.000, 15:35:56.532
105, 139.40, 14.03, 4.76, 6.55, 0.000, 0.000, 0.000, 15:35:56.532
106, -596.82, 11.10, 11.98, 13.47, 0.000, 0.000, 0.000, 15:35:56.532
107, 193.12, 1.47, 18.81, 13.71, 0.000, 0.000, 0.000, 15:35:56.554
108, 423.55, 18.96, 7.39, 9.59, 0.000, 0.000, 0.000, 15:35:56.556
109, -504.32, 8.26, 5.35, 7.60, 0.000, 0.000, 0.000, 15:35:56.577
110, -139.62, 4.06, 13.64, 16.91, 0.000, 0.000, 0.000, 15:35:56.577
111, 503.97, 6.30, 8.08, 12.00, 0.000, 0.000, 0.000, 15:35:56.577
112, -222.75, 18.50, 7.32, 3.47, 0.000, 0.000, 0.000, 15:35:56.578
113, -434.22, 4.88, 15.26, 17.66, 0.000, 0.000, 0.000, 15:35:56.578
114, 388.26, 7.57, 13.69, 14.87, 0.000, 0.000, 0.000, 15:35:56.578
115, 137.97, 12.24, 1.56, 8.93, 0.000, 0.000, 0.000, 15:35:56.599
116, -583.11, 8.15, 14.42, 12.26, 0.000, 0.000, 0.000, 15:35:56.599
117, 190.96, -1.08, 17.36, 21.56, 0.000, 0.000, 0.000, 15:35:56.600
118, 391.66, 10.45, 12.66, 14.22, 0.000, 0.000, 0.000, 15:35:56.600
119, -520.92, 9.37, 6.77, 5.82, 0.000, 0.000, 0.000, 15:35:56.600
120, -118.24, 5.19, 16.27, 16.52, 0.000, 0.000, 0.000, 15:35:56.601
121, 505.38, 6.54, 12.27, 15.87, 0.000, 0.000, 0.000, 15:35:56.622
122, -232.96, 15.34, 8.43, 4.56, 0.000, 0.000, 0.000, 15:35:56.622
123, -421.95, 4.45, 16.07, 19.42, 0.000, 0.000, 0.000, 15:35:56.622
124, 377.51, 7.06, 14.59, 15.04, 0.000, 0.000, 0.000, 15:35:56.623
125, 150.53, 13.83, 5.83, 5.60, 0.000, 0.000, 0.000, 15:35:56.644
126, -581.82, 11.24, 8.92, 11.44, 0.000, 0.000, 0.000, 15:35:56.644
127, 196.74, 0.25, 16.45, 16.13, 0.000, 0.000, 0.000, 15:35:56.645
128, 402.73, 10.87, 12.26, 10.26, 0.000, 0.000, 0.000, 15:35:56.645
129, -493.29, 9.42, 5.44, 5.79, 0.000, 0.000, 0.000, 15:35:56.667
130, -154.29, 4.79, 17.03, 15.04, 0.000, 0.000, 0.000, 15:35:56.667
131, 484.63, 6.13, 9.77, 12.19, 0.000, 0.000, 0.000, 15:35:56.667
132, -203.63, 14.43, 2.78, 7.12, 0.000, 0.000, 0.000, 15:35:56.668
133, -437.84, -0.39, 16.64, 16.78, 0.000, 0.000, 0.000, 15:35:56.668
134, 408.81, 5.02, 14.13, 15.36, 0.000, 0.000, 0.000, 15:35:56.668
135, 130.93, 16.71, 2.10, 8.18, 0.000, 0.000, 0.000, 15:35:56.689
136, -596.82, 6.27, 11.24, 10.83, 0.000, 0.000, 0.000, 15:35:56.689
137, 183.04, 4.67, 12.30, 18.34, 0.000, 0.000, 0.000, 15:35:56.690
138, 392.04, 9.16, 7.60, 12.79, 0.000, 0.000, 0.000, 15:35:56.690
139, -487.14, 14.72, 6.94, 7.45, 0.000, 0.000, 0.000, 15:35:56.712
140, -151.84, 2.95, 19.56, 14.92, 0.000, 0.000, 0.000, 15:35:56.712
141, 486.94, 8.19, 10.78, 13.85, 0.000, 0.000, 0.000, 15:35:56.712
142, -217.37, 17.82, 0.51, 5.85, 0.000, 0.000, 0.000, 15:35:56.713
143, -460.32, 5.90, 17.67, 18.27, 0.000, 0.000, 0.000, 15:35:56.734
144, 373.92, 9.29, 13.52, 14.30, 0.000, 0.000, 0.000, 15:35:56.734
145, 142.38, 5.36, 7.75, 6.44, 0.000, 0.000, 0.000, 15:35:56.735
146, -587.23, 8.31, 13.38, 14.30, 0.000, 0.000, 0.000, 15:35:56.735
147, 168.29, 2.40, 13.83, 14.82, 0.000, 0.000, 0.000, 15:35:56.757
148, 387.63, 7.25, 7.42, 10.04, 0.000, 0.000, 0.000, 15:35:56.757
149, -498.41, 11.68, 6.81, 2.92, 0.000, 0.000, 0.000, 15:35:56.758
150, -190.11, 4.57, 15.24, 14.15, 0.000, 0.000, 0.000, 15:35:56.758
151, 514.94, 9.17, 11.32, 13.76, 0.000, 0.000, 0.000, 15:35:56.759
152, -237.25, 20.80, 4.93, 8.23, 0.000, 0.000, 0.000, 15:35:56.759
153, -453.16, 10.39, 17.90, 15.12, 0.000, 0.000, 0.000, 15:35:56.779
154, 394.70, 4.36, 12.91, 14.20, 0.000, 0.000, 0.000, 15:35:56.779
155, 125.46, 12.85, 5.00, 7.26, 0.000, 0.000, 0.000, 15:35:56.780
156, -599.71, 9.30, 14.80, 12.50, 0.000, 0.000, 0.000, 15:35:56.781
157, 133.40, 4.46, 15.16, 15.65, 0.000, 0.000, 0.000, 15:35:56.802
158, 424.07, 6.96, 7.72, 12.81, 0.000, 0.000, 0.000, 15:35:56.802
159, -486.08, 9.96, 8.27, 10.72, 0.000, 0.000, 0.000, 15:35:56.802
160, -136.82, 0.96, 17.20, 17.05, 0.000, 0.000, 0.000, 15:35:56.803
161, 498.93, 5.07, 13.48, 14.09, 0.000, 0.000, 0.000, 15:35:56.824
162, -225.88, 19.70, 2.09, 4.22, 0.000, 0.000, 0.000, 15:35:56.824
163, -444.11, 0.91, 19.44, 13.89, 0.000, 0.000, 0.000, 15:35:56.825
164, 377.09, 6.37, 11.14, 13.50, 0.000, 0.000, 0.000, 15:35:56.825
165, 142.27, 11.07, 5.44, 7.29, 0.000, 0.000, 0.000, 15:35:56.847
166, -594.75, 9.10, 10.33, 14.29, 0.000, 0.000, 0.000, 15:35:56.847
167, 183.66, 5.58, 19.14, 15.42, 0.000, 0.000, 0.000, 15:35:56.847
168, 404.32, 10.08, 11.07, 8.77, 0.000, 0.000, 0.000, 15:35:56.847
169, -482.18, 16.75, 7.14, 7.10, 0.000, 0.000, 0.000, 15:35:56.848
170, -165.54, -1.29, 15.95, 15.66, 0.000, 0.000, 0.000, 15:35:56.848
171, 486.21, 12.32, 14.63, 12.55, 0.000, 0.000, 0.000, 15:35:56.869
172, -221.87, 10.17, 5.45, 4.49, 0.000, 0.000, 0.000, 15:35:56.869
173, -496.04, 4.90, 16.00, 17.01, 0.000, 0.000, 0.000, 15:35:56.870
174, 427.93, 6.15, 14.06, 11.54, 0.000, 0.000, 0.000, 15:35:56.870
175, 151.65, 19.10, 5.66, 9.60, 0.000, 0.000, 0.000, 15:35:56.892
176, -553.98, 6.96, 10.32, 11.41, 0.000, 0.000, 0.000, 15:35:56.892
177, 171.71, 5.48, 14.78, 14.69, 0.000, 0.000, 0.000, 15:35:56.893
178, 395.97, 9.87, 11.40, 10.16, 0.000, 0.000, 0.000, 15:35:56.894
179, -499.56, 14.72, 9.27, 7.46, 0.000, 0.000, 0.000, 15:35:56.915
180, -156.94, 6.84, 15.49, 15.00, 0.000, 0.000, 0.000, 15:35:56.915
181, 481.69, 2.53, 9.03, 10.81, 0.000, 0.000, 0.000, 15:35:56.915
182, -228.08, 15.39, 4.98, 10.74, 0.000, 0.000, 0.000, 15:35:56.916
183, -451.44, 3.10, 19.95, 20.36, 0.000, 0.000, 0.000, 15:35:56.936
184, 412.36, 6.86, 15.95, 16.68, 0.000, 0.000, 0.000, 15:35:56.937
185, 140.54, 16.92, 6.13, 5.42, 0.000, 0.000, 0.000, 15:35:56.937
186, -578.44, 8.54, 12.95, 13.45, 0.000, 0.000, 0.000, 15:35:56.937
187, 170.06, 3.05, 15.40, 16.95, 0.000, 0.000, 0.000, 15:35:56.938
188, 388.55, 12.22, 9.25, 13.69, 0.000, 0.000, 0.000, 15:35:56.939
189, -501.08, 16.41, 6.15, 5.89, 0.000, 0.000, 0.000, 15:35:56.959
190, -161.49, -0.42, 14.52, 16.46, 0.000, 0.000, 0.000, 15:35:56.960
191, 434.77, 4.39, 13.01, 8.86, 0.000, 0.000, 0.000, 15:35:56.960
192, -191.88, 12.75, 5.53, 4.25, 0.000, 0.000, 0.000, 15:35:56.960
193, -389.07, 5.89, 18.22, 16.07, 0.000, 0.000, 0.000, 15:35:56.982
194, 401.94, 1.87, 12.54, 18.16, 0.000, 0.000, 0.000, 15:35:56.982
195, 145.35, 11.46, 3.20, 5.42, 0.000, 0.000, 0.000, 15:35:56.982
196, -579.70, 9.84, 12.02, 15.93, 0.000, 0.000, 0.000, 15:35:56.983
197, 152.11, 4.73, 15.68, 17.43, 0.000, 0.000, 0.000, 15:35:57.004
198, 396.29, 12.70, 5.79, 12.23, 0.000, 0.000, 0.000, 15:35:57.004
199, -477.47, 8.18, 3.86, 9.11, 0.000, 0.000, 0.000, 15:35:57.005
200, -157.10, 2.75, 17.27, 11.59, 0.000, 0.000, 0.000, 15:35:57.006
0, 488.64, 5.10, 11.65, 12.08, 0.000, 0.000, 0.000, 15:35:57.006
1, -225.23, 13.84, 3.44, 9.33, 0.000, 0.000, 0.000, 15:35:57.027
2, -444.66, 4.46, 18.15, 20.78, 0.000, 0.000, 0.000, 15:35:57.027
3, 394.80, 5.93, 13.16, 16.68, 0.000, 0.000, 0.000, 15:35:57.028
4, 148.46, 13.79, 4.99, 2.11, 0.000, 0.000, 0.000, 15:35:57.028
5, -565.33, 8.54, 16.78, 12.94, 0.000, 0.000, 0.000, 15:35:57.049
6, 159.93, 6.43, 12.35, 13.07, 0.000, 0.000, 0.000, 15:35:57.049
7, 369.87, 6.83, 9.17, 8.21, 0.000, 0.000, 0.000, 15:35:57.050
8, -473.80, 6.87, 4.28, 9.11, 0.000, 0.000, 0.000, 15:35:57.051
9, -153.75, 1.25, 17.62, 14.02, 0.000, 0.000, 0.000, 15:35:57.072
10, 458.91, 8.52, 9.76, 11.44, 0.000, 0.000, 0.000, 15:35:57.072
11, -193.33, 12.35, 4.35, 3.13, 0.000, 0.000, 0.000, 15:35:57.073
12, -411.02, 6.20, 16.00, 15.14, 0.000, 0.000, 0.000, 15:35:57.073
13, 384.46, 3.86, 13.42, 13.37, 0.000, 0.000, 0.000, 15:35:57.073
14, 135.08, 15.18, 4.03, 9.62, 0.000, 0.000, 0.000, 15:35:57.073
15, -564.50, 15.95, 14.68, 18.92, 0.000, 0.000, 0.000, 15:35:57.094
16, 163.61, -0.26, 14.51, 12.52, 0.000, 0.000, 0.000, 15:35:57.094
17, 370.92, 11.88, 12.51, 11.08, 0.000, 0.000, 0.000, 15:35:57.095
18, -498.10, 16.13, 8.53, 6.74, 0.000, 0.000, 0.000, 15:35:57.095
19, -153.05, 4.49, 20.32, 18.22, 0.000, 0.000, 0.000, 15:35:57.117
20, 492.00, 7.05, 11.77, 11.80, 0.000, 0.000, 0.000, 15:35:57.117
21, -205.80, 14.60, 6.68, 5.96, 0.000, 0.000, 0.000, 15:35:57.117
22, -406.23, 1.50, 15.41, 14.97, 0.000, 0.000, 0.000, 15:35:57.117
23, 382.33, 7.08, 12.54, 14.26, 0.000, 0.000, 0.000, 15:35:57.139
24, 121.12, 15.30, 4.24, 9.81, 0.000, 0.000, 0.000, 15:35:57.139
25, -563.07, 6.00, 13.35, 11.23, 0.000, 0.000, 0.000, 15:35:57.140
26, 151.40, 5.69, 17.23, 13.67, 0.000, 0.000, 0.000, 15:35:57.140
27, 374.67, 12.54, 8.60, 6.86, 0.000, 0.000, 0.000, 15:35:57.161
28, -449.38, 10.51, 10.16, 8.68, 0.000, 0.000, 0.000, 15:35:57.162
29, -141.64, 1.03, 14.39, 15.66, 0.000, 0.000, 0.000, 15:35:57.162
30, 470.47, 8.66, 9.17, 10.62, 0.000, 0.000, 0.000, 15:35:57.162
31, -219.29, 15.09, 3.39, 9.01, 0.000, 0.000, 0.000, 15:35:57.163
32, -425.01, -0.22, 11.35, 15.64, 0.000, 0.000, 0.000, 15:35:57.163
33, 352.29, 6.59, 10.83, 14.06, 0.000, 0.000, 0.000, 15:35:57.184
34, 138.39, 13.68, 6.54, 7.72, 0.000, 0.000, 0.000, 15:35:57.184
35, -543.18, 5.14, 13.55, 14.01, 0.000, 0.000, 0.000, 15:35:57.185
36, 175.05, 4.70, 11.73, 18.90, 0.000, 0.000, 0.000, 15:35:57.185
37, 395.20, 9.11, 10.48, 8.40, 0.000, 0.000, 0.000, 15:35:57.207
38, -480.48, 11.43, 7.83, 5.88, 0.000, 0.000, 0.000, 15:35:57.207
39, -149.96, 1.62, 13.18, 12.96, 0.000, 0.000, 0.000, 15:35:57.207
40, 477.15, 7.21, 12.02, 13.37, 0.000, 0.000, 0.000, 15:35:57.208
41, -221.92, 16.31, 2.81, 8.70, 0.000, 0.000, 0.000, 15:35:57.229
42, -452.50, 8.44, 16.14, 16.51, 0.000, 0.000, 0.000, 15:35:57.229
43, 395.93, 3.30, 13.28, 14.39, 0.000, 0.000, 0.000, 15:35:57.230
44, 158.36, 14.35, 5.08, 10.22, 0.000, 0.000, 0.000, 15:35:57.230
45, -552.42, 5.32, 14.80, 14.02, 0.000, 0.000, 0.000, 15:35:57.252
46, 170.90, 7.00, 14.07, 17.92, 0.000, 0.000, 0.000, 15:35:57.252
47, 384.94, 9.84, 8.79, 8.65, 0.000, 0.000, 0.000, 15:35:57.252
48, -503.26, 14.31, 7.92, 8.36, 0.000, 0.000, 0.000, 15:35:57.252
49, -139.59, 2.05, 18.36, 16.87, 0.000, 0.000, 0.000, 15:35:57.253
50, 483.42, 9.73, 7.08, 10.45, 0.000, 0.000, 0.000, 15:35:57.253
51, -220.07, 15.23, 4.41, 4.47, 0.000, 0.000, 0.000, 15:35:57.274
52, -413.81, 0.17, 15.51, 16.79, 0.000, 0.000, 0.000, 15:35:57.275
53, 381.45, 7.45, 14.80, 13.99, 0.000, 0.000, 0.000, 15:35:57.275
54, 141.92, 15.56, 7.24, 7.66, 0.000, 0.000, 0.000, 15:35:57.275
55, -577.76, 7.76, 14.25, 11.53, 0.000, 0.000, 0.000, 15:35:57.297
56, 157.54, 5.07, 11.38, 18.25, 0.000, 0.000, 0.000, 15:35:57.297
57, 371.31, 12.63, 10.05, 9.26, 0.000, 0.000, 0.000, 15:35:57.297
58, -487.46, 10.73, 5.05, 11.15, 0.000, 0.000, 0.000, 15:35:57.297
59, -159.83, 3.96, 16.35, 15.19, 0.000, 0.000, 0.000, 15:35:57.319
60, 460.43, 14.94, 8.73, 11.86, 0.000, 0.000, 0.000, 15:35:57.319
61, -197.80, 10.62, 6.39, 7.70, 0.000, 0.000, 0.000, 15:35:57.320
62, -426.95, 0.73, 16.02, 15.91, 0.000, 0.000, 0.000, 15:35:57.320
63, 369.89, 5.06, 15.02, 13.31, 0.000, 0.000, 0.000, 15:35:57.342
64, 153.44, 10.67, 4.91, 7.81, 0.000, 0.000, 0.000, 15:35:57.343
65, -571.67, 5.64, 12.34, 12.13, 0.000, 0.000, 0.000, 15:35:57.343
66, 163.81, 7.08, 16.30, 16.55, 0.000, 0.000, 0.000, 15:35:57.343
67, 372.57, 10.87, 10.17, 9.36, 0.000, 0.000, 0.000, 15:35:57.343
68, -481.31, 11.69, 4.20, 3.33, 0.000, 0.000, 0.000, 15:35:57.344
69, -140.38, 8.01, 14.93, 20.54, 0.000, 0.000, 0.000, 15:35:57.364
70, 490.17, 7.36, 14.86, 12.62, 0.000, 0.000, 0.000, 15:35:57.364
71, -215.48, 10.54, 4.99, 5.12, 0.000, 0.000, 0.000, 15:35:57.365
72, -432.12, 0.47, 16.84, 16.94, 0.000, 0.000, 0.000, 15:35:57.365
73, 378.54, 5.74, 15.25, 14.51, 0.000, 0.000, 0.000, 15:35:57.387
74, 144.48, 11.86, 7.54, 6.94, 0.000, 0.000, 0.000, 15:35:57.387
75, -568.51, 5.04, 12.90, 13.02, 0.000, 0.000, 0.000, 15:35:57.387
76, 162.26, 4.84, 14.69, 16.78, 0.000, 0.000, 0.000, 15:35:57.387
77, 404.25, 9.66, 9.83, 9.92, 0.000, 0.000, 0.000, 15:35:57.409
78, -455.78, 18.48, 5.15, 5.27, 0.000, 0.000, 0.000, 15:35:57.409
79, -126.89, -2.16, 18.61, 16.35, 0.000, 0.000, 0.000, 15:35:57.410
80, 514.96, 4.60, 13.02, 15.36, 0.000, 0.000, 0.000, 15:35:57.410
81, -200.85, 15.40, 2.34, 5.48, 0.000, 0.000, 0.000, 15:35:57.432
82, -461.58, 3.02, 17.85, 16.04, 0.000, 0.000, 0.000, 15:35:57.432
83, 341.40, 3.75, 12.84, 14.13, 0.000, 0.000, 0.000, 15:35:57.432
84, 160.63, 15.42, 3.61, 8.46, 0.000, 0.000, 0.000, 15:35:57.432
85, -587.06, 9.59, 13.97, 9.43, 0.000, 0.000, 0.000, 15:35:57.433
86, 127.60, 4.16, 14.54, 15.47, 0.000, 0.000, 0.000, 15:35:57.433
87, 372.77, 14.28, 11.68, 11.76, 0.000, 0.000, 0.000, 15:35:57.454
88, -490.88, 10.58, 10.85, 8.97, 0.000, 0.000, 0.000, 15:35:57.455
89, -171.18, 2.46, 14.67, 15.03, 0.000, 0.000, 0.000, 15:35:57.455
90, 480.54, 6.23, 10.65, 12.81, 0.000, 0.000, 0.000, 15:35:57.455
91, -208.87, 14.91, 4.12, 7.24, 0.000, 0.000, 0.000, 15:35:57.476
92, -432.47, 2.69, 18.30, 18.55, 0.000, 0.000, 0.000, 15:35:57.477
93, 379.62, 5.58, 13.88, 18.05, 0.000, 0.000, 0.000, 15:35:57.477
94, 141.70, 16.11, 5.05, 3.53, 0.000, 0.000, 0.000, 15:35:57.477
95, -577.94, 10.52, 11.96, 10.89, 0.000, 0.000, 0.000, 15:35:57.499
96, 155.81, 8.73, 13.19, 13.05, 0.000, 0.000, 0.000, 15:35:57.499
97, 404.18, 5.50, 10.63, 8.52, 0.000, 0.000, 0.000, 15:35:57.500
98, -468.09, 7.99, 5.60, 6.37, 0.000, 0.000, 0.000, 15:35:57.500
99, -134.27, 2.10, 21.44, 17.09, 0.000, 0.000, 0.000, 15:35:57.522
100, 479.74, 12.02, 12.50, 12.21, 0.000, 0.000, 0.000, 15:35:57.522
101, -217.01, 13.63, 3.82, 6.03, 0.000, 0.000, 0.000, 15:35:57.522
102, -441.92, 1.79, 12.91, 14.41, 0.000, 0.000, 0.000, 15:35:57.523
103, 394.04, 8.14, 14.25, 13.67, 0.000, 0.000, 0.000, 15:35:57.523
104, 149.33, 14.98, 10.93, 8.58, 0.000, 0.000, 0.000, 15:35:57.523
105, -573.89, 11.20, 9.26, 13.16, 0.000, 0.000, 0.000, 15:35:57.544
106, 181.05, 4.04, 11.71, 15.59, 0.000, 0.000, 0.000, 15:35:57.544
107, 400.96, 8.58, 9.53, 11.48, 0.000, 0.000, 0.000, 15:35:57.545
108, -483.35, 9.86, 7.84, 7.03, 0.000, 0.000, 0.000, 15:35:57.545
109, -166.17, 7.37, 14.93, 16.10, 0.000, 0.000, 0.000, 15:35:57.567
110, 484.30, 5.26, 11.57, 15.10, 0.000, 0.000, 0.000, 15:35:57.567
111, -214.74, 14.77, 5.94, 7.52, 0.000, 0.000, 0.000, 15:35:57.568
112, -432.16, 1.35, 13.48, 16.61, 0.000, 0.000, 0.000, 15:35:57.568
113, 392.56, 3.59, 12.65, 10.22, 0.000, 0.000, 0.000, 15:35:57.589
114, 154.16, 17.12, 8.55, 6.57, 0.000, 0.000, 0.000, 15:35:57.590
115, -575.87, 4.03, 9.71, 12.27, 0.000, 0.000, 0.000, 15:35:57.590
116, 126.94, 6.53, 14.74, 14.96, 0.000, 0.000, 0.000, 15:35:57.590
117, 413.35, 9.42, 9.00, 10.96, 0.000, 0.000, 0.000, 15:35:57.612
118, -486.06, 10.59, 7.96, 9.14, 0.000, 0.000, 0.000, 15:35:57.612
119, -163.06, 4.63, 15.80, 15.22, 0.000, 0.000, 0.000, 15:35:57.612
120, 499.44, 6.32, 11.99, 10.15, 0.000, 0.000, 0.000, 15:35:57.612
121, -201.66, 12.39, 1.30, 10.03, 0.000, 0.000, 0.000, 15:35:57.613
122, -456.43, 6.13, 13.13, 16.12, 0.000, 0.000, 0.000, 15:35:57.613
123, 417.74, 11.98, 14.25, 13.99, 0.000, 0.000, 0.000, 15:35:57.635
124, 155.23, 9.81, 4.75, 8.27, 0.000, 0.000, 0.000, 15:35:57.635
125, -581.14, 10.22, 9.50, 13.85, 0.000, 0.000, 0.000, 15:35:57.635
126, 148.96, 4.95, 12.18, 14.49, 0.000, 0.000, 0.000, 15:35:57.636
127, 426.01, 14.83, 10.67, 7.29, 0.000, 0.000, 0.000, 15:35:57.657
128, -478.19, 12.71, 6.93, 5.15, 0.000, 0.000, 0.000, 15:35:57.657
129, -176.83, 7.67, 16.95, 18.31, 0.000, 0.000, 0.000, 15:35:57.657
130, 507.45, 6.07, 11.70, 16.50, 0.000, 0.000, 0.000, 15:35:57.658
131, -205.23, 15.54, 4.59, 10.27, 0.000, 0.000, 0.000, 15:35:57.679
132, -471.92, 6.00, 14.98, 13.42, 0.000, 0.000, 0.000, 15:35:57.679
133, 404.42, -0.29, 14.07, 13.10, 0.000, 0.000, 0.000, 15:35:57.679
134, 193.57, 14.08, 5.27, 6.76, 0.000, 0.000, 0.000, 15:35:57.680
135, -618.92, 9.20, 10.25, 10.87, 0.000, 0.000, 0.000, 15:35:57.701
136, 126.34, 0.46, 15.03, 17.30, 0.000, 0.000, 0.000, 15:35:57.702
137, 452.16, 6.66, 12.21, 9.63, 0.000, 0.000, 0.000, 15:35:57.702
138, -501.26, 16.77, 5.65, 8.14, 0.000, 0.000, 0.000, 15:35:57.702
139, -220.71, 1.92, 17.97, 15.96, 0.000, 0.000, 0.000, 15:35:57.703
140, 500.59, 7.35, 13.91, 14.65, 0.000, 0.000, 0.000, 15:35:57.703
141, -206.25, 16.39, 1.20, 5.22, 0.000, 0.000, 0.000, 15:35:57.805
142, -510.48, 2.09, 15.68, 18.17, 0.000, 0.000, 0.000, 15:35:57.806
143, 404.56, 8.17, 16.23, 11.70, 0.000, 0.000, 0.000, 15:35:57.806
144, 180.08, 11.41, 10.47, 8.63, 0.000, 0.000, 0.000, 15:35:57.806
145, -622.94, 10.05, 14.88, 10.42, 0.000, 0.000, 0.000, 15:35:57.806
146, 138.72, 1.75, 16.93, 14.53, 0.000, 0.000, 0.000, 15:35:57.807
147, 440.16, 7.65, 9.98, 15.56, 0.000, 0.000, 0.000, 15:35:57.807
148, -517.05, 14.57, 4.16, 7.73, 0.000, 0.000, 0.000, 15:35:57.807
149, -220.33, 2.73, 13.64, 21.03, 0.000, 0.000, 0.000, 15:35:57.807
150, 537.07, 9.21, 14.25, 18.60, 0.000, 0.000, 0.000, 15:35:57.807
151, -206.82, 12.57, 1.08, 5.05, 0.000, 0.000, 0.000, 15:35:57.808
152, -509.28, 1.34, 18.13, 12.23, 0.000, 0.000, 0.000, 15:35:57.808
153, 375.60, 3.39, 16.05, 15.27, 0.000, 0.000, 0.000, 15:35:57.808
154, 219.22, 14.58, 5.62, 5.77, 0.000, 0.000, 0.000, 15:35:57.808
155, -627.67, 5.06, 10.64, 11.10, 0.000, 0.000, 0.000, 15:35:57.809
156, 124.21, 5.22, 17.24, 12.52, 0.000, 0.000, 0.000, 15:35:57.809
157, 466.77, 9.21, 12.15, 15.87, 0.000, 0.000, 0.000, 15:35:57.809
158, 457.04, 15.06, 4.72, 7.42, 0.000, 0.000, 0.000, 15:35:57.809
159, 735.62, 4.90, 13.98, 17.84, 0.000, 0.000, 0.000, 15:35:57.814
160, 1523.67, 2.58, 14.69, 16.72, 0.000, 0.000, 0.000, 15:35:57.814
161, 812.49, 16.32, 3.08, 3.27, 0.000, 0.000, 0.000, 15:35:57.815
162, 477.99, 4.85, 13.22, 15.26, 0.000, 0.000, 0.000, 15:35:57.815
163, 1381.70, 2.21, 10.81, 12.64, 0.000, 0.000, 0.000, 15:35:57.837
164, 1179.88, 11.02, 3.92, 7.00, 0.000, 0.000, 0.000, 15:35:57.837
165, 360.47, 13.41, 11.97, 14.00, 0.000, 0.000, 0.000, 15:35:57.837
166, 1112.30, 1.86, 18.13, 14.66, 0.000, 0.000, 0.000, 15:35:57.837
167, 1422.93, 8.88, 11.97, 8.00, 0.000, 0.000, 0.000, 15:35:57.859
168, 502.90, 19.48, 3.18, 7.42, 0.000, 0.000, 0.000, 15:35:57.859
169, 756.45, -3.47, 14.49, 19.05, 0.000, 0.000, 0.000, 15:35:57.860
170, 1503.58, 2.92, 13.98, 16.31, 0.000, 0.000, 0.000, 15:35:57.860
171, 810.69, 16.04, 4.24, 5.31, 0.000, 0.000, 0.000, 15:35:57.883
172, 495.53, 4.35, 14.21, 16.44, 0.000, 0.000, 0.000, 15:35:57.889
173, 1365.92, 5.44, 12.25, 14.26, 0.000, 0.000, 0.000, 15:35:57.890
174, 1169.36, 11.86, 5.04, 9.15, 0.000, 0.000, 0.000, 15:35:57.890
175, 368.97, 10.26, 11.76, 12.51, 0.000, 0.000, 0.000, 15:35:57.891
176, 1110.68, 6.56, 15.04, 16.45, 0.000, 0.000, 0.000, 15:35:57.891
177, 1421.94, 15.35, 12.19, 12.38, 0.000, 0.000, 0.000, 15:35:57.904
178, 520.48, 10.35, 2.81, 4.58, 0.000, 0.000, 0.000, 15:35:57.904
179, 772.28, 3.33, 13.47, 15.66, 0.000, 0.000, 0.000, 15:35:57.904
180, 1497.54, 2.80, 9.28, 10.71, 0.000, 0.000, 0.000, 15:35:57.905
181, 792.15, 13.01, -0.06, 2.17, 0.000, 0.000, 0.000, 15:35:57.926
182, 505.72, 5.94, 17.96, 14.74, 0.000, 0.000, 0.000, 15:35:57.927
183, 1367.98, 1.66, 18.91, 12.66, 0.000, 0.000, 0.000, 15:35:57.927
184, 1177.11, 12.98, 6.33, 7.52, 0.000, 0.000, 0.000, 15:35:57.927
185, 374.02, 11.10, 15.13, 10.05, 0.000, 0.000, 0.000, 15:35:57.949
186, 1112.44, 11.25, 15.46, 16.68, 0.000, 0.000, 0.000, 15:35:57.949
187, 1405.14, 4.10, 10.84, 14.23, 0.000, 0.000, 0.000, 15:35:57.949
188, 491.43, 11.52, 6.65, 7.49, 0.000, 0.000, 0.000, 15:35:57.950
189, 781.62, 5.07, 19.14, 16.37, 0.000, 0.000, 0.000, 15:35:57.972
190, 1481.82, 10.39, 12.89, 13.10, 0.000, 0.000, 0.000, 15:35:57.972
191, 800.03, 12.98, 6.34, 7.22, 0.000, 0.000, 0.000, 15:35:57.972
192, 493.28, 2.08, 16.98, 15.54, 0.000, 0.000, 0.000, 15:35:57.972
193, 1375.72, 8.38, 15.33, 13.74, 0.000, 0.000, 0.000, 15:35:57.973
194, 1178.22, 11.47, 3.66, 6.69, 0.000, 0.000, 0.000, 15:35:57.973
195, 366.09, 11.07, 10.12, 12.35, 0.000, 0.000, 0.000, 15:35:57.994
196, 1140.27, 1.38, 14.75, 16.08, 0.000, 0.000, 0.000, 15:35:57.994
197, 1407.53, 6.99, 11.46, 9.80, 0.000, 0.000, 0.000, 15:35:57.995
198, 500.39, 9.53, 5.24, 8.45, 0.000, 0.000, 0.000, 15:35:57.995
199, 783.98, 4.96, 15.44, 12.57, 0.000, 0.000, 0.000, 15:35:58.017
200, 1482.70, 5.95, 11.93, 13.84, 0.000, 0.000, 0.000, 15:35:58.017
0, -179.56, 19.99, 5.43, 6.07, 0.000, 0.000, 0.000, 15:35:58.017
1, -474.57, 3.58, 13.46, 15.16, 0.000, 0.000, 0.000, 15:35:58.018
2, 382.06, 5.78, 13.03, 13.07, 0.000, 0.000, 0.000, 15:35:58.018
3, 186.64, 15.11, 6.75, 6.03, 0.000, 0.000, 0.000, 15:35:58.039
4, -635.50, 4.14, 9.53, 14.41, 0.000, 0.000, 0.000, 15:35:58.040
5, 153.75, 6.16, 15.18, 14.74, 0.000, 0.000, 0.000, 15:35:58.040
6, 447.55, 12.36, 9.97, 17.74, 0.000, 0.000, 0.000, 15:35:58.040
7, -478.84, 11.65, 5.31, 4.71, 0.000, 0.000, 0.000, 15:35:58.062
8, -203.03, -0.70, 16.55, 16.86, 0.000, 0.000, 0.000, 15:35:58.062
9, 514.17, 9.22, 11.41, 13.72, 0.000, 0.000, 0.000, 15:35:58.062
10, -176.30, 16.61, 7.72, 6.62, 0.000, 0.000, 0.000, 15:35:58.063
11, -490.39, 8.87, 13.05, 13.24, 0.000, 0.000, 0.000, 15:35:58.084
12, 374.80, 10.50, 15.28, 15.31, 0.000, 0.000, 0.000, 15:35:58.084
13, 189.48, 8.29, 6.12, 8.70, 0.000, 0.000, 0.000, 15:35:58.084
14, -598.76, 9.29, 15.37, 11.79, 0.000, 0.000, 0.000, 15:35:58.085
15, 155.26, 1.14, 14.35, 17.13, 0.000, 0.000, 0.000, 15:35:58.107
16, 433.58, 12.12, 9.51, 12.08, 0.000, 0.000, 0.000, 15:35:58.107
17, -489.40, 10.39, 3.78, 10.18, 0.000, 0.000, 0.000, 15:35:58.107
18, -210.85, 5.15, 14.36, 16.12, 0.000, 0.000, 0.000, 15:35:58.107
19, 501.19, 3.14, 12.56, 9.96, 0.000, 0.000, 0.000, 15:35:58.109
20, -170.66, 14.93, 3.34, 3.72, 0.000, 0.000, 0.000, 15:35:58.109
21, -489.46, 7.13, 15.52, 13.45, 0.000, 0.000, 0.000, 15:35:58.129
22, 373.97, 3.97, 10.80, 12.13, 0.000, 0.000, 0.000, 15:35:58.130
23, 210.49, 12.65, 7.48, 7.41, 0.000, 0.000, 0.000, 15:35:58.130
24, -613.02, 7.44, 12.69, 13.68, 0.000, 0.000, 0.000, 15:35:58.130
25, 125.33, 6.55, 14.17, 16.81, 0.000, 0.000, 0.000, 15:35:58.152
26, 421.48, 8.60, 9.66, 12.90, 0.000, 0.000, 0.000, 15:35:58.152
27, -454.72, 11.85, 3.86, 7.75, 0.000, 0.000, 0.000, 15:35:58.152
28, -202.40, 5.45, 14.58, 18.75, 0.000, 0.000, 0.000, 15:35:58.153
29, 516.38, 9.87, 13.37, 14.47, 0.000, 0.000, 0.000, 15:35:58.174
30, -175.32, 20.80, 5.73, 5.80, 0.000, 0.000, 0.000, 15:35:58.174
31, -485.62, -3.71, 15.84, 19.67, 0.000, 0.000, 0.000, 15:35:58.197
32, 382.66, 3.94, 18.30, 19.56, 0.000, 0.000, 0.000, 15:35:58.197
33, 159.97, 14.46, 6.47, 7.91, 0.000, 0.000, 0.000, 15:35:58.197
34, -630.28, 5.75, 10.55, 11.32, 0.000, 0.000, 0.000, 15:35:58.197
35, 160.20, 5.18, 15.63, 12.10, 0.000, 0.000, 0.000, 15:35:58.198
36, 448.66, 9.69, 10.65, 10.48, 0.000, 0.000, 0.000, 15:35:58.198
37, -484.25, 15.18, 4.52, 6.67, 0.000, 0.000, 0.000, 15:35:58.219
38, -225.95, 6.91, 14.12, 17.57, 0.000, 0.000, 0.000, 15:35:58.220
39, 492.31, 6.47, 13.28, 14.72, 0.000, 0.000, 0.000, 15:35:58.220
40, -156.91, 15.46, 4.13, 5.08, 0.000, 0.000, 0.000, 15:35:58.220
41, -491.98, 6.66, 16.42, 11.89, 0.000, 0.000, 0.000, 15:35:58.220
42, 392.73, 8.20, 13.78, 13.44, 0.000, 0.000, 0.000, 15:35:58.220
43, 184.41, 11.75, 7.09, 7.72, 0.000, 0.000, 0.000, 15:35:58.241
44, -620.53, 7.06, 10.36, 7.31, 0.000, 0.000, 0.000, 15:35:58.242
45, 119.29, 6.58, 13.18, 15.47, 0.000, 0.000, 0.000, 15:35:58.242
46, 429.19, 8.33, 11.24, 9.49, 0.000, 0.000, 0.000, 15:35:58.242
47, -451.91, 11.70, 4.86, 8.45, 0.000, 0.000, 0.000, 15:35:58.265
48, -199.41, 2.97, 13.55, 18.69, 0.000, 0.000, 0.000, 15:35:58.266
49, 510.76, -0.11, 14.14, 14.89, 0.000, 0.000, 0.000, 15:35:58.266
50, -179.27, 15.48, 5.77, 9.02, 0.000, 0.000, 0.000, 15:35:58.266
51, -482.74, 4.30, 17.35, 16.47, 0.000, 0.000, 0.000, 15:35:58.286
52, 377.36, 6.15, 13.58, 16.75, 0.000, 0.000, 0.000, 15:35:58.287
53, 178.27, 12.54, 4.53, 1.97, 0.000, 0.000, 0.000, 15:35:58.287
54, -613.09, 7.36, 9.84, 10.92, 0.000, 0.000, 0.000, 15:35:58.287
55, 132.04, 3.58, 17.09, 14.15, 0.000, 0.000, 0.000, 15:35:58.288
56, 453.80, 12.46, 8.35, 9.87, 0.000, 0.000, 0.000, 15:35:58.288
57, -471.04, 15.63, 7.33, 8.12, 0.000, 0.000, 0.000, 15:35:58.309
58, -184.52, -2.01, 15.92, 13.96, 0.000, 0.000, 0.000, 15:35:58.309
59, 510.65, 6.05, 15.38, 14.86, 0.000, 0.000, 0.000, 15:35:58.310
60, -182.52, 11.93, 1.13, 6.99, 0.000, 0.000, 0.000, 15:35:58.310
61, -481.02, 3.92, 13.43, 16.52, 0.000, 0.000, 0.000, 15:35:58.332
62, 393.78, 5.88, 14.55, 13.58, 0.000, 0.000, 0.000, 15:35:58.332
63, 195.49, 16.39, 6.01, 6.45, 0.000, 0.000, 0.000, 15:35:58.332
64, -596.14, 7.97, 11.81, 14.04, 0.000, 0.000, 0.000, 15:35:58.332
65, 127.19, 1.02, 15.73, 16.36, 0.000, 0.000, 0.000, 15:35:58.354
66, 429.33, 13.90, 8.64, 14.56, 0.000, 0.000, 0.000, 15:35:58.355
67, -477.95, 9.24, 3.38, 7.41, 0.000, 0.000, 0.000, 15:35:58.355
68, -199.43, 3.59, 15.39, 16.65, 0.000, 0.000, 0.000, 15:35:58.355
69, 497.41, 3.57, 10.82, 8.73, 0.000, 0.000, 0.000, 15:35:58.377
70, -180.34, 14.86, 1.04, 4.51, 0.000, 0.000, 0.000, 15:35:58.377
71, -483.40, 2.09, 14.28, 11.99, 0.000, 0.000, 0.000, 15:35:58.377
72, 384.43, 6.30, 10.99, 11.75, 0.000, 0.000, 0.000, 15:35:58.378
73, 191.18, 16.37, 9.65, 7.89, 0.000, 0.000, 0.000, 15:35:58.380
74, -606.62, 11.20, 13.57, 12.47, 0.000, 0.000, 0.000, 15:35:58.380
75, 137.66, 6.61, 18.66, 17.50, 0.000, 0.000, 0.000, 15:35:58.401
76, 424.79, 4.82, 10.35, 8.42, 0.000, 0.000, 0.000, 15:35:58.401
77, -474.41, 9.47, -0.00, 8.19, 0.000, 0.000, 0.000, 15:35:58.401
78, -211.92, 2.68, 17.87, 10.07, 0.000, 0.000, 0.000, 15:35:58.402
79, 471.29, 7.61, 13.21, 13.69, 0.000, 0.000, 0.000, 15:35:58.422
80, -177.19, 14.26, 3.31, 4.92, 0.000, 0.000, 0.000, 15:35:58.422
81, -426.49, 7.93, 14.25, 14.14, 0.000, 0.000, 0.000, 15:35:58.422
82, 385.69, 5.00, 11.49, 15.96, 0.000, 0.000, 0.000, 15:35:58.423
83, 188.60, 15.53, 8.11, 7.70, 0.000, 0.000, 0.000, 15:35:58.444
84, -603.30, 11.94, 8.47, 12.39, 0.000, 0.000, 0.000, 15:35:58.444
85, 144.10, -2.53, 16.96, 16.85, 0.000, 0.000, 0.000, 15:35:58.445
86, 412.20, 8.62, 12.34, 15.36, 0.000, 0.000, 0.000, 15:35:58.445
87, -487.27, 14.43, 9.79, 7.25, 0.000, 0.000, 0.000, 15:35:58.467
88, -168.49, 1.15, 17.32, 16.40, 0.000, 0.000, 0.000, 15:35:58.467
89, 499.10, 5.68, 15.70, 16.77, 0.000, 0.000, 0.000, 15:35:58.467
90, -162.22, 16.49, 3.67, 7.66, 0.000, 0.000, 0.000, 15:35:58.467
91, -442.03, 1.43, 13.60, 15.87, 0.000, 0.000, 0.000, 15:35:58.468
92, 434.34, 9.33, 12.78, 14.00, 0.000, 0.000, 0.000, 15:35:58.468
93, 174.90, 19.62, 6.10, 6.08, 0.000, 0.000, 0.000, 15:35:58.489
94, -574.23, 3.03, 11.09, 12.14, 0.000, 0.000, 0.000, 15:35:58.490
95, 122.86, 3.70, 10.55, 16.19, 0.000, 0.000, 0.000, 15:35:58.490
96, 384.46, 11.40, 9.91, 10.94, 0.000, 0.000, 0.000, 15:35:58.490
97, -507.52, 10.80, 8.00, 7.79, 0.000, 0.000, 0.000, 15:35:58.512
98, -176.14, 3.67, 14.21, 17.73, 0.000, 0.000, 0.000, 15:35:58.512
99, 456.46, 9.21, 10.41, 14.27, 0.000, 0.000, 0.000, 15:35:58.513
100, -210.95, 17.77, 8.60, 6.37, 0.000, 0.000, 0.000, 15:35:58.514
101, -490.07, 0.50, 13.25, 16.28, 0.000, 0.000, 0.000, 15:35:58.535
102, 406.09, 7.84, 12.62, 12.12, 0.000, 0.000, 0.000, 15:35:58.535
103, 160.51, 5.53, 9.15, 10.96, 0.000, 0.000, 0.000, 15:35:58.535
104, -571.04, 10.71, 12.32, 13.87, 0.000, 0.000, 0.000, 15:35:58.535
105, 158.99, 5.68, 16.52, 15.83, 0.000, 0.000, 0.000, 15:35:58.556
106, 413.34, 9.14, 9.77, 12.39, 0.000, 0.000, 0.000, 15:35:58.557
107, -467.39, 11.12, 9.08, 12.01, 0.000, 0.000, 0.000, 15:35:58.557
108, -171.52, 2.82, 16.41, 17.10, 0.000, 0.000, 0.000, 15:35:58.557
109, 484.58, 6.49, 9.75, 12.22, 0.000, 0.000, 0.000, 15:35:58.558
110, -195.54, 16.78, 2.95, 5.49, 0.000, 0.000, 0.000, 15:35:58.558
111, -453.40, 6.73, 12.92, 11.25, 0.000, 0.000, 0.000, 15:35:58.579
112, 410.14, -0.52, 11.93, 12.99, 0.000, 0.000, 0.000, 15:35:58.580
113, 175.95, 13.50, 5.27, 6.62, 0.000, 0.000, 0.000, 15:35:58.580
114, -573.40, 8.16, 12.10, 8.38, 0.000, 0.000, 0.000, 15:35:58.580
115, 151.65, 6.39, 13.10, 13.56, 0.000, 0.000, 0.000, 15:35:58.602
116, 378.20, 13.29, 9.28, 11.30, 0.000, 0.000, 0.000, 15:35:58.602
117, -450.22, 15.70, 8.83, 10.45, 0.000, 0.000, 0.000, 15:35:58.602
118, -168.94, 3.21, 17.91, 14.55, 0.000, 0.000, 0.000, 15:35:58.602
119, 480.45, 9.91, 11.71, 12.61, 0.000, 0.000, 0.000, 15:35:58.624
120, -190.26, 18.95, 5.37, 6.37, 0.000, 0.000, 0.000, 15:35:58.624
121, -472.35, -3.18, 18.50, 16.14, 0.000, 0.000, 0.000, 15:35:58.625
122, 398.60, 2.72, 14.54, 14.34, 0.000, 0.000, 0.000, 15:35:58.625
123, 177.00, 13.88, 5.62, 5.16, 0.000, 0.000, 0.000, 15:35:58.646
124, -548.91, 7.58, 13.63, 11.90, 0.000, 0.000, 0.000, 15:35:58.647
125, 150.85, 3.92, 14.25, 14.67, 0.000, 0.000, 0.000, 15:35:58.647
126, 393.27, 13.14, 9.21, 13.19, 0.000, 0.000, 0.000, 15:35:58.647
127, -462.99, 13.83, 6.87, 11.94, 0.000, 0.000, 0.000, 15:35:58.648
128, -182.47, 2.14, 11.12, 19.68, 0.000, 0.000, 0.000, 15:35:58.649
129, 484.60, 9.53, 14.90, 15.24, 0.000, 0.000, 0.000, 15:35:58.669
130, -183.97, 12.11, 7.54, 9.02, 0.000, 0.000, 0.000, 15:35:58.670
131, -430.66, 5.83, 16.18, 17.33, 0.000, 0.000, 0.000, 15:35:58.670
132, 382.57, 6.03, 13.44, 14.49, 0.000, 0.000, 0.000, 15:35:58.670
133, 155.94, 10.71, 5.48, 4.65, 0.000, 0.000, 0.000, 15:35:58.692
134, -565.13, 6.51, 12.95, 10.09, 0.000, 0.000, 0.000, 15:35:58.692
135, 157.19, 6.09, 14.50, 13.08, 0.000, 0.000, 0.000, 15:35:58.692
136, 409.01, 8.10, 9.34, 11.52, 0.000, 0.000, 0.000, 15:35:58.692
137, -466.24, 11.35, 5.25, 6.83, 0.000, 0.000, 0.000, 15:35:58.714
138, -160.04, 5.46, 14.90, 16.33, 0.000, 0.000, 0.000, 15:35:58.714
139, 484.70, 0.66, 11.03, 12.63, 0.000, 0.000, 0.000, 15:35:58.714
140, -186.37, 16.63, 5.09, 7.92, 0.000, 0.000, 0.000, 15:35:58.715
141, -442.83, 4.47, 16.58, 14.77, 0.000, 0.000, 0.000, 15:35:58.737
142, 378.20, 4.73, 13.76, 15.98, 0.000, 0.000, 0.000, 15:35:58.738
143, 163.65, 9.15, 10.38, 5.58, 0.000, 0.000, 0.000, 15:35:58.759
144, -548.45, 9.74, 12.47, 16.82, 0.000, 0.000, 0.000, 15:35:58.759
145, 159.51, 5.83, 11.68, 15.50, 0.000, 0.000, 0.000, 15:35:58.760
146, 407.55, 11.15, 7.48, 8.63, 0.000, 0.000, 0.000, 15:35:58.760
147, -460.43, 10.57, 5.03, 4.83, 0.000, 0.000, 0.000, 15:35:58.760
148, -177.91, 8.56, 17.18, 12.01, 0.000, 0.000, 0.000, 15:35:58.761
149, 468.66, 9.34, 11.69, 12.64, 0.000, 0.000, 0.000, 15:35:58.761
150, -195.08, 13.93, 3.28, 4.33, 0.000, 0.000, 0.000, 15:35:58.761
151, -437.09, 6.65, 17.69, 14.85, 0.000, 0.000, 0.000, 15:35:58.782
152, 357.15, 4.00, 14.33, 13.97, 0.000, 0.000, 0.000, 15:35:58.782
153, 149.81, 15.57, 7.51, 10.45, 0.000, 0.000, 0.000, 15:35:58.782
154, -576.03, 11.98, 12.32, 15.56, 0.000, 0.000, 0.000, 15:35:58.783
155, 142.81, 4.08, 17.01, 14.52, 0.000, 0.000, 0.000, 15:35:58.804
156, 377.66, 12.78, 8.24, 9.67, 0.000, 0.000, 0.000, 15:35:58.804
157, -483.25, 10.34, 9.94, 11.94, 0.000, 0.000, 0.000, 15:35:58.805
158, -171.46, 5.04, 15.78, 17.83, 0.000, 0.000, 0.000, 15:35:58.805
159, 468.47, 7.28, 12.74, 9.45, 0.000, 0.000, 0.000, 15:35:58.827
160, -203.15, 17.06, 6.66, 8.90, 0.000, 0.000, 0.000, 15:35:58.828
161, -461.32, 5.47, 15.22, 16.62, 0.000, 0.000, 0.000, 15:35:58.829
162, 374.79, 8.98, 16.64, 14.34, 0.000, 0.000, 0.000, 15:35:58.829
163, 156.60, 11.17, 8.32, 6.08, 0.000, 0.000, 0.000, 15:35:58.829
164, -582.95, 7.50, 7.00, 11.76, 0.000, 0.000, 0.000, 15:35:58.829
165, 155.76, 5.78, 11.50, 15.19, 0.000, 0.000, 0.000, 15:35:58.849
166, 382.86, 9.19, 9.20, 10.34, 0.000, 0.000, 0.000, 15:35:58.849
167, -459.53, 11.63, 7.44, 8.02, 0.000, 0.000, 0.000, 15:35:58.849
168, -184.62, 3.11, 18.75, 17.44, 0.000, 0.000, 0.000, 15:35:58.850
169, 456.03, 10.19, 13.07, 14.74, 0.000, 0.000, 0.000, 15:35:58.872
170, -190.74, 16.72, 2.96, 2.37, 0.000, 0.000, 0.000, 15:35:58.872
171, -454.37, 2.82, 15.44, 17.17, 0.000, 0.000, 0.000, 15:35:58.872
172, 380.71, 3.00, 16.38, 14.00, 0.000, 0.000, 0.000, 15:35:58.872
173, 145.54, 17.13, 5.34, 6.14, 0.000, 0.000, 0.000, 15:35:58.894
174, -549.62, 15.07, 7.13, 10.25, 0.000, 0.000, 0.000, 15:35:58.895
175, 158.45, 0.35, 11.34, 14.29, 0.000, 0.000, 0.000, 15:35:58.895
176, 376.92, 7.67, 7.34, 10.69, 0.000, 0.000, 0.000, 15:35:58.895
177, -477.27, 12.12, 6.89, 8.06, 0.000, 0.000, 0.000, 15:35:58.917
178, -181.62, 0.57, 16.73, 17.50, 0.000, 0.000, 0.000, 15:35:58.917
179, 475.62, 4.35, 12.04, 13.59, 0.000, 0.000, 0.000, 15:35:58.939
180, -191.54, 15.60, 6.34, 1.85, 0.000, 0.000, 0.000, 15:35:58.940
181, -430.55, 2.34, 15.95, 16.47, 0.000, 0.000, 0.000, 15:35:58.940
182, 393.31, 2.60, 12.53, 16.25, 0.000, 0.000, 0.000, 15:35:58.941
183, 154.25, 8.82, 6.39, 9.42, 0.000, 0.000, 0.000, 15:35:58.941
184, -565.18, 11.18, 15.06, 12.62, 0.000, 0.000, 0.000, 15:35:58.941
185, 145.04, 4.88, 15.81, 14.16, 0.000, 0.000, 0.000, 15:35:58.961
186, 367.33, 13.04, 8.61, 7.27, 0.000, 0.000, 0.000, 15:35:58.962
187, -469.56, 8.97, 3.02, 3.32, 0.000, 0.000, 0.000, 15:35:58.962
188, -179.64, 3.91, 17.75, 15.99, 0.000, 0.000, 0.000, 15:35:58.962
189, 449.51, 8.79, 16.16, 14.57, 0.000, 0.000, 0.000, 15:35:58.963
190, -203.25, 14.37, 2.15, 7.86, 0.000, 0.000, 0.000, 15:35:58.963
191, -398.41, 2.33, 15.99, 13.85, 0.000, 0.000, 0.000, 15:35:58.984
192, 370.01, 7.61, 15.34, 16.43, 0.000, 0.000, 0.000, 15:35:58.984
193, 143.32, 12.43, 7.73, 9.30, 0.000, 0.000, 0.000, 15:35:58.985
194, -569.17, 9.60, 10.07, 17.97, 0.000, 0.000, 0.000, 15:35:58.985
195, 162.38, 5.07, 14.26, 18.11, 0.000, 0.000, 0.000, 15:35:59.006
196, 378.87, 6.76, 5.25, 6.89, 0.000, 0.000, 0.000, 15:35:59.007
197, -467.47, 13.31, 2.67, 3.97, 0.000, 0.000, 0.000, 15:35:59.007
198, -150.08, 5.52, 12.75, 13.73, 0.000, 0.000, 0.000, 15:35:59.007
199, 458.72, 8.60, 13.65, 12.49, 0.000, 0.000, 0.000, 15:35:59.008
200, -199.28, 14.97, 4.91, 3.98, 0.000, 0.000, 0.000, 15:35:59.008
0, -453.50, 2.04, 16.65, 14.06, 0.000, 0.000, 0.000, 15:35:59.029
1, 375.32, 0.19, 15.91, 12.90, 0.000, 0.000, 0.000, 15:35:59.029
2, 166.06, 14.00, 4.42, 5.50, 0.000, 0.000, 0.000, 15:35:59.030
3, -549.19, 8.83, 13.27, 16.64, 0.000, 0.000, 0.000, 15:35:59.052
4, 137.24, 1.93, 14.94, 16.50, 0.000, 0.000, 0.000, 15:35:59.052
5, 390.25, 8.32, 9.60, 12.33, 0.000, 0.000, 0.000, 15:35:59.055
6, -479.32, 9.80, 6.83, 9.48, 0.000, 0.000, 0.000, 15:35:59.055
7, -144.39, 3.99, 14.79, 17.49, 0.000, 0.000, 0.000, 15:35:59.055
8, 452.28, 8.89, 12.52, 16.21, 0.000, 0.000, 0.000, 15:35:59.056
9, -180.05, 18.28, 4.92, 7.10, 0.000, 0.000, 0.000, 15:35:59.074
10, -430.22, 2.23, 18.03, 14.36, 0.000, 0.000, 0.000, 15:35:59.074
11, 362.95, 6.54, 12.19, 13.75, 0.000, 0.000, 0.000, 15:35:59.075
12, 135.39, 14.36, 1.93, 6.16, 0.000, 0.000, 0.000, 15:35:59.075
13, -550.05, 9.11, 13.03, 11.07, 0.000, 0.000, 0.000, 15:35:59.097
14, 143.66, 3.80, 15.58, 16.33, 0.000, 0.000, 0.000, 15:35:59.097
15, 379.97, 10.54, 8.09, 10.17, 0.000, 0.000, 0.000, 15:35:59.097
16, -491.37, 13.42, 5.19, 5.89, 0.000, 0.000, 0.000, 15:35:59.097
17, -135.93, 3.88, 17.38, 16.82, 0.000, 0.000, 0.000, 15:35:59.119
18, 458.33, 9.78, 11.19, 13.54, 0.000, 0.000, 0.000, 15:35:59.120
19, -191.41, 14.10, 3.50, 7.29, 0.000, 0.000, 0.000, 15:35:59.120
20, -429.08, 4.90, 16.14, 18.05, 0.000, 0.000, 0.000, 15:35:59.120
21, 360.78, 7.02, 12.45, 14.41, 0.000, 0.000, 0.000, 15:35:59.142
22, 105.16, 10.22, 4.35, 6.38, 0.000, 0.000, 0.000, 15:35:59.142
23, -549.23, 3.10, 11.80, 11.19, 0.000, 0.000, 0.000, 15:35:59.143
24, 177.91, 8.77, 14.65, 15.00, 0.000, 0.000, 0.000, 15:35:59.143
25, 392.68, 11.17, 8.73, 10.91, 0.000, 0.000, 0.000, 15:35:59.143
26, -468.87, 14.97, 6.75, 12.03, 0.000, 0.000, 0.000, 15:35:59.143
27, -157.55, 3.56, 19.87, 15.18, 0.000, 0.000, 0.000, 15:35:59.165
28, 468.19, 2.29, 10.38, 16.89, 0.000, 0.000, 0.000, 15:35:59.165
29, -208.70, 14.00, 4.02, 8.15, 0.000, 0.000, 0.000, 15:35:59.166
30, -422.70, 6.26, 20.78, 18.69, 0.000, 0.000, 0.000, 15:35:59.166
31, 366.98, 7.67, 10.70, 10.70, 0.000, 0.000, 0.000, 15:35:59.187
32, 151.12, 11.94, 6.80, 11.65, 0.000, 0.000, 0.000, 15:35:59.188
33, -572.46, 10.02, 13.80, 11.78, 0.000, 0.000, 0.000, 15:35:59.189
34, 159.98, 5.41, 14.77, 12.79, 0.000, 0.000, 0.000, 15:35:59.189
35, 371.73, 10.23, 10.24, 8.10, 0.000, 0.000, 0.000, 15:35:59.209
36, -456.63, 13.96, 3.03, 7.21, 0.000, 0.000, 0.000, 15:35:59.210
37, -162.48, -0.96, 15.99, 13.27, 0.000, 0.000, 0.000, 15:35:59.210
38, 453.41, 1.83, 12.28, 13.16, 0.000, 0.000, 0.000, 15:35:59.210
39, -200.99, 14.59, 6.86, 6.69, 0.000, 0.000, 0.000, 15:35:59.232
40, -405.69, 6.59, 16.61, 14.37, 0.000, 0.000, 0.000, 15:35:59.232
41, 361.32, 3.91, 17.40, 11.40, 0.000, 0.000, 0.000, 15:35:59.233
42, 148.31, 12.41, 6.54, 8.38, 0.000, 0.000, 0.000, 15:35:59.233
43, -554.05, 12.99, 12.48, 11.47, 0.000, 0.000, 0.000, 15:35:59.233
44, 130.37, 5.23, 15.39, 14.84, 0.000, 0.000, 0.000, 15:35:59.233
45, 366.68, 12.24, 8.93, 10.62, 0.000, 0.000, 0.000, 15:35:59.254
46, -473.62, 12.28, 6.72, 11.95, 0.000, 0.000, 0.000, 15:35:59.255
47, -119.25, 4.23, 17.45, 16.52, 0.000, 0.000, 0.000, 15:35:59.255
48, 471.34, 7.84, 15.15, 13.75, 0.000, 0.000, 0.000, 15:35:59.255
49, -194.08, 14.94, 1.41, 3.81, 0.000, 0.000, 0.000, 15:35:59.277
50, -422.52, 4.99, 12.71, 13.73, 0.000, 0.000, 0.000, 15:35:59.277
51, 358.76, 3.06, 12.82, 13.98, 0.000, 0.000, 0.000, 15:35:59.278
52, 156.16, 15.32, 2.60, 8.10, 0.000, 0.000, 0.000, 15:35:59.278
53, -559.75, 7.84, 13.91, 10.87, 0.000, 0.000, 0.000, 15:35:59.299
54, 145.65, 5.81, 14.92, 15.18, 0.000, 0.000, 0.000, 15:35:59.299
55, 378.82, 1.51, 11.82, 14.43, 0.000, 0.000, 0.000, 15:35:59.299
56, -467.70, 12.73, 6.63, 14.38, 0.000, 0.000, 0.000, 15:35:59.300
57, -162.86, 2.54, 13.79, 18.77, 0.000, 0.000, 0.000, 15:35:59.322
58, 466.71, 10.79, 10.08, 12.04, 0.000, 0.000, 0.000, 15:35:59.322
59, -193.05, 14.70, 1.15, 1.47, 0.000, 0.000, 0.000, 15:35:59.322
60, -431.29, 4.84, 14.15, 14.77, 0.000, 0.000, 0.000, 15:35:59.323
61, 353.57, 4.88, 13.17, 11.72, 0.000, 0.000, 0.000, 15:35:59.323
62, 143.58, 12.51, 7.06, 7.95, 0.000, 0.000, 0.000, 15:35:59.324
63, -558.22, 14.45, 11.46, 14.44, 0.000, 0.000, 0.000, 15:35:59.345
64, 168.38, 1.94, 18.64, 16.56, 0.000, 0.000, 0.000, 15:35:59.346
65, 384.72, 9.39, 12.40, 9.51, 0.000, 0.000, 0.000, 15:35:59.346
66, -453.69, 9.45, 7.22, 3.66, 0.000, 0.000, 0.000, 15:35:59.346
67, -159.23, 4.70, 14.50, 17.93, 0.000, 0.000, 0.000, 15:35:59.366
68, 452.34, 5.63, 9.32, 14.70, 0.000, 0.000, 0.000, 15:35:59.367
69, -217.49, 16.64, 5.49, 5.24, 0.000, 0.000, 0.000, 15:35:59.367
70, -434.84, 4.93, 15.72, 19.62, 0.000, 0.000, 0.000, 15:35:59.367
71, 389.27, 6.61, 9.39, 12.47, 0.000, 0.000, 0.000, 15:35:59.389
72, 138.63, 16.54, 7.88, 7.50, 0.000, 0.000, 0.000, 15:35:59.389
73, -540.39, -1.41, 13.54, 13.28, 0.000, 0.000, 0.000, 15:35:59.390
74, 152.56, 5.75, 12.18, 15.07, 0.000, 0.000, 0.000, 15:35:59.390
75, 374.79, 7.00, 9.44, 10.90, 0.000, 0.000, 0.000, 15:35:59.412
76, -469.07, 13.70, 6.56, 9.36, 0.000, 0.000, 0.000, 15:35:59.412
77, -151.52, 1.64, 16.81, 12.59, 0.000, 0.000, 0.000, 15:35:59.413
78, 444.40, 12.32, 8.06, 13.52, 0.000, 0.000, 0.000, 15:35:59.413
79, -178.20, 13.80, 6.79, 6.20, 0.000, 0.000, 0.000, 15:35:59.413
80, -422.98, 2.39, 16.91, 17.30, 0.000, 0.000, 0.000, 15:35:59.414
81, 368.00, 9.16, 14.98, 13.22, 0.000, 0.000, 0.000, 15:35:59.434
82, 147.83, 10.03, 6.26, 7.78, 0.000, 0.000, 0.000, 15:35:59.435
83, -564.85, 7.63, 13.42, 16.19, 0.000, 0.000, 0.000, 15:35:59.435
84, 153.58, 4.00, 13.28, 11.33, 0.000, 0.000, 0.000, 15:35:59.435
85, 382.62, 8.09, 7.02, 12.66, 0.000, 0.000, 0.000, 15:35:59.456
86, -451.41, 6.64, 9.06, 9.67, 0.000, 0.000, 0.000, 15:35:59.457
87, -144.79, 5.28, 11.91, 14.60, 0.000, 0.000, 0.000, 15:35:59.457
88, 464.40, 7.36, 13.35, 17.77, 0.000, 0.000, 0.000, 15:35:59.457
89, -184.66, 13.76, 6.66, 4.48, 0.000, 0.000, 0.000, 15:35:59.479
90, -449.69, 7.91, 16.21, 12.04, 0.000, 0.000, 0.000, 15:35:59.481
91, 349.30, 4.90, 14.92, 15.11, 0.000, 0.000, 0.000, 15:35:59.502
92, 163.66, 14.11, 7.00, 9.11, 0.000, 0.000, 0.000, 15:35:59.502
93, -552.80, 7.15, 12.03, 14.07, 0.000, 0.000, 0.000, 15:35:59.503
94, 154.61, 4.76, 18.16, 18.93, 0.000, 0.000, 0.000, 15:35:59.503
95, 378.25, 7.04, 9.72, 8.64, 0.000, 0.000, 0.000, 15:35:59.504
96, -472.00, 11.70, 5.09, 6.87, 0.000, 0.000, 0.000, 15:35:59.504
97, -161.23, 1.15, 15.91, 14.70, 0.000, 0.000, 0.000, 15:35:59.504
98, 460.05, 10.85, 9.89, 14.19, 0.000, 0.000, 0.000, 15:35:59.504
99, -189.92, 10.81, 6.39, 5.03, 0.000, 0.000, 0.000, 15:35:59.524
100, -435.96, 1.60, 16.69, 14.95, 0.000, 0.000, 0.000, 15:35:59.524
101, 353.78, 7.90, 14.05, 16.82, 0.000, 0.000, 0.000, 15:35:59.525
102, 150.75, 14.16, 3.31, 10.31, 0.000, 0.000, 0.000, 15:35:59.525
103, -538.62, 9.02, 11.54, 13.92, 0.000, 0.000, 0.000, 15:35:59.547
104, 160.55, 6.23, 12.51, 14.43, 0.000, 0.000, 0.000, 15:35:59.547
105, 379.54, 14.84, 10.16, 7.23, 0.000, 0.000, 0.000, 15:35:59.547
106, -464.64, 12.94, 4.63, 4.47, 0.000, 0.000, 0.000, 15:35:59.548
107, -172.47, 6.39, 14.94, 19.03, 0.000, 0.000, 0.000, 15:35:59.569
108, 449.75, 12.94, 11.04, 9.81, 0.000, 0.000, 0.000, 15:35:59.569
109, -211.82, 4.14, 7.31, 6.65, 0.000, 0.000, 0.000, 15:35:59.570
110, -433.25, 5.49, 15.69, 19.33, 0.000, 0.000, 0.000, 15:35:59.570
111, 350.28, 8.67, 13.61, 12.54, 0.000, 0.000, 0.000, 15:35:59.592
112, 172.33, 13.12, 6.14, 5.78, 0.000, 0.000, 0.000, 15:35:59.592
113, -563.67, 10.31, 15.68, 13.64, 0.000, 0.000, 0.000, 15:35:59.592
114, 144.03, 6.97, 13.07, 13.94, 0.000, 0.000, 0.000, 15:35:59.592
115, 373.53, 15.07, 7.12, 9.48, 0.000, 0.000, 0.000, 15:35:59.593
116, -445.07, 9.72, 4.72, 10.00, 0.000, 0.000, 0.000, 15:35:59.593
117, -165.61, 5.02, 17.91, 15.05, 0.000, 0.000, 0.000, 15:35:59.614
118, 487.91, 2.20, 11.89, 15.95, 0.000, 0.000, 0.000, 15:35:59.614
119, -162.02, 14.32, 5.59, 10.31, 0.000, 0.000, 0.000, 15:35:59.614
120, -380.85, 3.40, 15.06, 17.58, 0.000, 0.000, 0.000, 15:35:59.615
121, 387.69, 8.43, 10.95, 11.08, 0.000, 0.000, 0.000, 15:35:59.637
122, 154.56, 9.57, 5.92, 7.65, 0.000, 0.000, 0.000, 15:35:59.637
123, -561.07, 10.73, 15.51, 10.48, 0.000, 0.000, 0.000, 15:35:59.637
124, 117.71, 4.72, 13.91, 14.66, 0.000, 0.000, 0.000, 15:35:59.637
125, 371.84, 9.64, 6.62, 7.62, 0.000, 0.000, 0.000, 15:35:59.659
126, -485.40, 19.96, 11.21, 8.00, 0.000, 0.000, 0.000, 15:35:59.659
127, -185.99, -2.55, 16.27, 17.30, 0.000, 0.000, 0.000, 15:35:59.660
128, 451.86, 7.06, 12.03, 11.82, 0.000, 0.000, 0.000, 15:35:59.660
129, -205.45, 16.12, 5.31, 3.48, 0.000, 0.000, 0.000, 15:35:59.682
130, -452.45, 6.29, 16.94, 12.78, 0.000, 0.000, 0.000, 15:35:59.682
131, 363.07, 8.82, 12.04, 14.37, 0.000, 0.000, 0.000, 15:35:59.682
132, 157.08, 11.66, 7.00, 4.32, 0.000, 0.000, 0.000, 15:35:59.682
133, -560.24, 4.39, 13.09, 13.89, 0.000, 0.000, 0.000, 15:35:59.683
134, 158.58, 3.38, 14.14, 17.82, 0.000, 0.000, 0.000, 15:35:59.683
135, 369.85, 10.22, 7.03, 14.71, 0.000, 0.000, 0.000, 15:35:59.704
136, -459.72, 12.29, 8.01, 7.17, 0.000, 0.000, 0.000, 15:35:59.704
137, -163.68, 2.69, 15.41, 19.15, 0.000, 0.000, 0.000, 15:35:59.705
138, 476.20, 5.93, 16.00, 12.93, 0.000, 0.000, 0.000, 15:35:59.705
139, -190.05, 12.41, 4.48, 5.10, 0.000, 0.000, 0.000, 15:35:59.809
140, -418.42, 2.86, 20.97, 16.67, 0.000, 0.000, 0.000, 15:35:59.809
141, 376.16, 3.64, 11.98, 15.12, 0.000, 0.000, 0.000, 15:35:59.809
142, 159.82, 10.81, 2.84, 3.41, 0.000, 0.000, 0.000, 15:35:59.809
143, -547.71, 7.20, 13.37, 6.42, 0.000, 0.000, 0.000, 15:35:59.810
144, 144.43, 8.44, 13.16, 16.84, 0.000, 0.000, 0.000, 15:35:59.810
145, 384.35, 8.69, 10.19, 11.22, 0.000, 0.000, 0.000, 15:35:59.810
146, -474.54, 12.19, 9.46, 12.35, 0.000, 0.000, 0.000, 15:35:59.811
147, -144.44, 4.16, 13.85, 14.54, 0.000, 0.000, 0.000, 15:35:59.811
148, 449.41, 6.59, 10.09, 12.11, 0.000, 0.000, 0.000, 15:35:59.811
149, -205.26, 12.28, 8.80, 8.35, 0.000, 0.000, 0.000, 15:35:59.811
150, -402.58, 6.15, 14.10, 17.11, 0.000, 0.000, 0.000, 15:35:59.812
151, 377.24, 5.78, 11.49, 11.68, 0.000, 0.000, 0.000, 15:35:59.812
152, 147.61, 14.81, 5.61, 7.86, 0.000, 0.000, 0.000, 15:35:59.812
153, -543.82, 12.07, 13.73, 9.82, 0.000, 0.000, 0.000, 15:35:59.812
154, 143.00, 3.98, 15.64, 13.60, 0.000, 0.000, 0.000, 15:35:59.812
155, 353.98, 11.62, 6.85, 11.01, 0.000, 0.000, 0.000, 15:35:59.812
156, -428.33, 10.94, 6.80, 8.68, 0.000, 0.000, 0.000, 15:35:59.813
157, -147.82, 4.97, 15.11, 16.97, 0.000, 0.000, 0.000, 15:35:59.817
158, 478.04, 7.64, 13.34, 15.63, 0.000, 0.000, 0.000, 15:35:59.817
159, -176.52, 13.17, 3.04, 8.46, 0.000, 0.000, 0.000, 15:35:59.817
160, -424.00, 3.66, 15.44, 13.86, 0.000, 0.000, 0.000, 15:35:59.817
161, 370.51, 8.56, 13.41, 12.41, 0.000, 0.000, 0.000, 15:35:59.839
162, 154.03, 19.79, 4.41, 4.33, 0.000, 0.000, 0.000, 15:35:59.839
163, -556.20, 3.70, 10.09, 18.03, 0.000, 0.000, 0.000, 15:35:59.840
164, 138.71, 4.19, 16.75, 20.58, 0.000, 0.000, 0.000, 15:35:59.840
165, 397.89, 11.81, 10.89, 11.83, 0.000, 0.000, 0.000, 15:35:59.861
166, -454.28, 12.72, 5.41, 6.72, 0.000, 0.000, 0.000, 15:35:59.862
167, -143.91, 0.39, 18.99, 20.49, 0.000, 0.000, 0.000, 15:35:59.862
168, 458.81, 9.13, 9.47, 13.67, 0.000, 0.000, 0.000, 15:35:59.862
169, -181.90, 15.95, -0.05, 6.73, 0.000, 0.000, 0.000, 15:35:59.863
170, -416.24, 4.54, 15.35, 11.91, 0.000, 0.000, 0.000, 15:35:59.863
171, 374.85, 6.78, 15.95, 11.91, 0.000, 0.000, 0.000, 15:35:59.884
172, 154.02, 11.65, 7.96, 9.45, 0.000, 0.000, 0.000, 15:35:59.885
173, -543.06, 2.65, 14.87, 16.16, 0.000, 0.000, 0.000, 15:35:59.885
174, 140.09, 4.90, 12.42, 14.63, 0.000, 0.000, 0.000, 15:35:59.885
175, 367.00, 10.51, 6.25, 8.10, 0.000, 0.000, 0.000, 15:35:59.907
176, -429.21, 10.74, 5.92, 9.38, 0.000, 0.000, 0.000, 15:35:59.907
177, -160.44, 3.47, 16.51, 14.98, 0.000, 0.000, 0.000, 15:35:59.907
178, 449.38, 10.14, 12.74, 12.37, 0.000, 0.000, 0.000, 15:35:59.907
179, -196.27, 12.41, 6.52, 2.92, 0.000, 0.000, 0.000, 15:35:59.929
180, -460.39, 7.75, 14.88, 18.10, 0.000, 0.000, 0.000, 15:35:59.929
181, 386.72, -0.41, 15.41, 13.99, 0.000, 0.000, 0.000, 15:35:59.930
182, 138.12, 13.34, 3.05, 9.29, 0.000, 0.000, 0.000, 15:35:59.930
183, -561.11, 8.78, 13.49, 9.40, 0.000, 0.000, 0.000, 15:35:59.952
184, 122.27, 4.07, 16.80, 17.88, 0.000, 0.000, 0.000, 15:35:59.952
185, 395.89, 7.39, 12.89, 9.90, 0.000, 0.000, 0.000, 15:35:59.953
186, -468.55, 12.71, 9.44, 9.23, 0.000, 0.000, 0.000, 15:35:59.953
187, -172.96, 6.64, 14.84, 14.34, 0.000, 0.000, 0.000, 15:35:59.953
188, 446.11, 5.83, 8.14, 11.00, 0.000, 0.000, 0.000, 15:35:59.953
189, -201.93, 17.01, 7.15, 6.49, 0.000, 0.000, 0.000, 15:35:59.974
190, -434.77, 0.45, 13.59, 14.17, 0.000, 0.000, 0.000, 15:35:59.974
191, 360.61, 6.36, 11.94, 12.48, 0.000, 0.000, 0.000, 15:35:59.975
192, 145.60, 15.45, 7.01, 6.93, 0.000, 0.000, 0.000, 15:35:59.975
193, -570.02, 7.58, 11.72, 9.53, 0.000, 0.000, 0.000, 15:35:59.997
194, 113.06, 1.45, 12.33, 18.91, 0.000, 0.000, 0.000, 15:35:59.997
195, 405.61, 8.61, 9.16, 10.63, 0.000, 0.000, 0.000, 15:35:59.997
196, -460.45, 11.54, 5.12, 7.93, 0.000, 0.000, 0.000, 15:35:59.998
197, -157.04, -0.22, 18.67, 18.97, 0.000, 0.000, 0.000, 15:36:00.019
198, 441.28, 12.01, 11.93, 14.80, 0.000, 0.000, 0.000, 15:36:00.019
199, -173.15, 6.24, 4.49, 5.86, 0.000, 0.000, 0.000, 15:36:00.020
200, -434.29, 6.64, 17.15, 16.09, 0.000, 0.000, 0.000, 15:36:00.020
0, 358.74, 6.61, 11.77, 12.77, 0.000, 0.000, 0.000, 15:36:00.021
1, 135.86, 15.92, 7.03, 4.25, 0.000, 0.000, 0.000, 15:36:00.042
2, -555.67, 7.13, 12.11, 16.15, 0.000, 0.000, 0.000, 15:36:00.042
3, 139.93, 3.43, 16.51, 17.86, 0.000, 0.000, 0.000, 15:36:00.042
4, 381.22, 10.19, 7.13, 8.50, 0.000, 0.000, 0.000, 15:36:00.042
5, -454.93, 10.46, 5.77, 8.52, 0.000, 0.000, 0.000, 15:36:00.064
6, -170.99, 9.55, 16.62, 16.30, 0.000, 0.000, 0.000, 15:36:00.064
7, 448.61, 4.57, 12.22, 13.95, 0.000, 0.000, 0.000, 15:36:00.064
8, -177.38, 14.77, 5.48, 6.28, 0.000, 0.000, 0.000, 15:36:00.065
9, -434.91, 5.12, 13.31, 18.52, 0.000, 0.000, 0.000, 15:36:00.087
10, 348.44, 7.09, 13.07, 14.83, 0.000, 0.000, 0.000, 15:36:00.087
11, 132.60, 8.91, 9.55, 9.71, 0.000, 0.000, 0.000, 15:36:00.087
12, -529.48, 7.96, 13.59, 12.36, 0.000, 0.000, 0.000, 15:36:00.088
13, 148.01, 5.21, 13.98, 12.31, 0.000, 0.000, 0.000, 15:36:00.088
14, 375.44, 9.91, 9.69, 10.07, 0.000, 0.000, 0.000, 15:36:00.088
15, -453.40, 16.13, 7.64, 9.34, 0.000, 0.000, 0.000, 15:36:00.109
16, -165.94, -0.55, 14.56, 16.38, 0.000, 0.000, 0.000, 15:36:00.109
17, 444.35, 10.67, 11.61, 11.32, 0.000, 0.000, 0.000, 15:36:00.109
18, -173.30, 15.27, 3.42, 5.47, 0.000, 0.000, 0.000, 15:36:00.110
19, -434.73, 6.45, 14.27, 15.08, 0.000, 0.000, 0.000, 15:36:00.132
20, 351.35, 4.60, 12.62, 11.67, 0.000, 0.000, 0.000, 15:36:00.132
21, 145.99, 14.89, 6.37, 8.87, 0.000, 0.000, 0.000, 15:36:00.132
22, -545.66, 7.74, 10.77, 12.78, 0.000, 0.000, 0.000, 15:36:00.133
23, 156.36, 4.84, 15.57, 18.28, 0.000, 0.000, 0.000, 15:36:00.154
24, 344.93, 15.66, 10.92, 11.09, 0.000, 0.000, 0.000, 15:36:00.154
25, -464.06, 4.94, 2.54, 7.05, 0.000, 0.000, 0.000, 15:36:00.155
26, -143.71, 2.66, 16.17, 16.34, 0.000, 0.000, 0.000, 15:36:00.155
27, 476.44, 7.85, 12.19, 14.26, 0.000, 0.000, 0.000, 15:36:00.177
28, -188.99, 18.95, 8.05, 4.92, 0.000, 0.000, 0.000, 15:36:00.177
29, -435.06, 9.49, 14.85, 15.01, 0.000, 0.000, 0.000, 15:36:00.177
30, 355.27, 6.56, 13.28, 11.12, 0.000, 0.000, 0.000, 15:36:00.177
31, 139.16, 11.97, 4.83, 7.01, 0.000, 0.000, 0.000, 15:36:00.199
32, -541.34, 7.12, 14.52, 15.49, 0.000, 0.000, 0.000, 15:36:00.200
33, 140.20, 11.23, 18.18, 12.80, 0.000, 0.000, 0.000, 15:36:00.200
34, 356.54, 2.17, 11.29, 10.01, 0.000, 0.000, 0.000, 15:36:00.200
35, -440.65, 14.15, 9.79, 5.65, 0.000, 0.000, 0.000, 15:36:00.201
36, -179.37, 4.46, 11.97, 19.87, 0.000, 0.000, 0.000, 15:36:00.201
37, 457.75, 3.54, 12.23, 11.83, 0.000, 0.000, 0.000, 15:36:00.221
38, -164.76, 14.29, 1.61, 0.33, 0.000, 0.000, 0.000, 15:36:00.222
39, -437.85, 1.74, 13.48, 14.94, 0.000, 0.000, 0.000, 15:36:00.222
40, 361.78, 7.12, 14.41, 11.58, 0.000, 0.000, 0.000, 15:36:00.222
41, 156.91, 14.62, 4.27, 8.34, 0.000, 0.000, 0.000, 15:36:00.244
42, -558.49, 12.02, 13.97, 13.58, 0.000, 0.000, 0.000, 15:36:00.244
43, 136.30, 2.29, 14.28, 16.62, 0.000, 0.000, 0.000, 15:36:00.245
44, 410.59, 10.20, 10.95, 11.83, 0.000, 0.000, 0.000, 15:36:00.245
45, -461.88, 12.33, 6.63, 8.35, 0.000, 0.000, 0.000, 15:36:00.267
46, -152.46, 3.97, 17.37, 16.90, 0.000, 0.000, 0.000, 15:36:00.267
47, 447.10, 4.31, 13.67, 13.34, 0.000, 0.000, 0.000, 15:36:00.267
48, -203.39, 14.24, 9.04, 4.37, 0.000, 0.000, 0.000, 15:36:00.268
49, -442.77, 0.70, 11.31, 12.64, 0.000, 0.000, 0.000, 15:36:00.268
50, 361.56, 4.09, 9.90, 17.16, 0.000, 0.000, 0.000, 15:36:00.268
51, 126.33, 15.67, 5.28, 8.88, 0.000, 0.000, 0.000, 15:36:00.290
52, -512.95, 7.76, 14.18, 12.49, 0.000, 0.000, 0.000, 15:36:00.290
53, 141.83, 4.53, 13.80, 14.73, 0.000, 0.000, 0.000, 15:36:00.290
54, 398.45, 8.75, 13.21, 12.09, 0.000, 0.000, 0.000, 15:36:00.290
55, -490.60, 11.62, 9.24, 11.72, 0.000, 0.000, 0.000, 15:36:00.312
56, -130.94, 1.26, 17.50, 16.31, 0.000, 0.000, 0.000, 15:36:00.312
57, 460.31, 8.61, 9.51, 9.55, 0.000, 0.000, 0.000, 15:36:00.312
58, -194.62, 11.50, 3.34, 5.80, 0.000, 0.000, 0.000, 15:36:00.312
59, -448.29, 1.78, 17.17, 17.74, 0.000, 0.000, 0.000, 15:36:00.334
60, 377.58, 8.97, 15.49, 16.82, 0.000, 0.000, 0.000, 15:36:00.334
61, 131.03, 7.98, 5.10, 6.12, 0.000, 0.000, 0.000, 15:36:00.335
62, -544.13, 9.54, 12.63, 11.09, 0.000, 0.000, 0.000, 15:36:00.335
63, 150.55, 6.03, 14.19, 14.66, 0.000, 0.000, 0.000, 15:36:00.357
64, 385.35, 11.26, 7.42, 8.99, 0.000, 0.000, 0.000, 15:36:00.357
65, -473.98, 11.03, 2.80, 7.96, 0.000, 0.000, 0.000, 15:36:00.357
66, -162.37, 5.85, 14.58, 14.20, 0.000, 0.000, 0.000, 15:36:00.357
67, 481.48, 12.20, 13.85, 15.19, 0.000, 0.000, 0.000, 15:36:00.358
68, -192.97, 16.03, 4.87, 5.97, 0.000, 0.000, 0.000, 15:36:00.358
69, -407.01, 5.11, 14.98, 12.91, 0.000, 0.000, 0.000, 15:36:00.379
70, 335.75, -1.10, 11.86, 13.15, 0.000, 0.000, 0.000, 15:36:00.379
71, 148.59, 11.47, 7.09, 10.66, 0.000, 0.000, 0.000, 15:36:00.380
72, -544.26, 5.14, 14.80, 14.99, 0.000, 0.000, 0.000, 15:36:00.380
73, 154.34, 3.26, 15.83, 15.82, 0.000, 0.000, 0.000, 15:36:00.401
74, 351.91, 9.90, 12.55, 14.06, 0.000, 0.000, 0.000, 15:36:00.402
75, -449.49, 9.77, 5.86, 10.23, 0.000, 0.000, 0.000, 15:36:00.402
76, -154.03, 3.15, 13.10, 15.80, 0.000, 0.000, 0.000, 15:36:00.402
77, 458.22, 8.51, 15.14, 15.36, 0.000, 0.000, 0.000, 15:36:00.424
78, -199.24, 17.27, 4.18, 7.84, 0.000, 0.000, 0.000, 15:36:00.424
79, -413.80, -1.82, 17.00, 14.75, 0.000, 0.000, 0.000, 15:36:00.425
80, 312.75, 4.93, 13.55, 15.21, 0.000, 0.000, 0.000, 15:36:00.425
81, 127.38, 15.69, 5.28, 9.77, 0.000, 0.000, 0.000, 15:36:00.447
82, -506.96, 12.58, 13.23, 11.49, 0.000, 0.000, 0.000, 15:36:00.447
83, 190.32, 1.08, 14.83, 13.66, 0.000, 0.000, 0.000, 15:36:00.447
84, 376.89, 7.58, 4.93, 6.41, 0.000, 0.000, 0.000, 15:36:00.447
85, -459.48, 16.99, 9.01, 9.61, 0.000, 0.000, 0.000, 15:36:00.448
86, -137.83, 4.74, 16.40, 17.82, 0.000, 0.000, 0.000, 15:36:00.448
87, 446.83, 13.44, 8.27, 12.94, 0.000, 0.000, 0.000, 15:36:00.469
88, -209.87, 13.99, 1.68, 6.03, 0.000, 0.000, 0.000, 15:36:00.469
89, -401.51, 2.82, 16.97, 13.13, 0.000, 0.000, 0.000, 15:36:00.470
90, 375.58, 8.06, 12.31, 14.70, 0.000, 0.000, 0.000, 15:36:00.470
91, 122.10, 15.08, 7.92, 10.51, 0.000, 0.000, 0.000, 15:36:00.492
92, -538.98, 9.33, 12.82, 11.01, 0.000, 0.000, 0.000, 15:36:00.492
93, 160.86, 5.77, 10.93, 12.21, 0.000, 0.000, 0.000, 15:36:00.493
94, 357.37, 12.36, 6.31, 13.56, 0.000, 0.000, 0.000, 15:36:00.493
95, -468.70, 9.93, 7.93, 9.54, 0.000, 0.000, 0.000, 15:36:00.514
96, -136.41, 4.05, 15.03, 17.25, 0.000, 0.000, 0.000, 15:36:00.514
97, 396.15, -1.89, 10.48, 13.22, 0.000, 0.000, 0.000, 15:36:00.514
98, -167.70, 11.28, 2.10, 6.95, 0.000, 0.000, 0.000, 15:36:00.515
99, -385.48, 1.49, 15.52, 13.87, 0.000, 0.000, 0.000, 15:36:00.536
100, 365.17, 7.47, 14.90, 10.51, 0.000, 0.000, 0.000, 15:36:00.537
101, 123.61, 11.64, 10.35, 4.19, 0.000, 0.000, 0.000, 15:36:00.537
102, -536.47, 6.14, 17.44, 10.38, 0.000, 0.000, 0.000, 15:36:00.537
103, 155.91, 5.56, 15.86, 12.34, 0.000, 0.000, 0.000, 15:36:00.538
104, 351.78, 11.49, 10.43, 10.69, 0.000, 0.000, 0.000, 15:36:00.538
105, -456.97, 14.72, 7.48, 9.10, 0.000, 0.000, 0.000, 15:36:00.559
106, -147.00, 1.33, 13.47, 19.84, 0.000, 0.000, 0.000, 15:36:00.560
107, 439.90, 10.77, 12.24, 15.76, 0.000, 0.000, 0.000, 15:36:00.560
108, -197.82, 16.54, 4.43, 8.57, 0.000, 0.000, 0.000, 15:36:00.560
109, -398.03, 9.39, 12.38, 16.23, 0.000, 0.000, 0.000, 15:36:00.582
110, 364.43, 5.84, 12.99, 13.47, 0.000, 0.000, 0.000, 15:36:00.582
111, 98.78, 13.27, 3.01, 6.56, 0.000, 0.000, 0.000, 15:36:00.582
112, -527.48, 8.99, 11.84, 9.66, 0.000, 0.000, 0.000, 15:36:00.583
113, 148.17, 7.00, 14.47, 14.73, 0.000, 0.000, 0.000, 15:36:00.604
114, 346.77, 14.40, 7.98, 6.75, 0.000, 0.000, 0.000, 15:36:00.604
115, -476.73, 9.32, 6.93, 9.62, 0.000, 0.000, 0.000, 15:36:00.605
116, -86.39, 0.40, 14.71, 16.72, 0.000, 0.000, 0.000, 15:36:00.605
117, 463.37, 6.76, 11.82, 13.15, 0.000, 0.000, 0.000, 15:36:00.627
118, -198.66, 15.08, 5.06, 7.59, 0.000, 0.000, 0.000, 15:36:00.627
119, -385.29, 1.72, 18.77, 20.30, 0.000, 0.000, 0.000, 15:36:00.628
120, 381.66, 7.17, 13.99, 16.29, 0.000, 0.000, 0.000, 15:36:00.628
121, 113.96, 12.96, 3.34, 9.61, 0.000, 0.000, 0.000, 15:36:00.628
122, -514.58, 9.34, 13.86, 12.54, 0.000, 0.000, 0.000, 15:36:00.628
123, 220.16, 5.81, 15.29, 12.44, 0.000, 0.000, 0.000, 15:36:00.650
124, 375.40, 6.96, 8.80, 12.15, 0.000, 0.000, 0.000, 15:36:00.650
125, -466.84, 14.11, 10.32, 9.67, 0.000, 0.000, 0.000, 15:36:00.650
126, -135.90, 4.06, 18.03, 15.46, 0.000, 0.000, 0.000, 15:36:00.650
127, 404.12, 10.68, 14.58, 8.44, 0.000, 0.000, 0.000, 15:36:00.672
128, -253.26, 14.12, 3.55, 3.66, 0.000, 0.000, 0.000, 15:36:00.672
129, -415.90, 1.87, 10.67, 17.92, 0.000, 0.000, 0.000, 15:36:00.672
130, 355.41, 7.22, 10.63, 12.49, 0.000, 0.000, 0.000, 15:36:00.673
131, 90.25, 12.80, 5.45, 5.77, 0.000, 0.000, 0.000, 15:36:00.694
132, -532.78, 9.38, 12.81, 12.70, 0.000, 0.000, 0.000, 15:36:00.695
133, 144.29, -3.36, 16.74, 17.87, 0.000, 0.000, 0.000, 15:36:00.695
134, 356.71, 8.41, 6.32, 12.37, 0.000, 0.000, 0.000, 15:36:00.695
135, -468.53, 9.60, 5.28, 8.28, 0.000, 0.000, 0.000, 15:36:00.717
136, -98.07, 5.71, 17.77, 18.28, 0.000, 0.000, 0.000, 15:36:00.717
137, 451.21, 8.86, 13.22, 11.78, 0.000, 0.000, 0.000, 15:36:00.717
138, -217.45, 13.14, 1.51, 6.87, 0.000, 0.000, 0.000, 15:36:00.718
139, -366.85, 3.75, 16.23, 13.52, 0.000, 0.000, 0.000, 15:36:00.718
140, 360.83, 5.06, 12.89, 14.88, 0.000, 0.000, 0.000, 15:36:00.718
141, 113.05, 13.74, 10.38, 7.82, 0.000, 0.000, 0.000, 15:36:00.739
142, -533.43, 3.02, 12.16, 11.77, 0.000, 0.000, 0.000, 15:36:00.739
143, 198.69, 5.12, 14.17, 14.87, 0.000, 0.000, 0.000, 15:36:00.740
144, 351.52, 7.79, 8.06, 12.13, 0.000, 0.000, 0.000, 15:36:00.740
145, -449.52, 11.23, 10.13, 6.92, 0.000, 0.000, 0.000, 15:36:00.762
146, -120.79, 0.50, 16.82, 15.04, 0.000, 0.000, 0.000, 15:36:00.762
147, 432.52, 9.42, 11.83, 9.95, 0.000, 0.000, 0.000, 15:36:00.762
148, -214.80, 17.41, 6.81, 7.85, 0.000, 0.000, 0.000, 15:36:00.762
149, -373.47, 2.85, 18.00, 18.19, 0.000, 0.000, 0.000, 15:36:00.784
150, 366.29, 12.72, 11.74, 17.69, 0.000, 0.000, 0.000, 15:36:00.784
151, 109.24, 8.64, 4.46, 5.46, 0.000, 0.000, 0.000, 15:36:00.785
152, -519.99, 10.12, 15.25, 14.06, 0.000, 0.000, 0.000, 15:36:00.785
153, 157.89, 2.87, 13.21, 14.53, 0.000, 0.000, 0.000, 15:36:00.807
154, 356.62, 11.98, 4.74, 9.73, 0.000, 0.000, 0.000, 15:36:00.807
155, -434.46, 13.39, 6.41, 10.61, 0.000, 0.000, 0.000, 15:36:00.808
156, -108.40, 2.87, 15.17, 18.99, 0.000, 0.000, 0.000, 15:36:00.808
157, 440.25, 8.74, 11.29, 9.85, 0.000, 0.000, 0.000, 15:36:00.808
158, -221.00, 10.42, 5.65, 3.70, 0.000, 0.000, 0.000, 15:36:00.808
159, -387.73, 3.73, 17.80, 18.28, 0.000, 0.000, 0.000, 15:36:00.829
160, 369.75, 4.16, 11.83, 9.20, 0.000, 0.000, 0.000, 15:36:00.829
161, 128.22, 12.15, 8.16, 7.47, 0.000, 0.000, 0.000, 15:36:00.830
162, -504.49, 9.83, 12.42, 12.58, 0.000, 0.000, 0.000, 15:36:00.830
163, 181.17, -0.12, 16.05, 17.17, 0.000, 0.000, 0.000, 15:36:00.852
164, 338.16, 12.02, 6.64, 9.62, 0.000, 0.000, 0.000, 15:36:00.852
165, -448.29, 13.87, 8.97, 10.74, 0.000, 0.000, 0.000, 15:36:00.852
166, -104.28, 5.62, 12.83, 17.38, 0.000, 0.000, 0.000, 15:36:00.852
167, 431.56, 10.85, 9.70, 9.29, 0.000, 0.000, 0.000, 15:36:00.874
168, -210.87, 22.26, 6.28, 4.38, 0.000, 0.000, 0.000, 15:36:00.874
169, -365.23, 1.92, 18.69, 21.05, 0.000, 0.000, 0.000, 15:36:00.875
170, 375.61, 3.95, 13.28, 10.82, 0.000, 0.000, 0.000, 15:36:00.875
171, 102.62, 12.58, 5.75, 5.99, 0.000, 0.000, 0.000, 15:36:00.897
172, -506.23, 5.61, 15.18, 16.09, 0.000, 0.000, 0.000, 15:36:00.897
173, 179.85, 5.24, 15.97, 13.79, 0.000, 0.000, 0.000, 15:36:00.897
174, 338.19, 15.10, 10.34, 13.80, 0.000, 0.000, 0.000, 15:36:00.897
175, -449.11, 14.21, 11.20, 10.97, 0.000, 0.000, 0.000, 15:36:00.898
176, -110.01, 1.36, 16.16, 18.30, 0.000, 0.000, 0.000, 15:36:00.898
177, 427.18, 8.55, 5.59, 11.24, 0.000, 0.000, 0.000, 15:36:00.919
178, -223.94, 12.17, 4.55, 5.47, 0.000, 0.000, 0.000, 15:36:00.919
179, -383.74, 1.84, 16.74, 16.17, 0.000, 0.000, 0.000, 15:36:00.920
180, 349.96, 9.69, 16.01, 10.67, 0.000, 0.000, 0.000, 15:36:00.920
181, 104.06, 9.58, 6.31, 8.45, 0.000, 0.000, 0.000, 15:36:00.942
182, -521.28, 7.41, 12.55, 11.97, 0.000, 0.000, 0.000, 15:36:00.942
183, 159.50, 6.40, 12.22, 12.62, 0.000, 0.000, 0.000, 15:36:00.942
184, 302.51, 9.63, 8.12, 12.97, 0.000, 0.000, 0.000, 15:36:00.942
185, -437.00, 10.69, 6.51, 13.07, 0.000, 0.000, 0.000, 15:36:00.964
186, -114.31, 8.85, 12.90, 18.36, 0.000, 0.000, 0.000, 15:36:00.965
187, 413.97, 4.84, 13.15, 11.35, 0.000, 0.000, 0.000, 15:36:00.965
188, -236.85, 13.81, 4.25, 7.35, 0.000, 0.000, 0.000, 15:36:00.965
189, -375.55, 6.38, 16.42, 17.66, 0.000, 0.000, 0.000, 15:36:00.987
190, 326.98, 9.58, 10.02, 12.73, 0.000, 0.000, 0.000, 15:36:00.987
191, 74.79, 11.21, 5.87, 5.46, 0.000, 0.000, 0.000, 15:36:00.988
192, -468.40, 7.53, 11.76, 10.38, 0.000, 0.000, 0.000, 15:36:00.988
193, 180.13, 7.13, 15.64, 16.10, 0.000, 0.000, 0.000, 15:36:00.988
194, 322.10, 12.82, 9.86, 13.62, 0.000, 0.000, 0.000, 15:36:00.988
195, -456.94, 13.23, 6.34, 5.57, 0.000, 0.000, 0.000, 15:36:01.009
196, -120.05, 3.37, 20.66, 18.00, 0.000, 0.000, 0.000, 15:36:01.010
197, 408.66, 6.37, 12.24, 11.06, 0.000, 0.000, 0.000, 15:36:01.010
198, -225.49, 12.88, 6.48, 7.48, 0.000, 0.000, 0.000, 15:36:01.010
199, -365.46, 3.52, 11.32, 15.69, 0.000, 0.000, 0.000, 15:36:01.032
200, 351.65, 6.25, 14.42, 11.78, 0.000, 0.000, 0.000, 15:36:01.033
0, 83.15, 14.97, 4.01, 6.20, 0.000, 0.000, 0.000, 15:36:01.033
1, -513.78, 7.50, 13.97, 15.31, 0.000, 0.000, 0.000, 15:36:01.033
2, 172.96, 3.99, 13.56, 15.94, 0.000, 0.000, 0.000, 15:36:01.034
3, 324.60, 13.96, 9.91, 6.98, 0.000, 0.000, 0.000, 15:36:01.055
4, -449.01, 8.52, 9.39, 5.95, 0.000, 0.000, 0.000, 15:36:01.055
5, -122.96, 2.24, 16.86, 17.13, 0.000, 0.000, 0.000, 15:36:01.055
6, 429.13, 8.15, 8.38, 11.77, 0.000, 0.000, 0.000, 15:36:01.055
7, -213.98, 17.23, 5.01, 5.52, 0.000, 0.000, 0.000, 15:36:01.077
8, -371.17, -0.56, 18.00, 17.39, 0.000, 0.000, 0.000, 15:36:01.077
9, 346.08, 8.01, 14.95, 14.57, 0.000, 0.000, 0.000, 15:36:01.077
10, 81.25, 14.53, 5.17, 4.44, 0.000, 0.000, 0.000, 15:36:01.077
11, -515.08, 7.62, 10.42, 11.60, 0.000, 0.000, 0.000, 15:36:01.099
12, 190.60, 10.40, 11.76, 17.65, 0.000, 0.000, 0.000, 15:36:01.100
13, 325.66, 10.22, 6.51, 7.01, 0.000, 0.000, 0.000, 15:36:01.100
14, -453.52, 12.55, 7.73, 10.37, 0.000, 0.000, 0.000, 15:36:01.100
15, -98.64, -1.23, 18.84, 17.36, 0.000, 0.000, 0.000, 15:36:01.122
16, 425.94, 9.24, 11.11, 10.67, 0.000, 0.000, 0.000, 15:36:01.122
17, -230.69, 13.44, 4.96, 3.75, 0.000, 0.000, 0.000, 15:36:01.123
18, -367.27, 3.42, 17.52, 16.47, 0.000, 0.000, 0.000, 15:36:01.123
19, 368.30, 2.22, 10.75, 13.54, 0.000, 0.000, 0.000, 15:36:01.123
20, 84.53, 9.51, 7.66, 6.74, 0.000, 0.000, 0.000, 15:36:01.123
21, -517.51, 11.26, 15.53, 11.82, 0.000, 0.000, 0.000, 15:36:01.144
22, 186.26, 0.75, 14.10, 15.24, 0.000, 0.000, 0.000, 15:36:01.144
23, 322.65, 11.11, 10.67, 10.22, 0.000, 0.000, 0.000, 15:36:01.145
24, -457.36, 11.18, 9.79, 10.81, 0.000, 0.000, 0.000, 15:36:01.145
25, -106.66, 1.67, 17.90, 20.81, 0.000, 0.000, 0.000, 15:36:01.167
26, 425.35, 8.61, 9.15, 7.61, 0.000, 0.000, 0.000, 15:36:01.167
27, -225.73, 15.71, 3.87, 8.09, 0.000, 0.000, 0.000, 15:36:01.167
28, -362.66, 1.35, 15.61, 14.42, 0.000, 0.000, 0.000, 15:36:01.168
29, 359.39, 5.64, 8.45, 11.46, 0.000, 0.000, 0.000, 15:36:01.189
30, 78.07, 16.82, 2.46, 7.81, 0.000, 0.000, 0.000, 15:36:01.190
31, -508.81, 1.19, 15.22, 13.14, 0.000, 0.000, 0.000, 15:36:01.190
32, 170.58, 5.96, 17.27, 17.05, 0.000, 0.000, 0.000, 15:36:01.190
33, 312.08, 13.21, 10.21, 11.11, 0.000, 0.000, 0.000, 15:36:01.212
34, -430.70, 9.80, 2.93, 9.17, 0.000, 0.000, 0.000, 15:36:01.212
35, -91.85, 0.79, 16.21, 18.29, 0.000, 0.000, 0.000, 15:36:01.212
36, 430.11, 9.39, 10.35, 5.34, 0.000, 0.000, 0.000, 15:36:01.212
37, -229.47, 13.85, 8.92, 7.77, 0.000, 0.000, 0.000, 15:36:01.213
38, -365.00, 0.82, 13.40, 17.41, 0.000, 0.000, 0.000, 15:36:01.213
39, 366.67, 11.80, 14.44, 12.21, 0.000, 0.000, 0.000, 15:36:01.234
40, 82.91, 10.52, 2.96, 2.06, 0.000, 0.000, 0.000, 15:36:01.235
41, -521.94, 8.98, 12.39, 11.96, 0.000, 0.000, 0.000, 15:36:01.235
42, 177.37, 4.54, 19.34, 12.01, 0.000, 0.000, 0.000, 15:36:01.235
43, 321.96, 14.26, 9.90, 9.28, 0.000, 0.000, 0.000, 15:36:01.257
44, -452.76, 10.43, 14.20, 12.08, 0.000, 0.000, 0.000, 15:36:01.257
45, -98.81, 4.95, 16.11, 17.37, 0.000, 0.000, 0.000, 15:36:01.257
46, 416.02, 5.58, 10.43, 11.61, 0.000, 0.000, 0.000, 15:36:01.258
47, -233.24, 16.89, 4.47, 8.62, 0.000, 0.000, 0.000, 15:36:01.279
48, -363.44, 8.84, 14.86, 20.41, 0.000, 0.000, 0.000, 15:36:01.279
49, 375.60, 5.50, 13.09, 16.00, 0.000, 0.000, 0.000, 15:36:01.302
50, 81.70, 15.85, 5.88, 7.89, 0.000, 0.000, 0.000, 15:36:01.302
51, -518.68, 9.09, 10.56, 15.37, 0.000, 0.000, 0.000, 15:36:01.303
52, 187.32, 1.60, 15.98, 16.87, 0.000, 0.000, 0.000, 15:36:01.303
53, 316.49, 11.23, 4.26, 10.57, 0.000, 0.000, 0.000, 15:36:01.303
54, -463.76, 11.81, 4.90, 10.46, 0.000, 0.000, 0.000, 15:36:01.304
55, -105.33, 0.86, 17.42, 17.28, 0.000, 0.000, 0.000, 15:36:01.324
56, 422.74, 6.03, 10.12, 9.79, 0.000, 0.000, 0.000, 15:36:01.324
57, -240.44, 14.73, 4.62, 4.49, 0.000, 0.000, 0.000, 15:36:01.325
58, -393.50, 4.02, 14.85, 18.05, 0.000, 0.000, 0.000, 15:36:01.325
59, 399.23, 4.97, 9.95, 15.19, 0.000, 0.000, 0.000, 15:36:01.326
60, 83.45, 12.55, 4.02, 3.82, 0.000, 0.000, 0.000, 15:36:01.326
61, -505.80, 7.07, 13.01, 12.61, 0.000, 0.000, 0.000, 15:36:01.347
62, 193.07, 4.48, 13.33, 17.20, 0.000, 0.000, 0.000, 15:36:01.347
63, 318.65, 12.24, 8.63, 8.09, 0.000, 0.000, 0.000, 15:36:01.347
64, -467.79, 9.41, 5.56, 9.17, 0.000, 0.000, 0.000, 15:36:01.347
65, -103.71, 3.13, 19.13, 15.66, 0.000, 0.000, 0.000, 15:36:01.369
66, 430.74, 11.73, 10.92, 10.13, 0.000, 0.000, 0.000, 15:36:01.370
67, -233.07, 9.69, 8.39, 7.12, 0.000, 0.000, 0.000, 15:36:01.370
68, -373.68, 0.13, 17.25, 20.14, 0.000, 0.000, 0.000, 15:36:01.370
69, 368.34, 7.72, 14.06, 16.67, 0.000, 0.000, 0.000, 15:36:01.392
70, 78.86, 15.16, 3.94, 8.13, 0.000, 0.000, 0.000, 15:36:01.393
71, -520.59, 4.49, 11.05, 15.33, 0.000, 0.000, 0.000, 15:36:01.393
72, 197.12, 4.92, 14.82, 13.29, 0.000, 0.000, 0.000, 15:36:01.393
73, 317.66, 12.70, 5.25, 7.75, 0.000, 0.000, 0.000, 15:36:01.393
74, -485.43, 8.10, 6.53, 8.88, 0.000, 0.000, 0.000, 15:36:01.393
75, -103.15, 4.57, 16.63, 15.06, 0.000, 0.000, 0.000, 15:36:01.414
76, 441.69, 6.34, 10.41, 11.26, 0.000, 0.000, 0.000, 15:36:01.415
77, -220.79, 13.58, 5.57, 6.05, 0.000, 0.000, 0.000, 15:36:01.415
78, -368.60, 0.80, 17.75, 16.86, 0.000, 0.000, 0.000, 15:36:01.415
79, 371.94, 8.96, 11.76, 10.05, 0.000, 0.000, 0.000, 15:36:01.437
80, 82.29, 14.52, 7.77, 6.49, 0.000, 0.000, 0.000, 15:36:01.437
81, -523.34, 7.60, 13.25, 16.10, 0.000, 0.000, 0.000, 15:36:01.437
82, 185.46, 2.30, 15.30, 14.15, 0.000, 0.000, 0.000, 15:36:01.438
83, 328.06, 12.74, 6.47, 7.91, 0.000, 0.000, 0.000, 15:36:01.459
84, -476.83, 17.29, 7.03, 7.11, 0.000, 0.000, 0.000, 15:36:01.459
85, -92.88, -5.07, 14.05, 20.76, 0.000, 0.000, 0.000, 15:36:01.482
86, 436.73, 13.84, 13.32, 11.10, 0.000, 0.000, 0.000, 15:36:01.482
87, -233.25, 15.28, 3.28, 6.79, 0.000, 0.000, 0.000, 15:36:01.483
88, -373.89, 6.26, 17.62, 17.89, 0.000, 0.000, 0.000, 15:36:01.483
89, 361.26, 7.27, 10.29, 14.29, 0.000, 0.000, 0.000, 15:36:01.483
90, 70.87, 13.14, 4.52, 4.81, 0.000, 0.000, 0.000, 15:36:01.484
91, -510.98, 10.17, 16.20, 11.29, 0.000, 0.000, 0.000, 15:36:01.484
92, 196.61, 2.26, 19.25, 15.42, 0.000, 0.000, 0.000, 15:36:01.484
93, 322.32, 10.25, 8.14, 12.33, 0.000, 0.000, 0.000, 15:36:01.504
94, -458.35, 12.74, 4.13, 7.45, 0.000, 0.000, 0.000, 15:36:01.505
95, -106.44, 2.93, 15.50, 18.13, 0.000, 0.000, 0.000, 15:36:01.505
96, 406.01, 8.19, 9.54, 9.53, 0.000, 0.000, 0.000, 15:36:01.505
97, -215.63, 12.96, 5.37, 7.78, 0.000, 0.000, 0.000, 15:36:01.527
98, -368.23, 6.95, 16.56, 16.70, 0.000, 0.000, 0.000, 15:36:01.528
99, 382.08, 6.68, 10.68, 15.37, 0.000, 0.000, 0.000, 15:36:01.528
100, 85.85, 12.60, 5.66, 6.11, 0.000, 0.000, 0.000, 15:36:01.528
101, -521.93, 6.46, 13.59, 13.01, 0.000, 0.000, 0.000, 15:36:01.549
102, 200.41, 6.25, 14.29, 12.97, 0.000, 0.000, 0.000, 15:36:01.549
103, 311.28, 8.95, 6.67, 9.16, 0.000, 0.000, 0.000, 15:36:01.550
104, -495.45, 13.17, 7.73, 7.55, 0.000, 0.000, 0.000, 15:36:01.550
105, -73.40, 0.59, 17.40, 16.56, 0.000, 0.000, 0.000, 15:36:01.572
106, 444.13, 9.58, 11.82, 10.36, 0.000, 0.000, 0.000, 15:36:01.572
107, -240.65, 14.55, 7.80, 6.74, 0.000, 0.000, 0.000, 15:36:01.573
108, -355.90, 4.66, 16.32, 16.83, 0.000, 0.000, 0.000, 15:36:01.573
109, 374.41, 8.61, 12.82, 12.02, 0.000, 0.000, 0.000, 15:36:01.573
110, 64.65, 11.69, 7.45, 9.97, 0.000, 0.000, 0.000, 15:36:01.574
111, -518.29, 7.96, 17.61, 14.12, 0.000, 0.000, 0.000, 15:36:01.594
112, 213.82, 0.93, 16.89, 15.28, 0.000, 0.000, 0.000, 15:36:01.594
113, 298.78, 10.27, 4.74, 10.80, 0.000, 0.000, 0.000, 15:36:01.594
114, -463.05, 12.40, 5.36, 9.09, 0.000, 0.000, 0.000, 15:36:01.595
115, -82.61, 3.66, 16.78, 16.25, 0.000, 0.000, 0.000, 15:36:01.617
116, 420.85, 8.19, 11.98, 9.38, 0.000, 0.000, 0.000, 15:36:01.617
117, -232.65, 14.89, 2.04, 6.05, 0.000, 0.000, 0.000, 15:36:01.617
118, -333.08, 2.58, 16.34, 19.51, 0.000, 0.000, 0.000, 15:36:01.617
119, 390.52, 5.49, 11.88, 15.43, 0.000, 0.000, 0.000, 15:36:01.639
120, 52.97, 20.66, 3.73, 7.71, 0.000, 0.000, 0.000, 15:36:01.639
121, -516.86, -1.05, 13.18, 12.27, 0.000, 0.000, 0.000, 15:36:01.640
122, 211.38, 3.61, 15.23, 13.55, 0.000, 0.000, 0.000, 15:36:01.640
123, 287.60, 13.17, 4.37, 8.07, 0.000, 0.000, 0.000, 15:36:01.662
124, -473.71, 13.17, 8.70, 11.14, 0.000, 0.000, 0.000, 15:36:01.662
125, -65.70, 2.57, 16.41, 19.37, 0.000, 0.000, 0.000, 15:36:01.662
126, 401.31, 10.55, 10.82, 10.14, 0.000, 0.000, 0.000, 15:36:01.663
127, -268.05, 15.00, 5.48, 5.29, 0.000, 0.000, 0.000, 15:36:01.663
128, -376.44, 0.31, 17.80, 12.94, 0.000, 0.000, 0.000, 15:36:01.663
129, 404.43, 9.17, 10.10, 11.87, 0.000, 0.000, 0.000, 15:36:01.684
130, 72.05, 11.44, 5.05, 8.69, 0.000, 0.000, 0.000, 15:36:01.685
131, -509.62, 11.33, 15.37, 13.02, 0.000, 0.000, 0.000, 15:36:01.685
132, 210.69, 1.13, 13.15, 17.52, 0.000, 0.000, 0.000, 15:36:01.685
133, 279.07, 12.95, 5.56, 9.02, 0.000, 0.000, 0.000, 15:36:01.707
134, -478.58, 10.10, 8.39, 8.04, 0.000, 0.000, 0.000, 15:36:01.707
135, -74.82, 0.74, 20.58, 17.84, 0.000, 0.000, 0.000, 15:36:01.707
136, 434.08, 5.60, 8.16, 11.23, 0.000, 0.000, 0.000, 15:36:01.707
137, -266.67, 13.85, 2.98, 2.03, 0.000, 0.000, 0.000, 15:36:01.729
138, -346.55, 6.40, 16.76, 15.40, 0.000, 0.000, 0.000, 15:36:01.730
139, 388.42, 2.95, 14.74, 14.90, 0.000, 0.000, 0.000, 15:36:01.730
140, 32.04, 17.05, 3.04, 6.80, 0.000, 0.000, 0.000, 15:36:01.730
141, -518.84, 5.08, 15.09, 11.03, 0.000, 0.000, 0.000, 15:36:01.752
142, 246.87, 2.69, 18.03, 17.40, 0.000, 0.000, 0.000, 15:36:01.752
143, 299.56, 14.28, 5.60, 5.34, 0.000, 0.000, 0.000, 15:36:01.752
144, -453.42, 12.67, 5.76, 6.53, 0.000, 0.000, 0.000, 15:36:01.752
145, -54.57, 2.58, 15.85, 14.69, 0.000, 0.000, 0.000, 15:36:01.753
146, 441.30, 9.03, 12.40, 10.08, 0.000, 0.000, 0.000, 15:36:01.753
147, -214.25, 18.33, 6.05, 4.51, 0.000, 0.000, 0.000, 15:36:01.774
148, -315.87, 3.56, 21.37, 17.06, 0.000, 0.000, 0.000, 15:36:01.775
149, 378.73, 8.38, 13.65, 14.25, 0.000, 0.000, 0.000, 15:36:01.775
150, 37.74, 12.17, 4.64, 7.16, 0.000, 0.000, 0.000, 15:36:01.775
151, -514.01, 2.69, 15.72, 17.44, 0.000, 0.000, 0.000, 15:36:01.797
152, 178.83, 2.43, 19.15, 13.95, 0.000, 0.000, 0.000, 15:36:01.797
153, 255.25, 14.37, 5.73, 8.02, 0.000, 0.000, 0.000, 15:36:01.797
154, -483.89, 11.04, 8.59, 8.57, 0.000, 0.000, 0.000, 15:36:01.797
155, -82.18, 3.03, 14.14, 16.55, 0.000, 0.000, 0.000, 15:36:01.819
156, 377.15, 12.55, 9.83, 9.95, 0.000, 0.000, 0.000, 15:36:01.820
157, -270.49, 10.63, 3.95, 11.02, 0.000, 0.000, 0.000, 15:36:01.820
158, -305.01, -0.24, 15.67, 15.90, 0.000, 0.000, 0.000, 15:36:01.820
159, 402.93, 5.24, 12.80, 14.99, 0.000, 0.000, 0.000, 15:36:01.842
160, 29.29, 14.93, 4.21, 9.35, 0.000, 0.000, 0.000, 15:36:01.842
161, -530.09, 9.11, 12.00, 19.20, 0.000, 0.000, 0.000, 15:36:01.842
162, 210.75, 5.89, 16.45, 16.35, 0.000, 0.000, 0.000, 15:36:01.842
163, 267.60, 9.50, 5.42, 6.75, 0.000, 0.000, 0.000, 15:36:01.843
164, -475.78, 11.37, 7.35, 4.75, 0.000, 0.000, 0.000, 15:36:01.843
165, -36.42, 3.79, 18.58, 18.24, 0.000, 0.000, 0.000, 15:36:01.864
166, 393.31, 4.98, 8.73, 10.26, 0.000, 0.000, 0.000, 15:36:01.864
167, -287.42, 16.86, 3.02, 8.34, 0.000, 0.000, 0.000, 15:36:01.865
168, -330.33, 5.22, 18.90, 15.22, 0.000, 0.000, 0.000, 15:36:01.865
169, 375.75, 5.23, 13.87, 18.94, 0.000, 0.000, 0.000, 15:36:01.887
170, 56.89, 13.53, 1.81, 7.35, 0.000, 0.000, 0.000, 15:36:01.887
171, -465.40, 5.81, 12.73, 10.86, 0.000, 0.000, 0.000, 15:36:01.887
172, 271.24, 0.16, 19.23, 14.05, 0.000, 0.000, 0.000, 15:36:01.887
173, 274.18, 12.72, 6.66, 9.15, 0.000, 0.000, 0.000, 15:36:01.909
174, -474.10, 16.81, 9.05, 10.66, 0.000, 0.000, 0.000, 15:36:01.909
175, -17.10, -2.33, 18.85, 17.63, 0.000, 0.000, 0.000, 15:36:01.910
176, 408.84, 10.51, 9.58, 7.72, 0.000, 0.000, 0.000, 15:36:01.910
177, -286.45, 16.04, 3.38, 7.34, 0.000, 0.000, 0.000, 15:36:01.932
178, -270.39, 3.18, 15.87, 18.40, 0.000, 0.000, 0.000, 15:36:01.932
179, 415.89, 6.64, 17.27, 15.43, 0.000, 0.000, 0.000, 15:36:01.933
180, 15.28, 15.19, 5.81, 5.26, 0.000, 0.000, 0.000, 15:36:01.933
181, -480.22, 6.40, 11.29, 12.35, 0.000, 0.000, 0.000, 15:36:01.933
182, 251.36, 4.67, 11.79, 15.36, 0.000, 0.000, 0.000, 15:36:01.933
183, 247.53, 13.69, 6.66, 14.43, 0.000, 0.000, 0.000, 15:36:01.954
184, -447.79, 10.78, 6.47, 7.00, 0.000, 0.000, 0.000, 15:36:01.954
185, 9.31, 0.73, 16.26, 16.65, 0.000, 0.000, 0.000, 15:36:01.955
186, 411.09, 10.04, 11.59, 11.33, 0.000, 0.000, 0.000, 15:36:01.955
187, -285.44, 17.53, 5.48, 8.07, 0.000, 0.000, 0.000, 15:36:01.977
188, -281.56, -2.92, 15.57, 19.25, 0.000, 0.000, 0.000, 15:36:01.977
189, 408.19, 6.31, 12.48, 9.32, 0.000, 0.000, 0.000, 15:36:01.977
190, 6.52, 16.15, 0.53, 5.08, 0.000, 0.000, 0.000, 15:36:01.977
191, -474.87, 5.31, 13.30, 11.66, 0.000, 0.000, 0.000, 15:36:01.999
192, 258.52, 14.08, 17.15, 18.63, 0.000, 0.000, 0.000, 15:36:01.999
193, 252.37, 4.62, 11.65, 10.19, 0.000, 0.000, 0.000, 15:36:02.000
194, -464.37, 14.92, 7.73, 6.72, 0.000, 0.000, 0.000, 15:36:02.000
195, -0.39, 1.86, 17.71, 17.66, 0.000, 0.000, 0.000, 15:36:02.022
196, 414.62, 6.43, 10.66, 13.47, 0.000, 0.000, 0.000, 15:36:02.023
197, -279.90, 12.27, 4.89, 8.64, 0.000, 0.000, 0.000, 15:36:02.023
198, -286.50, 4.92, 15.22, 18.13, 0.000, 0.000, 0.000, 15:36:02.023
199, 404.63, 7.42, 12.37, 13.64, 0.000, 0.000, 0.000, 15:36:02.023
200, -2.02, 17.40, 6.25, 3.82, 0.000, 0.000, 0.000, 15:36:02.023
0, -481.89, 8.68, 12.28, 15.19, 0.000, 0.000, 0.000, 15:36:02.044
1, 256.42, 4.87, 18.46, 17.08, 0.000, 0.000, 0.000, 15:36:02.045
2, 236.10, 10.09, 7.46, 4.02, 0.000, 0.000, 0.000, 15:36:02.045
3, -487.16, 8.36, 7.71, 10.16, 0.000, 0.000, 0.000, 15:36:02.067
4, -30.22, 1.88, 17.56, 15.95, 0.000, 0.000, 0.000, 15:36:02.067
5, 383.51, 6.98, 10.03, 9.16, 0.000, 0.000, 0.000, 15:36:02.067
6, -234.19, 15.50, 1.87, 2.86, 0.000, 0.000, 0.000, 15:36:02.067
7, -292.76, -0.01, 19.26, 16.49, 0.000, 0.000, 0.000, 15:36:02.068
8, 388.99, 2.89, 17.86, 15.40, 0.000, 0.000, 0.000, 15:36:02.068
9, -2.31, 15.83, 3.48, 9.03, 0.000, 0.000, 0.000, 15:36:02.089
10, -514.89, 3.33, 13.02, 11.68, 0.000, 0.000, 0.000, 15:36:02.090
11, 222.35, -0.94, 14.19, 17.84, 0.000, 0.000, 0.000, 15:36:02.090
12, 254.79, 12.90, 8.50, 9.97, 0.000, 0.000, 0.000, 15:36:02.090
13, -471.71, 14.19, 6.74, 10.12, 0.000, 0.000, 0.000, 15:36:02.112
14, -38.88, 3.17, 15.08, 17.18, 0.000, 0.000, 0.000, 15:36:02.112
15, 394.15, 9.77, 7.68, 9.27, 0.000, 0.000, 0.000, 15:36:02.113
16, -295.64, 16.14, 5.69, 8.82, 0.000, 0.000, 0.000, 15:36:02.113
17, -323.29, 2.07, 16.27, 16.15, 0.000, 0.000, 0.000, 15:36:02.134
18, 373.20, 10.73, 12.27, 11.12, 0.000, 0.000, 0.000, 15:36:02.134
19, 1.19, 10.91, 12.00, 6.91, 0.000, 0.000, 0.000, 15:36:02.135
20, -509.04, 11.06, 9.27, 19.56, 0.000, 0.000, 0.000, 15:36:02.135
21, 230.43, 5.61, 12.98, 16.64, 0.000, 0.000, 0.000, 15:36:02.157
22, 272.47, 12.58, 5.14, 13.17, 0.000, 0.000, 0.000, 15:36:02.157
23, -465.45, 9.23, 7.96, 8.67, 0.000, 0.000, 0.000, 15:36:02.157
24, -46.93, 3.96, 17.90, 14.17, 0.000, 0.000, 0.000, 15:36:02.157
25, 355.72, 8.76, 8.24, 10.40, 0.000, 0.000, 0.000, 15:36:02.158
26, -248.08, 18.46, 6.58, 5.78, 0.000, 0.000, 0.000, 15:36:02.158
27, -298.04, 3.78, 18.41, 16.29, 0.000, 0.000, 0.000, 15:36:02.180
28, 342.43, 2.34, 14.74, 13.05, 0.000, 0.000, 0.000, 15:36:02.180
29, 19.46, 13.66, 3.17, 7.17, 0.000, 0.000, 0.000, 15:36:02.180
30, -451.31, 9.10, 11.50, 11.64, 0.000, 0.000, 0.000, 15:36:02.180
31, 215.68, -0.74, 14.56, 15.59, 0.000, 0.000, 0.000, 15:36:02.202
32, 241.35, 5.47, 9.93, 12.04, 0.000, 0.000, 0.000, 15:36:02.202
33, -437.04, 12.36, 8.85, 11.18, 0.000, 0.000, 0.000, 15:36:02.202
34, -37.53, 6.40, 15.80, 19.03, 0.000, 0.000, 0.000, 15:36:02.202
35, 359.62, 8.66, 9.50, 8.47, 0.000, 0.000, 0.000, 15:36:02.224
36, -254.21, 20.60, 1.98, 7.53, 0.000, 0.000, 0.000, 15:36:02.224
37, -283.40, -0.04, 15.81, 16.53, 0.000, 0.000, 0.000, 15:36:02.225
38, 342.30, 6.94, 12.49, 11.45, 0.000, 0.000, 0.000, 15:36:02.225
39, 13.07, 11.62, 2.89, 5.62, 0.000, 0.000, 0.000, 15:36:02.247
40, -442.21, 3.38, 16.11, 12.76, 0.000, 0.000, 0.000, 15:36:02.247
41, 205.21, 5.20, 16.73, 16.70, 0.000, 0.000, 0.000, 15:36:02.247
42, 231.16, 13.45, 8.04, 8.78, 0.000, 0.000, 0.000, 15:36:02.247
43, -423.40, 15.77, 10.94, 10.13, 0.000, 0.000, 0.000, 15:36:02.248
44, -32.21, 1.20, 18.00, 15.77, 0.000, 0.000, 0.000, 15:36:02.248
45, 351.59, 10.67, 9.27, 11.24, 0.000, 0.000, 0.000, 15:36:02.269
46, -248.81, 6.35, 7.08, 10.40, 0.000, 0.000, 0.000, 15:36:02.270
47, -281.80, 1.86, 13.59, 16.83, 0.000, 0.000, 0.000, 15:36:02.270
48, 338.03, 8.30, 12.89, 10.57, 0.000, 0.000, 0.000, 15:36:02.270
49, 14.11, 14.73, 4.87, 8.53, 0.000, 0.000, 0.000, 15:36:02.292
50, -440.07, 2.78, 11.73, 12.75, 0.000, 0.000, 0.000, 15:36:02.292
51, 200.57, 5.35, 14.45, 12.62, 0.000, 0.000, 0.000, 15:36:02.292
52, 229.78, 13.25, 11.60, 11.48, 0.000, 0.000, 0.000, 15:36:02.292
53, -424.71, 12.65, 8.69, 11.72, 0.000, 0.000, 0.000, 15:36:02.314
54, -37.03, 10.92, 14.34, 14.71, 0.000, 0.000, 0.000, 15:36:02.314
55, 345.44, 5.72, 8.17, 9.90, 0.000, 0.000, 0.000, 15:36:02.315
56, -247.30, 13.79, 3.47, 1.90, 0.000, 0.000, 0.000, 15:36:02.315
57, -281.59, 0.88, 20.57, 15.08, 0.000, 0.000, 0.000, 15:36:02.337
58, 334.52, 4.04, 11.40, 14.47, 0.000, 0.000, 0.000, 15:36:02.337
59, 17.45, 13.06, 2.32, 10.22, 0.000, 0.000, 0.000, 15:36:02.337
60, -445.25, 6.05, 13.39, 16.54, 0.000, 0.000, 0.000, 15:36:02.337
61, 197.67, 5.31, 14.88, 12.93, 0.000, 0.000, 0.000, 15:36:02.338
62, 237.61, 8.50, 6.11, 10.08, 0.000, 0.000, 0.000, 15:36:02.338
63, -424.19, 10.88, 10.47, 6.60, 0.000, 0.000, 0.000, 15:36:02.359
64, -47.42, -0.30, 16.34, 17.76, 0.000, 0.000, 0.000, 15:36:02.360
65, 355.37, 8.61, 11.66, 12.57, 0.000, 0.000, 0.000, 15:36:02.360
66, -247.13, 13.00, 7.60, 10.04, 0.000, 0.000, 0.000, 15:36:02.360
67, -292.05, 1.46, 18.35, 15.97, 0.000, 0.000, 0.000, 15:36:02.382
68, 328.99, 7.98, 11.83, 15.95, 0.000, 0.000, 0.000, 15:36:02.382
69, 5.62, 14.11, 4.67, 8.13, 0.000, 0.000, 0.000, 15:36:02.382
70, -461.82, 4.13, 14.29, 15.95, 0.000, 0.000, 0.000, 15:36:02.382
71, 209.17, 4.70, 11.47, 18.05, 0.000, 0.000, 0.000, 15:36:02.404
72, 232.09, 19.27, 7.02, 8.15, 0.000, 0.000, 0.000, 15:36:02.404
73, -419.04, 4.86, 10.34, 8.48, 0.000, 0.000, 0.000, 15:36:02.405
74, -33.73, 4.67, 16.50, 17.04, 0.000, 0.000, 0.000, 15:36:02.405
75, 351.16, 11.73, 9.35, 16.12, 0.000, 0.000, 0.000, 15:36:02.427
76, -238.36, 14.44, 4.59, 5.22, 0.000, 0.000, 0.000, 15:36:02.428
77, -286.21, 3.38, 15.83, 16.10, 0.000, 0.000, 0.000, 15:36:02.428
78, 331.10, 9.25, 12.06, 12.78, 0.000, 0.000, 0.000, 15:36:02.428
79, 19.01, 13.26, 6.88, 9.76, 0.000, 0.000, 0.000, 15:36:02.429
80, -441.45, 7.61, 11.87, 11.36, 0.000, 0.000, 0.000, 15:36:02.429
81, 188.81, 7.67, 13.59, 14.04, 0.000, 0.000, 0.000, 15:36:02.449
82, 238.33, 8.71, 6.18, 6.01, 0.000, 0.000, 0.000, 15:36:02.449
83, -418.60, 10.48, 6.27, 10.58, 0.000, 0.000, 0.000, 15:36:02.450
84, -39.80, 1.56, 17.11, 15.10, 0.000, 0.000, 0.000, 15:36:02.450
85, 344.28, 8.64, 13.11, 7.91, 0.000, 0.000, 0.000, 15:36:02.472
86, -248.43, 12.50, 4.17, 4.37, 0.000, 0.000, 0.000, 15:36:02.472
87, -299.30, 3.64, 15.69, 15.92, 0.000, 0.000, 0.000, 15:36:02.473
88, 324.55, 10.58, 10.81, 13.38, 0.000, 0.000, 0.000, 15:36:02.473
89, 10.37, 12.74, 8.41, 4.43, 0.000, 0.000, 0.000, 15:36:02.494
90, -441.23, 11.91, 12.34, 13.54, 0.000, 0.000, 0.000, 15:36:02.494
91, 213.17, -1.52, 11.87, 14.78, 0.000, 0.000, 0.000, 15:36:02.495
92, 232.85, 13.76, 9.87, 6.88, 0.000, 0.000, 0.000, 15:36:02.495
93, -410.41, 10.43, 10.77, 11.24, 0.000, 0.000, 0.000, 15:36:02.517
94, -22.51, 4.62, 19.37, 17.79, 0.000, 0.000, 0.000, 15:36:02.517
95, 337.23, 9.90, 11.55, 13.77, 0.000, 0.000, 0.000, 15:36:02.518
96, -257.71, 12.00, 5.78, 9.86, 0.000, 0.000, 0.000, 15:36:02.518
97, -256.18, 3.37, 14.01, 15.73, 0.000, 0.000, 0.000, 15:36:02.518
98, 330.51, 7.49, 13.39, 17.52, 0.000, 0.000, 0.000, 15:36:02.519
99, -2.19, 13.63, 8.71, 12.45, 0.000, 0.000, 0.000, 15:36:02.539
100, -413.01, 3.29, 12.48, 11.15, 0.000, 0.000, 0.000, 15:36:02.539
101, 207.74, 12.17, 16.54, 15.26, 0.000, 0.000, 0.000, 15:36:02.540
102, 209.56, 12.81, 10.05, 9.66, 0.000, 0.000, 0.000, 15:36:02.540
103, -414.62, 9.60, 7.87, 13.17, 0.000, 0.000, 0.000, 15:36:02.562
104, -13.16, 3.78, 17.42, 16.90, 0.000, 0.000, 0.000, 15:36:02.562
105, 324.37, 8.94, 11.03, 13.12, 0.000, 0.000, 0.000, 15:36:02.584
106, -254.98, 15.44, 9.27, 8.30, 0.000, 0.000, 0.000, 15:36:02.585
107, -246.87, 3.95, 15.37, 19.24, 0.000, 0.000, 0.000, 15:36:02.585
108, 318.41, 1.38, 13.57, 15.29, 0.000, 0.000, 0.000, 15:36:02.586
109, -6.24, 16.13, 6.61, 4.17, 0.000, 0.000, 0.000, 15:36:02.586
110, -395.80, 5.46, 13.66, 11.71, 0.000, 0.000, 0.000, 15:36:02.586
111, 210.72, 1.85, 12.41, 12.96, 0.000, 0.000, 0.000, 15:36:02.607
112, 196.73, 9.56, 5.35, 8.37, 0.000, 0.000, 0.000, 15:36:02.607
113, -403.81, 8.32, 6.92, 11.10, 0.000, 0.000, 0.000, 15:36:02.607
114, -12.66, 6.69, 16.22, 14.24, 0.000, 0.000, 0.000, 15:36:02.607
115, 319.85, 7.83, 9.82, 6.72, 0.000, 0.000, 0.000, 15:36:02.608
116, -246.79, 13.94, 4.19, 5.48, 0.000, 0.000, 0.000, 15:36:02.608
117, -253.49, 7.41, 16.60, 15.46, 0.000, 0.000, 0.000, 15:36:02.629
118, 319.27, 1.96, 12.21, 11.00, 0.000, 0.000, 0.000, 15:36:02.630
119, -9.76, 12.41, 4.01, 6.64, 0.000, 0.000, 0.000, 15:36:02.630
120, -423.71, 5.05, 14.04, 12.30, 0.000, 0.000, 0.000, 15:36:02.630
121, 201.76, 4.99, 13.76, 12.27, 0.000, 0.000, 0.000, 15:36:02.652
122, 204.54, 8.90, 8.14, 7.36, 0.000, 0.000, 0.000, 15:36:02.652
123, -412.70, 12.48, 5.34, 15.34, 0.000, 0.000, 0.000, 15:36:02.652
124, -28.44, 3.11, 16.72, 15.37, 0.000, 0.000, 0.000, 15:36:02.652
125, 302.97, 9.05, 11.55, 11.40, 0.000, 0.000, 0.000, 15:36:02.674
126, -246.67, 17.86, 5.07, 8.00, 0.000, 0.000, 0.000, 15:36:02.674
127, -266.63, -2.89, 18.26, 14.52, 0.000, 0.000, 0.000, 15:36:02.675
128, 313.25, 8.50, 11.83, 11.58, 0.000, 0.000, 0.000, 15:36:02.675
129, 20.79, 11.86, 10.22, 7.41, 0.000, 0.000, 0.000, 15:36:02.697
130, -418.69, 9.95, 13.03, 13.91, 0.000, 0.000, 0.000, 15:36:02.697
131, 201.01, 6.32, 10.65, 16.87, 0.000, 0.000, 0.000, 15:36:02.697
132, 214.11, 12.26, 5.71, 12.51, 0.000, 0.000, 0.000, 15:36:02.698
133, -408.80, 7.81, 10.66, 10.72, 0.000, 0.000, 0.000, 15:36:02.698
134, -30.85, 0.37, 17.61, 14.11, 0.000, 0.000, 0.000, 15:36:02.698
135, 327.25, 15.76, 11.50, 9.41, 0.000, 0.000, 0.000, 15:36:02.719
136, -253.50, 13.61, 8.44, 5.91, 0.000, 0.000, 0.000, 15:36:02.720
137, -261.17, 4.19, 16.44, 16.14, 0.000, 0.000, 0.000, 15:36:02.720
138, 327.92, 3.58, 12.98, 10.88, 0.000, 0.000, 0.000, 15:36:02.720
139, 17.66, 11.40, 4.49, 8.55, 0.000, 0.000, 0.000, 15:36:02.742
140, -409.54, 5.68, 14.18, 14.76, 0.000, 0.000, 0.000, 15:36:02.742
141, 210.50, 4.16, 14.65, 14.53, 0.000, 0.000, 0.000, 15:36:02.742
142, 237.92, 10.42, 11.34, 10.51, 0.000, 0.000, 0.000, 15:36:02.742
143, -385.28, 9.83, 4.88, 9.03, 0.000, 0.000, 0.000, 15:36:02.764
144, -19.20, 5.88, 13.21, 17.61, 0.000, 0.000, 0.000, 15:36:02.765
145, 324.25, 2.76, 8.99, 9.59, 0.000, 0.000, 0.000, 15:36:02.765
146, -257.67, 14.58, 5.18, 6.24, 0.000, 0.000, 0.000, 15:36:02.765
147, -288.28, 4.71, 16.99, 13.62, 0.000, 0.000, 0.000, 15:36:02.787
148, 294.02, 9.73, 11.33, 17.03, 0.000, 0.000, 0.000, 15:36:02.787
149, -18.79, 11.79, 5.32, 10.57, 0.000, 0.000, 0.000, 15:36:02.788
150, -427.08, 10.10, 13.53, 12.95, 0.000, 0.000, 0.000, 15:36:02.788
151, 189.04, 4.96, 15.74, 16.03, 0.000, 0.000, 0.000, 15:36:02.788
152, 206.06, 10.00, 5.15, 9.95, 0.000, 0.000, 0.000, 15:36:02.788
153, -417.05, 14.92, 6.46, 4.21, 0.000, 0.000, 0.000, 15:36:02.809
154, -32.59, 3.54, 14.49, 14.93, 0.000, 0.000, 0.000, 15:36:02.809
155, 341.56, 8.55, 10.96, 12.66, 0.000, 0.000, 0.000, 15:36:02.810
156, -236.55, 17.06, 3.98, 8.17, 0.000, 0.000, 0.000, 15:36:02.810
157, -260.04, 1.80, 15.42, 18.39, 0.000, 0.000, 0.000, 15:36:02.832
158, 322.63, 2.05, 14.29, 16.35, 0.000, 0.000, 0.000, 15:36:02.832
159, 1.08, 15.82, 7.97, 10.54, 0.000, 0.000, 0.000, 15:36:02.832
160, -415.36, 9.22, 12.10, 6.08, 0.000, 0.000, 0.000, 15:36:02.832
161, 207.95, 9.93, 12.78, 14.84, 0.000, 0.000, 0.000, 15:36:02.854
162, 221.38, 15.88, 6.50, 10.45, 0.000, 0.000, 0.000, 15:36:02.854
163, -399.60, 8.45, 9.78, 13.80, 0.000, 0.000, 0.000, 15:36:02.855
164, -23.89, 1.65, 16.47, 21.87, 0.000, 0.000, 0.000, 15:36:02.855
165, 320.07, 7.73, 7.82, 14.16, 0.000, 0.000, 0.000, 15:36:02.877
166, -249.47, 8.41, 9.16, 11.93, 0.000, 0.000, 0.000, 15:36:02.877
167, -241.68, 4.39, 16.24, 18.39, 0.000, 0.000, 0.000, 15:36:02.878
168, 332.71, 10.05, 11.30, 12.02, 0.000, 0.000, 0.000, 15:36:02.878
169, 6.52, 9.90, 3.44, 1.83, 0.000, 0.000, 0.000, 15:36:02.878
170, -407.91, 7.61, 14.22, 10.99, 0.000, 0.000, 0.000, 15:36:02.878
171, 204.49, 8.09, 13.08, 12.82, 0.000, 0.000, 0.000, 15:36:02.899
172, 209.67, 4.24, 8.16, 10.01, 0.000, 0.000, 0.000, 15:36:02.899
173, -394.24, 12.49, 7.52, 12.60, 0.000, 0.000, 0.000, 15:36:02.900
174, -18.46, 1.23, 14.59, 14.14, 0.000, 0.000, 0.000, 15:36:02.900
175, 324.15, 9.83, 9.76, 11.34, 0.000, 0.000, 0.000, 15:36:02.922
176, -244.22, 12.83, 6.86, 7.14, 0.000, 0.000, 0.000, 15:36:02.922
177, -252.05, 7.00, 16.52, 17.06, 0.000, 0.000, 0.000, 15:36:02.922
178, 317.98, 7.81, 12.41, 15.47, 0.000, 0.000, 0.000, 15:36:02.922
179, -0.10, 11.26, 7.57, 10.08, 0.000, 0.000, 0.000, 15:36:02.945
180, -405.75, 10.17, 13.07, 11.07, 0.000, 0.000, 0.000, 15:36:02.945
181, 208.83, -0.10, 14.51, 14.16, 0.000, 0.000, 0.000, 15:36:02.946
182, 204.09, 12.46, 8.00, 8.33, 0.000, 0.000, 0.000, 15:36:02.946
183, -396.99, 9.87, 8.34, 9.79, 0.000, 0.000, 0.000, 15:36:02.967
184, -13.17, 3.01, 16.16, 18.21, 0.000, 0.000, 0.000, 15:36:02.968
185, 328.58, 6.10, 9.53, 12.55, 0.000, 0.000, 0.000, 15:36:02.968
186, -238.61, 15.40, 5.74, 5.09, 0.000, 0.000, 0.000, 15:36:02.968
187, -244.85, 5.78, 16.20, 18.21, 0.000, 0.000, 0.000, 15:36:02.968
188, 322.17, 8.55, 11.29, 9.20, 0.000, 0.000, 0.000, 15:36:02.969
189, 2.22, 17.98, 7.48, 6.38, 0.000, 0.000, 0.000, 15:36:02.989
190, -405.08, 3.69, 12.32, 11.23, 0.000, 0.000, 0.000, 15:36:02.989
191, 208.08, 0.76, 16.59, 15.12, 0.000, 0.000, 0.000, 15:36:02.990
192, 215.46, 7.58, 7.96, 9.53, 0.000, 0.000, 0.000, 15:36:02.990
193, -397.07, 13.93, 5.55, 8.15, 0.000, 0.000, 0.000, 15:36:03.012
194, -15.37, 1.43, 18.39, 20.25, 0.000, 0.000, 0.000, 15:36:03.012
195, 325.58, 8.16, 11.55, 9.48, 0.000, 0.000, 0.000, 15:36:03.012
196, -243.74, 13.56, 7.92, 8.52, 0.000, 0.000, 0.000, 15:36:03.013
197, -253.87, 1.68, 16.46, 13.09, 0.000, 0.000, 0.000, 15:36:03.034
198, 308.15, 12.58, 9.94, 8.25, 0.000, 0.000, 0.000, 15:36:03.035
199, -4.86, 8.23, 4.87, 7.80, 0.000, 0.000, 0.000, 15:36:03.035
200, -404.32, 6.81, 13.26, 13.63, 0.000, 0.000, 0.000, 15:36:03.035
0, 194.33, 5.19, 12.42, 16.86, 0.000, 0.000, 0.000, 15:36:03.035
1, 202.38, 13.27, 5.40, 9.30, 0.000, 0.000, 0.000, 15:36:03.057
2, -407.46, 12.00, 7.59, 8.34, 0.000, 0.000, 0.000, 15:36:03.057
3, -33.59, 5.13, 17.61, 15.94, 0.000, 0.000, 0.000, 15:36:03.057
4, 312.29, 5.53, 12.08, 10.30, 0.000, 0.000, 0.000, 15:36:03.057
5, -254.53, 10.84, 4.87, 10.23, 0.000, 0.000, 0.000, 15:36:03.079
6, -263.96, 7.53, 15.73, 16.50, 0.000, 0.000, 0.000, 15:36:03.080
7, 313.74, 2.49, 10.86, 16.72, 0.000, 0.000, 0.000, 15:36:03.080
8, -1.01, 13.96, 8.74, 8.87, 0.000, 0.000, 0.000, 15:36:03.081
9, -427.09, 8.04, 15.21, 15.09, 0.000, 0.000, 0.000, 15:36:03.110
10, 191.47, 5.83, 16.18, 11.33, 0.000, 0.000, 0.000, 15:36:03.110
11, 203.48, 9.35, 8.03, 12.41, 0.000, 0.000, 0.000, 15:36:03.110
12, -406.96, 14.31, 7.83, 11.40, 0.000, 0.000, 0.000, 15:36:03.111
13, -32.82, 4.90, 15.95, 16.49, 0.000, 0.000, 0.000, 15:36:03.111
14, 310.88, 11.77, 9.74, 10.90, 0.000, 0.000, 0.000, 15:36:03.111
15, -246.25, 11.23, 8.94, 9.89, 0.000, 0.000, 0.000, 15:36:03.125
16, -257.28, 1.21, 19.50, 14.55, 0.000, 0.000, 0.000, 15:36:03.125
17, 310.82, 8.76, 12.79, 15.16, 0.000, 0.000, 0.000, 15:36:03.125
18, 6.60, 13.91, 8.63, 11.46, 0.000, 0.000, 0.000, 15:36:03.126
19, -413.32, 8.34, 12.95, 12.44, 0.000, 0.000, 0.000, 15:36:03.149
20, 194.84, 6.00, 12.50, 12.66, 0.000, 0.000, 0.000, 15:36:03.150
21, 204.22, 12.61, 8.78, 8.42, 0.000, 0.000, 0.000, 15:36:03.150
22, -407.23, 12.28, 8.32, 5.22, 0.000, 0.000, 0.000, 15:36:03.150
23, -25.44, 6.14, 14.69, 12.86, 0.000, 0.000, 0.000, 15:36:03.169
24, 321.75, 12.13, 10.53, 12.04, 0.000, 0.000, 0.000, 15:36:03.169
25, -247.31, 3.74, 7.21, 12.66, 0.000, 0.000, 0.000, 15:36:03.170
26, -254.69, 6.01, 15.17, 20.02, 0.000, 0.000, 0.000, 15:36:03.170
27, 314.52, 5.48, 12.92, 14.07, 0.000, 0.000, 0.000, 15:36:03.192
28, 1.89, 13.91, 5.90, 8.08, 0.000, 0.000, 0.000, 15:36:03.192
29, -415.83, 0.49, 13.82, 8.34, 0.000, 0.000, 0.000, 15:36:03.192
30, 193.29, 4.67, 10.28, 14.90, 0.000, 0.000, 0.000, 15:36:03.192
31, 210.24, 6.28, 7.21, 4.72, 0.000, 0.000, 0.000, 15:36:03.193
32, -407.74, 9.73, 11.43, 6.90, 0.000, 0.000, 0.000, 15:36:03.193
33, -40.73, 6.36, 17.84, 17.65, 0.000, 0.000, 0.000, 15:36:03.214
34, 334.95, 6.53, 11.01, 10.83, 0.000, 0.000, 0.000, 15:36:03.214
35, -232.35, 10.28, 5.61, 11.06, 0.000, 0.000, 0.000, 15:36:03.215
36, -260.29, 6.12, 12.71, 14.85, 0.000, 0.000, 0.000, 15:36:03.215
37, 319.25, 9.23, 13.29, 17.06, 0.000, 0.000, 0.000, 15:36:03.237
38, -2.81, 9.00, 5.22, 9.99, 0.000, 0.000, 0.000, 15:36:03.237
39, -416.07, 6.23, 12.83, 9.76, 0.000, 0.000, 0.000, 15:36:03.237
40, 196.40, 5.43, 12.10, 14.16, 0.000, 0.000, 0.000, 15:36:03.237
41, 203.19, 14.13, 8.09, 8.74, 0.000, 0.000, 0.000, 15:36:03.259
42, -408.29, 16.17, 11.34, 7.86, 0.000, 0.000, 0.000, 15:36:03.260
43, -23.42, -1.88, 16.36, 20.88, 0.000, 0.000, 0.000, 15:36:03.260
44, 328.88, 10.19, 9.25, 8.95, 0.000, 0.000, 0.000, 15:36:03.260
45, -242.49, 10.53, 8.14, 6.10, 0.000, 0.000, 0.000, 15:36:03.282
46, -266.57, 8.16, 14.08, 15.40, 0.000, 0.000, 0.000, 15:36:03.282
47, 317.94, 4.52, 11.71, 12.80, 0.000, 0.000, 0.000, 15:36:03.282
48, -2.93, 14.49, 6.56, 6.18, 0.000, 0.000, 0.000, 15:36:03.282
49, -433.33, 8.78, 15.92, 10.20, 0.000, 0.000, 0.000, 15:36:03.283
50, 201.07, 4.01, 16.03, 13.91, 0.000, 0.000, 0.000, 15:36:03.283
51, 222.95, 13.25, 8.44, 9.70, 0.000, 0.000, 0.000, 15:36:03.304
52, -402.37, 10.05, 6.48, 10.60, 0.000, 0.000, 0.000, 15:36:03.304
53, -32.20, 3.29, 14.85, 17.68, 0.000, 0.000, 0.000, 15:36:03.305
54, 325.67, 8.36, 10.68, 7.93, 0.000, 0.000, 0.000, 15:36:03.305
55, -243.23, 15.55, 1.08, 7.15, 0.000, 0.000, 0.000, 15:36:03.327
56, -269.96, 1.41, 15.25, 18.35, 0.000, 0.000, 0.000, 15:36:03.327
57, 319.43, 7.27, 12.30, 13.28, 0.000, 0.000, 0.000, 15:36:03.327
58, 12.73, 13.86, 6.28, 4.57, 0.000, 0.000, 0.000, 15:36:03.328
59, -427.12, 7.68, 11.37, 17.93, 0.000, 0.000, 0.000, 15:36:03.349
60, 198.40, 11.72, 12.05, 9.67, 0.000, 0.000, 0.000, 15:36:03.349
61, 217.12, 6.79, 11.76, 12.82, 0.000, 0.000, 0.000, 15:36:03.350
62, -405.59, 11.16, 5.39, 7.82, 0.000, 0.000, 0.000, 15:36:03.350
63, -35.85, 4.96, 18.11, 16.50, 0.000, 0.000, 0.000, 15:36:03.372
64, 323.11, 7.07, 11.63, 12.57, 0.000, 0.000, 0.000, 15:36:03.372
65, -234.15, 12.90, 5.79, 7.90, 0.000, 0.000, 0.000, 15:36:03.372
66, -261.25, 6.71, 19.40, 18.85, 0.000, 0.000, 0.000, 15:36:03.372
67, 321.84, 6.36, 13.94, 13.15, 0.000, 0.000, 0.000, 15:36:03.373
68, 9.75, 16.38, 4.07, 7.36, 0.000, 0.000, 0.000, 15:36:03.373
69, -425.51, 10.48, 16.94, 14.05, 0.000, 0.000, 0.000, 15:36:03.394
70, 190.73, 0.76, 13.13, 18.36, 0.000, 0.000, 0.000, 15:36:03.394
71, 214.08, 8.56, 4.96, 7.20, 0.000, 0.000, 0.000, 15:36:03.395
72, -414.78, 14.15, 6.01, 11.93, 0.000, 0.000, 0.000, 15:36:03.395
73, -34.17, 3.66, 15.29, 16.58, 0.000, 0.000, 0.000, 15:36:03.417
74, 340.20, 5.37, 6.89, 13.52, 0.000, 0.000, 0.000, 15:36:03.417
75, -238.83, 16.12, 5.62, 2.83, 0.000, 0.000, 0.000, 15:36:03.417
76, -268.91, 1.82, 18.30, 16.07, 0.000, 0.000, 0.000, 15:36:03.417
77, 320.66, 4.59, 13.08, 14.51, 0.000, 0.000, 0.000, 15:36:03.439
78, 11.46, 17.09, 5.83, 8.85, 0.000, 0.000, 0.000, 15:36:03.439
79, -424.39, 0.10, 16.28, 13.92, 0.000, 0.000, 0.000, 15:36:03.439
80, 189.28, 3.58, 15.95, 17.92, 0.000, 0.000, 0.000, 15:36:03.440
81, 213.64, 10.83, 11.89, 8.15, 0.000, 0.000, 0.000, 15:36:03.462
82, -394.94, 14.36, 9.12, 10.68, 0.000, 0.000, 0.000, 15:36:03.462
83, -28.06, 2.58, 18.41, 18.69, 0.000, 0.000, 0.000, 15:36:03.462
84, 343.53, 10.41, 7.98, 12.21, 0.000, 0.000, 0.000, 15:36:03.462
85, -238.86, 13.21, 4.66, 6.76, 0.000, 0.000, 0.000, 15:36:03.463
86, -275.37, 6.32, 15.68, 16.13, 0.000, 0.000, 0.000, 15:36:03.463
87, 317.37, 8.28, 13.75, 12.54, 0.000, 0.000, 0.000, 15:36:03.484
88, 17.73, 10.90, 7.23, 8.55, 0.000, 0.000, 0.000, 15:36:03.484
89, -424.60, 6.41, 12.51, 12.49, 0.000, 0.000, 0.000, 15:36:03.485
90, 198.14, 2.22, 12.76, 15.33, 0.000, 0.000, 0.000, 15:36:03.485
91, 223.45, 12.42, 5.56, 7.38, 0.000, 0.000, 0.000, 15:36:03.507
92, -401.19, 11.76, 5.65, 5.71, 0.000, 0.000, 0.000, 15:36:03.507
93, -31.15, 0.85, 18.10, 13.84, 0.000, 0.000, 0.000, 15:36:03.507
94, 336.65, 10.86, 8.85, 12.04, 0.000, 0.000, 0.000, 15:36:03.507
95, -238.70, 16.77, 3.61, 8.50, 0.000, 0.000, 0.000, 15:36:03.529
96, -272.39, 8.01, 12.91, 12.98, 0.000, 0.000, 0.000, 15:36:03.529
97, 329.75, 4.00, 13.71, 12.03, 0.000, 0.000, 0.000, 15:36:03.530
98, 23.87, 15.12, 3.75, 6.36, 0.000, 0.000, 0.000, 15:36:03.530
99, -424.92, 10.42, 13.74, 17.15, 0.000, 0.000, 0.000, 15:36:03.554
100, 194.70, 6.23, 15.06, 17.61, 0.000, 0.000, 0.000, 15:36:03.554
101, 221.11, 6.93, 10.71, 11.70, 0.000, 0.000, 0.000, 15:36:03.554
102, -410.16, 12.22, 6.09, 9.04, 0.000, 0.000, 0.000, 15:36:03.554
103, -50.44, 3.57, 17.26, 17.52, 0.000, 0.000, 0.000, 15:36:03.554
104, 333.32, 7.94, 13.56, 9.13, 0.000, 0.000, 0.000, 15:36:03.554
105, -228.56, 16.26, 8.06, 8.63, 0.000, 0.000, 0.000, 15:36:03.574
106, -272.55, -1.25, 19.54, 15.00, 0.000, 0.000, 0.000, 15:36:03.574
107, 320.68, 6.27, 12.55, 13.82, 0.000, 0.000, 0.000, 15:36:03.575
108, 12.03, 13.30, 8.50, 6.50, 0.000, 0.000, 0.000, 15:36:03.575
109, -430.44, 2.48, 10.42, 11.01, 0.000, 0.000, 0.000, 15:36:03.597
110, 189.37, 7.74, 11.93, 13.94, 0.000, 0.000, 0.000, 15:36:03.597
111, 214.34, 10.40, 8.80, 13.50, 0.000, 0.000, 0.000, 15:36:03.597
112, -416.71, 12.08, 5.71, 8.33, 0.000, 0.000, 0.000, 15:36:03.597
113, -34.71, 4.79, 14.38, 22.77, 0.000, 0.000, 0.000, 15:36:03.619
114, 335.66, 12.74, 12.69, 14.35, 0.000, 0.000, 0.000, 15:36:03.620
115, -237.81, 5.73, 4.90, 6.41, 0.000, 0.000, 0.000, 15:36:03.620
116, -272.45, 0.21, 16.85, 16.20, 0.000, 0.000, 0.000, 15:36:03.620
117, 319.56, 5.85, 8.69, 14.28, 0.000, 0.000, 0.000, 15:36:03.642
118, 12.69, 15.44, 7.77, 7.46, 0.000, 0.000, 0.000, 15:36:03.642
119, -423.60, 4.79, 15.38, 12.09, 0.000, 0.000, 0.000, 15:36:03.643
120, 185.45, 4.11, 13.47, 11.31, 0.000, 0.000, 0.000, 15:36:03.643
121, 210.44, 11.89, 7.00, 6.21, 0.000, 0.000, 0.000, 15:36:03.643
122, -400.23, 12.08, 9.58, 8.38, 0.000, 0.000, 0.000, 15:36:03.643
123, -27.78, 5.90, 17.50, 15.69, 0.000, 0.000, 0.000, 15:36:03.664
124, 337.61, 9.16, 11.09, 11.92, 0.000, 0.000, 0.000, 15:36:03.664
125, -229.37, 13.08, 6.65, 9.32, 0.000, 0.000, 0.000, 15:36:03.665
126, -253.94, 3.39, 17.55, 15.85, 0.000, 0.000, 0.000, 15:36:03.665
127, 347.45, 5.73, 11.28, 14.73, 0.000, 0.000, 0.000, 15:36:03.687
128, 47.75, 11.04, 3.06, 9.05, 0.000, 0.000, 0.000, 15:36:03.687
129, -385.62, 5.59, 13.06, 12.04, 0.000, 0.000, 0.000, 15:36:03.687
130, 201.81, 7.23, 13.81, 15.50, 0.000, 0.000, 0.000, 15:36:03.687
131, 213.97, 12.24, 8.57, 6.23, 0.000, 0.000, 0.000, 15:36:03.709
132, -428.02, 13.70, 10.73, 12.53, 0.000, 0.000, 0.000, 15:36:03.709
133, -61.81, -1.19, 16.30, 14.61, 0.000, 0.000, 0.000, 15:36:03.710
134, 311.60, 6.78, 10.81, 12.47, 0.000, 0.000, 0.000, 15:36:03.710
135, -259.37, 11.09, 4.70, 5.95, 0.000, 0.000, 0.000, 15:36:03.732
136, -300.41, 6.42, 15.94, 12.21, 0.000, 0.000, 0.000, 15:36:03.733
137, 297.70, 7.05, 9.18, 13.40, 0.000, 0.000, 0.000, 15:36:03.733
138, 3.09, 13.49, 3.58, 7.65, 0.000, 0.000, 0.000, 15:36:03.734
139, -428.33, 13.71, 14.15, 16.38, 0.000, 0.000, 0.000, 15:36:03.734
140, 207.53, 5.85, 14.54, 13.96, 0.000, 0.000, 0.000, 15:36:03.734
141, 222.07, 9.06, 7.94, 8.70, 0.000, 0.000, 0.000, 15:36:03.754
142, -406.15, 9.03, 8.92, 10.31, 0.000, 0.000, 0.000, 15:36:03.754
143, -25.91, 9.24, 17.05, 16.34, 0.000, 0.000, 0.000, 15:36:03.755
144, 345.85, 10.47, 11.33, 9.55, 0.000, 0.000, 0.000, 15:36:03.755
145, -228.75, 14.04, 4.14, 12.05, 0.000, 0.000, 0.000, 15:36:03.777
146, -269.04, 3.35, 18.34, 19.22, 0.000, 0.000, 0.000, 15:36:03.777
147, 323.58, 8.23, 13.21, 11.53, 0.000, 0.000, 0.000, 15:36:03.777
148, 20.70, 11.20, 3.97, 9.64, 0.000, 0.000, 0.000, 15:36:03.778
149, -426.39, 10.76, 13.67, 14.04, 0.000, 0.000, 0.000, 15:36:03.799
150, 195.30, 12.10, 14.30, 11.44, 0.000, 0.000, 0.000, 15:36:03.799
151, 225.80, 3.04, 9.80, 10.26, 0.000, 0.000, 0.000, 15:36:03.800
152, -404.25, 13.96, 7.80, 10.02, 0.000, 0.000, 0.000, 15:36:03.800
153, -31.06, 5.36, 16.35, 15.89, 0.000, 0.000, 0.000, 15:36:03.822
154, 342.34, 9.87, 9.77, 14.29, 0.000, 0.000, 0.000, 15:36:03.822
155, -230.60, 11.83, 6.99, 8.27, 0.000, 0.000, 0.000, 15:36:03.822
156, -279.23, 2.82, 14.34, 15.91, 0.000, 0.000, 0.000, 15:36:03.822
157, 317.16, 7.63, 13.57, 15.25, 0.000, 0.000, 0.000, 15:36:03.823
158, 22.64, 10.99, 4.25, 7.99, 0.000, 0.000, 0.000, 15:36:03.823
159, -410.81, 7.63, 14.82, 12.06, 0.000, 0.000, 0.000, 15:36:03.844
160, 200.24, 3.19, 15.19, 14.43, 0.000, 0.000, 0.000, 15:36:03.844
161, 228.78, 8.08, 5.84, 9.91, 0.000, 0.000, 0.000, 15:36:03.845
162, -400.40, 10.03, 9.05, 7.85, 0.000, 0.000, 0.000, 15:36:03.845
163, -36.39, 2.58, 19.71, 13.65, 0.000, 0.000, 0.000, 15:36:03.867
164, 335.52, 5.82, 9.34, 10.13, 0.000, 0.000, 0.000, 15:36:03.867
165, -229.83, 12.21, 5.24, 6.11, 0.000, 0.000, 0.000, 15:36:03.867
166, -276.51, 3.64, 17.70, 16.15, 0.000, 0.000, 0.000, 15:36:03.867
167, 330.44, 5.07, 8.55, 12.88, 0.000, 0.000, 0.000, 15:36:03.889
168, 24.06, 18.01, 4.57, 8.62, 0.000, 0.000, 0.000, 15:36:03.890
169, -421.42, 5.65, 14.58, 11.18, 0.000, 0.000, 0.000, 15:36:03.890
170, 197.97, 8.64, 17.56, 17.17, 0.000, 0.000, 0.000, 15:36:03.890
171, 228.97, 11.59, 6.73, 10.43, 0.000, 0.000, 0.000, 15:36:03.912
172, -398.64, 10.09, 8.49, 9.31, 0.000, 0.000, 0.000, 15:36:03.912
173, -35.81, 1.47, 15.40, 16.55, 0.000, 0.000, 0.000, 15:36:03.912
174, 335.12, 9.89, 10.98, 13.93, 0.000, 0.000, 0.000, 15:36:03.913
175, -223.64, 14.42, 3.11, 9.10, 0.000, 0.000, 0.000, 15:36:03.913
176, -270.25, 3.56, 16.85, 16.87, 0.000, 0.000, 0.000, 15:36:03.913
177, 324.36, 12.24, 11.67, 10.54, 0.000, 0.000, 0.000, 15:36:03.934
178, 30.58, 5.22, 9.90, 9.21, 0.000, 0.000, 0.000, 15:36:03.935
179, -417.86, 7.31, 9.45, 13.92, 0.000, 0.000, 0.000, 15:36:03.935
180, 198.84, 6.31, 14.26, 17.27, 0.000, 0.000, 0.000, 15:36:03.935
181, 225.28, 13.37, 6.31, 9.60, 0.000, 0.000, 0.000, 15:36:03.957
182, -399.46, 8.67, 10.39, 11.58, 0.000, 0.000, 0.000, 15:36:03.957
183, -31.15, 3.56, 15.75, 15.53, 0.000, 0.000, 0.000, 15:36:03.957
184, 336.35, 10.91, 11.32, 11.35, 0.000, 0.000, 0.000, 15:36:03.958
185, -233.55, 13.09, 5.71, 6.37, 0.000, 0.000, 0.000, 15:36:03.979
186, -277.24, 5.77, 18.53, 17.12, 0.000, 0.000, 0.000, 15:36:03.979
187, 313.10, 2.64, 13.46, 17.08, 0.000, 0.000, 0.000, 15:36:03.980
188, 9.94, 13.66, 4.37, 6.90, 0.000, 0.000, 0.000, 15:36:03.980
189, -433.75, 6.27, 12.10, 13.19, 0.000, 0.000, 0.000, 15:36:04.002
190, 185.35, 2.96, 13.70, 14.33, 0.000, 0.000, 0.000, 15:36:04.002
191, 217.02, 10.64, 9.15, 3.95, 0.000, 0.000, 0.000, 15:36:04.002
