%OpenBCI Raw EEG Data
%
%Sample Rate = 200.0 Hz
%First Column = SampleIndex
%Last Column = Timestamp 
%Other Columns = EEG data in microvolts followed by Accel Data (in G) interleaved with Aux Data
0, 4.58, 8.36, 8.82, 9.59, 0.000, 0.000, 0.000, 16:16:41.068
1, 7.60, 10.54, 10.47, 13.33, 0.000, 0.000, 0.000, 16:16:41.076
2, 1.65, 5.37, 10.91, 14.01, 0.000, 0.000, 0.000, 16:16:41.078
3, 10.87, 10.63, 11.95, 12.79, 0.000, 0.000, 0.000, 16:16:41.079
4, 8.58, 8.24, 7.88, 11.22, 0.000, 0.000, 0.000, 16:16:41.080
5, 2.03, 9.48, 12.62, 17.64, 0.000, 0.000, 0.000, 16:16:41.088
6, 8.29, 7.03, 10.42, 12.94, 0.000, 0.000, 0.000, 16:16:41.089
7, 10.59, 11.33, 12.69, 10.57, 0.000, 0.000, 0.000, 16:16:41.089
8, 9.06, 6.42, 14.39, 13.39, 0.000, 0.000, 0.000, 16:16:41.090
9, 0.04, 6.45, 13.26, 13.18, 0.000, 0.000, 0.000, 16:16:41.090
10, 3.25, 10.22, 8.38, 12.11, 0.000, 0.000, 0.000, 16:16:41.091
11, 9.84, 13.18, 11.45, 9.54, 0.000, 0.000, 0.000, 16:16:41.110
12, 5.35, 6.57, 12.93, 12.26, 0.000, 0.000, 0.000, 16:16:41.111
13, 0.65, 9.25, 7.31, 10.77, 0.000, 0.000, 0.000, 16:16:41.111
14, 13.50, 14.99, 8.59, 11.60, 0.000, 0.000, 0.000, 16:16:41.112
15, 8.43, -0.27, 11.31, 13.39, 0.000, 0.000, 0.000, 16:16:41.134
16, 3.81, 4.53, 10.28, 9.50, 0.000, 0.000, 0.000, 16:16:41.134
17, 5.87, 12.24, 8.77, 10.34, 0.000, 0.000, 0.000, 16:16:41.135
18, 9.72, 11.58, 13.53, 12.58, 0.000, 0.000, 0.000, 16:16:41.135
19, 4.33, 6.10, 12.35, 13.92, 0.000, 0.000, 0.000, 16:16:41.137
20, 5.69, 8.55, 9.93, 10.69, 0.000, 0.000, 0.000, 16:16:41.138
21, 14.26, 19.27, 7.42, 15.71, 0.000, 0.000, 0.000, 16:16:41.157
22, -3.29, -0.84, 14.54, 13.81, 0.000, 0.000, 0.000, 16:16:41.157
23, 4.75, 9.85, 10.18, 10.81, 0.000, 0.000, 0.000, 16:16:41.158
24, 10.67, 9.68, 8.38, 12.92, 0.000, 0.000, 0.000, 16:16:41.158
25, 2.95, 8.63, 12.60, 17.68, 0.000, 0.000, 0.000, 16:16:41.179
26, 2.33, 5.34, 10.01, 12.65, 0.000, 0.000, 0.000, 16:16:41.179
27, 10.57, 10.76, 10.12, 12.93, 0.000, 0.000, 0.000, 16:16:41.180
28, 7.66, 8.03, 11.42, 10.19, 0.000, 0.000, 0.000, 16:16:41.180
29, 4.83, 5.70, 11.16, 9.67, 0.000, 0.000, 0.000, 16:16:41.200
30, 11.57, 11.14, 11.12, 7.33, 0.000, 0.000, 0.000, 16:16:41.201
31, 6.96, 8.39, 10.63, 10.64, 0.000, 0.000, 0.000, 16:16:41.201
32, 2.88, 8.95, 14.16, 12.48, 0.000, 0.000, 0.000, 16:16:41.202
33, 2.49, 8.19, 10.72, 10.28, 0.000, 0.000, 0.000, 16:16:41.228
34, 16.39, 16.38, 12.34, 17.20, 0.000, 0.000, 0.000, 16:16:41.228
35, 3.59, 8.12, 12.86, 15.75, 0.000, 0.000, 0.000, 16:16:41.230
36, 6.41, 4.18, 9.58, 14.58, 0.000, 0.000, 0.000, 16:16:41.230
37, 12.96, 8.63, 9.37, 9.82, 0.000, 0.000, 0.000, 16:16:41.231
38, 10.79, 8.94, 13.85, 11.26, 0.000, 0.000, 0.000, 16:16:41.231
39, 9.45, 10.42, 12.82, 10.97, 0.000, 0.000, 0.000, 16:16:41.245
40, 0.62, 7.43, 8.33, 10.27, 0.000, 0.000, 0.000, 16:16:41.246
41, 10.02, 9.74, 11.99, 14.45, 0.000, 0.000, 0.000, 16:16:41.246
42, 1.18, 6.90, 15.43, 12.43, 0.000, 0.000, 0.000, 16:16:41.247
43, 7.48, 6.28, 9.71, 10.51, 0.000, 0.000, 0.000, 16:16:41.270
44, 11.75, 11.07, 10.73, 11.90, 0.000, 0.000, 0.000, 16:16:41.271
45, 5.25, 5.13, 12.84, 13.66, 0.000, 0.000, 0.000, 16:16:41.271
46, 0.33, 4.64, 9.86, 7.95, 0.000, 0.000, 0.000, 16:16:41.272
47, 6.18, 15.22, 8.96, 11.21, 0.000, 0.000, 0.000, 16:16:41.291
48, 12.22, 16.87, 8.46, 13.04, 0.000, 0.000, 0.000, 16:16:41.291
49, 1.33, 0.13, 11.75, 13.30, 0.000, 0.000, 0.000, 16:16:41.292
50, 6.67, 5.17, 8.98, 10.55, 0.000, 0.000, 0.000, 16:16:41.292
51, 9.81, 10.98, 11.49, 10.56, 0.000, 0.000, 0.000, 16:16:41.313
52, 4.76, 3.60, 14.32, 10.04, 0.000, 0.000, 0.000, 16:16:41.313
53, 2.95, 7.13, 13.64, 13.03, 0.000, 0.000, 0.000, 16:16:41.314
54, 10.61, 10.75, 9.39, 9.95, 0.000, 0.000, 0.000, 16:16:41.314
55, 6.79, 5.67, 12.52, 14.42, 0.000, 0.000, 0.000, 16:16:41.314
56, 6.20, 8.11, 10.60, 14.08, 0.000, 0.000, 0.000, 16:16:41.315
57, 13.39, 9.87, 11.95, 10.76, 0.000, 0.000, 0.000, 16:16:41.335
58, 0.62, 5.32, 13.97, 17.35, 0.000, 0.000, 0.000, 16:16:41.336
59, -0.06, 7.64, 13.95, 14.22, 0.000, 0.000, 0.000, 16:16:41.336
60, 8.68, 9.63, 9.00, 9.93, 0.000, 0.000, 0.000, 16:16:41.336
61, 13.33, 13.61, 10.31, 12.37, 0.000, 0.000, 0.000, 16:16:41.358
62, 0.69, 6.91, 10.07, 11.16, 0.000, 0.000, 0.000, 16:16:41.358
63, 5.82, 10.94, 6.59, 9.04, 0.000, 0.000, 0.000, 16:16:41.358
64, 7.70, 10.38, 5.76, 13.29, 0.000, 0.000, 0.000, 16:16:41.359
65, 4.44, 7.96, 14.56, 11.19, 0.000, 0.000, 0.000, 16:16:41.380
66, 10.88, 8.12, 11.43, 12.30, 0.000, 0.000, 0.000, 16:16:41.381
67, 5.06, 5.96, 11.36, 10.78, 0.000, 0.000, 0.000, 16:16:41.381
68, 6.16, 8.25, 10.05, 13.63, 0.000, 0.000, 0.000, 16:16:41.381
69, 2.41, 2.24, 10.13, 9.07, 0.000, 0.000, 0.000, 16:16:41.403
70, 6.64, 6.98, 10.68, 13.29, 0.000, 0.000, 0.000, 16:16:41.403
71, 7.25, 9.57, 13.40, 13.59, 0.000, 0.000, 0.000, 16:16:41.403
72, 2.42, 6.51, 8.69, 12.74, 0.000, 0.000, 0.000, 16:16:41.404
73, 8.30, 10.01, 11.50, 9.35, 0.000, 0.000, 0.000, 16:16:41.404
74, 12.09, 14.37, 10.80, 11.36, 0.000, 0.000, 0.000, 16:16:41.404
75, 10.71, 7.43, 15.63, 16.75, 0.000, 0.000, 0.000, 16:16:41.425
76, 2.30, 0.21, 11.73, 11.91, 0.000, 0.000, 0.000, 16:16:41.425
77, 9.78, 11.32, 11.78, 12.96, 0.000, 0.000, 0.000, 16:16:41.426
78, 7.06, 7.55, 9.91, 16.26, 0.000, 0.000, 0.000, 16:16:41.426
79, 2.85, 5.20, 13.11, 11.76, 0.000, 0.000, 0.000, 16:16:41.448
80, 8.97, 10.15, 10.14, 8.76, 0.000, 0.000, 0.000, 16:16:41.448
81, 13.04, 11.10, 9.60, 11.73, 0.000, 0.000, 0.000, 16:16:41.448
82, 3.97, 2.63, 15.70, 12.37, 0.000, 0.000, 0.000, 16:16:41.448
83, 4.59, 9.65, 8.83, 10.22, 0.000, 0.000, 0.000, 16:16:41.470
84, 11.89, 17.01, 7.73, 7.73, 0.000, 0.000, 0.000, 16:16:41.471
85, 0.76, 4.93, 12.18, 16.63, 0.000, 0.000, 0.000, 16:16:41.471
86, 5.70, 6.39, 9.89, 12.72, 0.000, 0.000, 0.000, 16:16:41.471
87, 5.39, 10.77, 10.12, 12.17, 0.000, 0.000, 0.000, 16:16:41.493
88, 6.75, 9.32, 10.94, 11.70, 0.000, 0.000, 0.000, 16:16:41.493
89, 1.41, 5.57, 14.28, 10.91, 0.000, 0.000, 0.000, 16:16:41.493
90, 9.06, 9.74, 8.52, 10.81, 0.000, 0.000, 0.000, 16:16:41.494
91, 13.32, 10.20, 8.73, 11.75, 0.000, 0.000, 0.000, 16:16:41.494
92, 1.06, 6.18, 11.48, 12.87, 0.000, 0.000, 0.000, 16:16:41.494
93, 5.45, 8.99, 11.56, 12.20, 0.000, 0.000, 0.000, 16:16:41.515
94, 5.16, 8.41, 9.55, 11.33, 0.000, 0.000, 0.000, 16:16:41.516
95, 4.89, 8.26, 8.90, 10.08, 0.000, 0.000, 0.000, 16:16:41.516
96, 4.64, 6.70, 12.91, 9.83, 0.000, 0.000, 0.000, 16:16:41.516
97, 8.25, 13.64, 5.48, 7.53, 0.000, 0.000, 0.000, 16:16:41.538
98, 2.06, 5.33, 8.78, 10.76, 0.000, 0.000, 0.000, 16:16:41.538
99, 1.54, 5.46, 11.53, 12.25, 0.000, 0.000, 0.000, 16:16:41.539
100, 7.61, 13.41, 9.77, 12.95, 0.000, 0.000, 0.000, 16:16:41.539
101, 11.37, 9.94, 9.55, 11.23, 0.000, 0.000, 0.000, 16:16:41.560
102, 4.92, 6.59, 15.10, 10.05, 0.000, 0.000, 0.000, 16:16:41.560
103, -0.47, 6.51, 13.29, 14.29, 0.000, 0.000, 0.000, 16:16:41.561
104, 8.41, 12.82, 6.53, 10.36, 0.000, 0.000, 0.000, 16:16:41.561
105, 5.94, 4.68, 11.50, 14.91, 0.000, 0.000, 0.000, 16:16:41.583
106, 4.08, 5.50, 6.26, 10.79, 0.000, 0.000, 0.000, 16:16:41.583
107, 8.12, 13.35, 11.44, 12.62, 0.000, 0.000, 0.000, 16:16:41.583
108, 8.01, 7.29, 12.39, 14.61, 0.000, 0.000, 0.000, 16:16:41.584
109, 2.32, 3.47, 9.00, 11.09, 0.000, 0.000, 0.000, 16:16:41.584
110, 9.14, 7.72, 13.14, 10.42, 0.000, 0.000, 0.000, 16:16:41.584
111, 11.52, 12.01, 11.17, 13.55, 0.000, 0.000, 0.000, 16:16:41.605
112, 1.74, 2.27, 13.92, 14.47, 0.000, 0.000, 0.000, 16:16:41.605
113, 6.07, 9.27, 10.11, 11.85, 0.000, 0.000, 0.000, 16:16:41.606
114, 10.38, 13.38, 9.78, 8.79, 0.000, 0.000, 0.000, 16:16:41.606
115, 6.41, 7.41, 11.07, 15.88, 0.000, 0.000, 0.000, 16:16:41.628
116, 4.71, 5.37, 9.64, 10.27, 0.000, 0.000, 0.000, 16:16:41.628
117, 7.25, 9.83, 10.21, 9.34, 0.000, 0.000, 0.000, 16:16:41.628
118, 7.32, 10.55, 14.06, 11.30, 0.000, 0.000, 0.000, 16:16:41.629
119, 4.13, 2.19, 13.50, 13.09, 0.000, 0.000, 0.000, 16:16:41.651
120, 12.72, 6.84, 9.74, 12.87, 0.000, 0.000, 0.000, 16:16:41.651
121, 7.36, 4.54, 11.75, 13.73, 0.000, 0.000, 0.000, 16:16:41.651
122, 1.61, 2.37, 12.81, 13.11, 0.000, 0.000, 0.000, 16:16:41.652
123, 5.48, 9.36, 13.14, 13.13, 0.000, 0.000, 0.000, 16:16:41.673
124, 14.66, 11.96, 11.77, 8.30, 0.000, 0.000, 0.000, 16:16:41.673
125, 3.40, 5.39, 15.26, 12.18, 0.000, 0.000, 0.000, 16:16:41.673
126, 2.97, 4.79, 11.08, 9.57, 0.000, 0.000, 0.000, 16:16:41.674
127, 9.48, 11.13, 9.45, 15.27, 0.000, 0.000, 0.000, 16:16:41.674
128, 7.63, 11.73, 12.90, 11.53, 0.000, 0.000, 0.000, 16:16:41.675
129, 5.75, 10.98, 12.91, 13.80, 0.000, 0.000, 0.000, 16:16:41.695
130, 1.67, 9.80, 6.81, 9.40, 0.000, 0.000, 0.000, 16:16:41.696
131, 14.05, 11.34, 8.56, 10.37, 0.000, 0.000, 0.000, 16:16:41.696
132, 5.92, 5.92, 15.17, 14.18, 0.000, 0.000, 0.000, 16:16:41.698
133, 8.01, 4.87, 7.55, 11.56, 0.000, 0.000, 0.000, 16:16:41.718
134, 13.06, 8.45, 6.98, 8.57, 0.000, 0.000, 0.000, 16:16:41.718
135, 9.02, 6.86, 13.95, 13.97, 0.000, 0.000, 0.000, 16:16:41.719
136, 7.32, 5.91, 11.68, 13.59, 0.000, 0.000, 0.000, 16:16:41.719
137, 8.49, 12.39, 11.68, 13.86, 0.000, 0.000, 0.000, 16:16:41.740
138, 8.89, 15.50, 12.29, 9.76, 0.000, 0.000, 0.000, 16:16:41.741
139, -1.83, 2.96, 11.84, 12.71, 0.000, 0.000, 0.000, 16:16:41.741
140, 7.91, 10.68, 6.98, 12.64, 0.000, 0.000, 0.000, 16:16:41.741
141, 6.91, 9.59, 11.58, 12.26, 0.000, 0.000, 0.000, 16:16:41.763
142, 4.10, 3.81, 15.17, 14.93, 0.000, 0.000, 0.000, 16:16:41.763
143, 3.08, 6.44, 13.94, 11.96, 0.000, 0.000, 0.000, 16:16:41.763
144, 6.88, 13.62, 7.46, 11.18, 0.000, 0.000, 0.000, 16:16:41.764
145, 3.05, 10.97, 11.75, 12.42, 0.000, 0.000, 0.000, 16:16:41.764
146, 2.32, 6.09, 9.83, 11.78, 0.000, 0.000, 0.000, 16:16:41.764
147, 12.89, 16.50, 7.17, 12.41, 0.000, 0.000, 0.000, 16:16:41.785
148, 2.51, 4.59, 11.34, 13.15, 0.000, 0.000, 0.000, 16:16:41.785
149, 2.44, 5.41, 12.10, 9.09, 0.000, 0.000, 0.000, 16:16:41.786
150, 5.66, 7.74, 8.86, 10.15, 0.000, 0.000, 0.000, 16:16:41.786
151, 11.38, 11.54, 12.53, 12.63, 0.000, 0.000, 0.000, 16:16:41.808
152, 0.48, 2.41, 14.28, 12.28, 0.000, 0.000, 0.000, 16:16:41.808
153, 5.46, 8.42, 8.01, 11.66, 0.000, 0.000, 0.000, 16:16:41.808
154, 11.88, 9.50, 11.99, 8.65, 0.000, 0.000, 0.000, 16:16:41.808
155, 2.88, 6.24, 12.91, 11.87, 0.000, 0.000, 0.000, 16:16:41.830
156, 7.60, 7.54, 13.93, 11.40, 0.000, 0.000, 0.000, 16:16:41.831
157, 4.88, 4.22, 9.53, 10.82, 0.000, 0.000, 0.000, 16:16:41.831
158, 6.49, 10.82, 12.27, 12.24, 0.000, 0.000, 0.000, 16:16:41.831
159, 0.91, 3.27, 9.60, 15.66, 0.000, 0.000, 0.000, 16:16:41.853
160, 5.93, 10.11, 9.39, 9.04, 0.000, 0.000, 0.000, 16:16:41.853
161, 12.46, 13.15, 10.07, 9.86, 0.000, 0.000, 0.000, 16:16:41.853
162, 2.10, 7.52, 16.57, 10.48, 0.000, 0.000, 0.000, 16:16:41.854
163, 6.12, 7.70, 8.95, 9.59, 0.000, 0.000, 0.000, 16:16:41.854
164, 11.65, 16.51, 9.28, 11.28, 0.000, 0.000, 0.000, 16:16:41.854
165, 5.97, 8.37, 10.85, 11.10, 0.000, 0.000, 0.000, 16:16:41.875
166, -0.04, 4.19, 13.21, 12.05, 0.000, 0.000, 0.000, 16:16:41.875
167, 3.04, 10.61, 8.05, 8.97, 0.000, 0.000, 0.000, 16:16:41.876
168, 6.56, 9.55, 15.77, 13.07, 0.000, 0.000, 0.000, 16:16:41.876
169, 3.82, 5.25, 16.30, 14.42, 0.000, 0.000, 0.000, 16:16:41.898
170, 7.98, 8.43, 9.81, 11.42, 0.000, 0.000, 0.000, 16:16:41.898
171, 14.61, 14.12, 12.84, 11.88, 0.000, 0.000, 0.000, 16:16:41.899
172, 1.33, 6.28, 12.61, 8.23, 0.000, 0.000, 0.000, 16:16:41.899
173, 10.00, 7.23, 7.71, 12.09, 0.000, 0.000, 0.000, 16:16:41.920
174, 15.79, 15.98, 8.35, 12.76, 0.000, 0.000, 0.000, 16:16:41.920
175, 2.63, 3.23, 9.88, 16.28, 0.000, 0.000, 0.000, 16:16:41.921
176, 3.34, 8.81, 8.83, 11.01, 0.000, 0.000, 0.000, 16:16:41.921
177, 7.32, 10.74, 7.43, 12.52, 0.000, 0.000, 0.000, 16:16:41.943
178, 9.16, 9.22, 13.12, 13.43, 0.000, 0.000, 0.000, 16:16:41.943
179, 0.76, 5.39, 14.11, 16.31, 0.000, 0.000, 0.000, 16:16:41.944
180, 7.97, 9.48, 13.30, 12.81, 0.000, 0.000, 0.000, 16:16:41.944
181, 7.39, 11.01, 9.38, 11.97, 0.000, 0.000, 0.000, 16:16:41.944
182, 2.78, 5.83, 13.19, 12.94, 0.000, 0.000, 0.000, 16:16:41.944
183, 10.48, 9.69, 10.17, 10.11, 0.000, 0.000, 0.000, 16:16:41.965
184, 6.97, 8.43, 6.30, 15.18, 0.000, 0.000, 0.000, 16:16:41.966
185, 1.22, 7.92, 13.07, 12.02, 0.000, 0.000, 0.000, 16:16:41.966
186, 3.84, 7.00, 13.70, 11.91, 0.000, 0.000, 0.000, 16:16:41.966
187, 10.76, 10.55, 11.34, 12.67, 0.000, 0.000, 0.000, 16:16:41.988
188, 6.62, 7.59, 13.19, 12.18, 0.000, 0.000, 0.000, 16:16:41.989
189, 2.69, 3.54, 13.41, 12.51, 0.000, 0.000, 0.000, 16:16:41.989
190, 8.32, 8.99, 4.46, 10.09, 0.000, 0.000, 0.000, 16:16:41.989
191, 13.53, 14.40, 9.56, 10.59, 0.000, 0.000, 0.000, 16:16:42.010
192, 1.78, 3.96, 12.54, 11.33, 0.000, 0.000, 0.000, 16:16:42.011
193, 0.56, 0.93, 9.77, 8.57, 0.000, 0.000, 0.000, 16:16:42.011
194, 11.22, 10.39, 9.26, 14.45, 0.000, 0.000, 0.000, 16:16:42.011
195, 5.62, 10.35, 13.03, 12.00, 0.000, 0.000, 0.000, 16:16:42.033
196, 5.02, 6.35, 14.59, 12.93, 0.000, 0.000, 0.000, 16:16:42.033
197, 6.46, 7.89, 12.22, 13.24, 0.000, 0.000, 0.000, 16:16:42.034
198, 7.70, 8.93, 11.64, 13.00, 0.000, 0.000, 0.000, 16:16:42.034
199, -0.20, 9.58, 10.87, 17.26, 0.000, 0.000, 0.000, 16:16:42.035
200, 6.48, 6.86, 11.05, 8.90, 0.000, 0.000, 0.000, 16:16:42.035
0, 15.21, 17.33, 9.50, 12.57, 0.000, 0.000, 0.000, 16:16:42.055
1, 2.55, 1.49, 10.42, 10.50, 0.000, 0.000, 0.000, 16:16:42.056
2, 8.37, 8.28, 8.34, 6.38, 0.000, 0.000, 0.000, 16:16:42.056
3, 10.60, 11.26, 9.48, 10.57, 0.000, 0.000, 0.000, 16:16:42.078
4, 5.02, 8.02, 16.84, 13.30, 0.000, 0.000, 0.000, 16:16:42.078
5, 1.56, 7.92, 9.91, 10.38, 0.000, 0.000, 0.000, 16:16:42.078
6, 13.00, 12.21, 9.92, 6.45, 0.000, 0.000, 0.000, 16:16:42.079
7, 12.12, 9.13, 12.49, 11.59, 0.000, 0.000, 0.000, 16:16:42.079
8, 0.39, 2.91, 9.70, 14.35, 0.000, 0.000, 0.000, 16:16:42.079
9, 9.61, 10.85, 10.34, 14.64, 0.000, 0.000, 0.000, 16:16:42.100
10, 6.29, 7.65, 12.30, 12.94, 0.000, 0.000, 0.000, 16:16:42.101
11, 3.20, 3.91, 12.43, 9.90, 0.000, 0.000, 0.000, 16:16:42.101
12, 6.02, 9.41, 10.18, 8.09, 0.000, 0.000, 0.000, 16:16:42.101
13, 6.24, 11.65, 9.87, 15.87, 0.000, 0.000, 0.000, 16:16:42.123
14, 4.96, 3.80, 12.92, 12.59, 0.000, 0.000, 0.000, 16:16:42.123
15, 3.96, 10.63, 11.23, 8.50, 0.000, 0.000, 0.000, 16:16:42.123
16, 8.81, 7.15, 11.40, 12.40, 0.000, 0.000, 0.000, 16:16:42.123
17, 7.01, 9.39, 14.28, 12.61, 0.000, 0.000, 0.000, 16:16:42.145
18, 4.93, 6.94, 12.26, 11.12, 0.000, 0.000, 0.000, 16:16:42.146
19, 2.61, 6.09, 10.56, 11.75, 0.000, 0.000, 0.000, 16:16:42.146
20, 15.18, 10.49, 8.47, 12.01, 0.000, 0.000, 0.000, 16:16:42.146
21, 2.29, 3.75, 12.64, 13.91, 0.000, 0.000, 0.000, 16:16:42.168
22, 6.60, 8.18, 9.50, 13.77, 0.000, 0.000, 0.000, 16:16:42.168
23, 8.77, 12.24, 9.28, 8.62, 0.000, 0.000, 0.000, 16:16:42.169
24, 0.58, 2.55, 12.88, 16.01, 0.000, 0.000, 0.000, 16:16:42.169
25, 0.38, 6.11, 11.04, 14.03, 0.000, 0.000, 0.000, 16:16:42.169
26, 8.16, 9.76, 6.52, 11.50, 0.000, 0.000, 0.000, 16:16:42.169
27, 10.23, 13.50, 12.63, 15.20, 0.000, 0.000, 0.000, 16:16:42.190
28, 2.10, 2.47, 11.65, 14.91, 0.000, 0.000, 0.000, 16:16:42.191
29, 8.53, 7.16, 10.21, 7.44, 0.000, 0.000, 0.000, 16:16:42.191
30, 9.06, 16.53, 9.42, 8.98, 0.000, 0.000, 0.000, 16:16:42.191
31, 5.39, 6.80, 11.45, 14.89, 0.000, 0.000, 0.000, 16:16:42.213
32, 5.31, 4.15, 11.90, 12.38, 0.000, 0.000, 0.000, 16:16:42.213
33, 8.89, 10.98, 10.35, 8.54, 0.000, 0.000, 0.000, 16:16:42.213
34, 3.41, 8.29, 12.90, 11.09, 0.000, 0.000, 0.000, 16:16:42.214
35, 4.74, 8.77, 11.60, 10.73, 0.000, 0.000, 0.000, 16:16:42.235
36, 12.06, 16.87, 9.88, 8.33, 0.000, 0.000, 0.000, 16:16:42.236
37, 2.17, 6.47, 12.13, 13.52, 0.000, 0.000, 0.000, 16:16:42.236
38, 1.97, 4.02, 10.31, 13.57, 0.000, 0.000, 0.000, 16:16:42.236
39, 7.31, 12.50, 8.79, 14.07, 0.000, 0.000, 0.000, 16:16:42.258
40, 14.34, 14.75, 5.30, 13.19, 0.000, 0.000, 0.000, 16:16:42.258
41, 1.16, 5.06, 13.91, 13.08, 0.000, 0.000, 0.000, 16:16:42.259
42, 5.26, 7.66, 11.94, 10.23, 0.000, 0.000, 0.000, 16:16:42.259
43, 8.26, 13.60, 11.54, 8.33, 0.000, 0.000, 0.000, 16:16:42.259
44, 6.89, 4.08, 11.29, 14.56, 0.000, 0.000, 0.000, 16:16:42.259
45, 5.45, 8.88, 11.30, 11.00, 0.000, 0.000, 0.000, 16:16:42.280
46, 5.50, 9.79, 12.80, 9.26, 0.000, 0.000, 0.000, 16:16:42.281
47, 7.94, 5.97, 10.68, 13.88, 0.000, 0.000, 0.000, 16:16:42.281
48, 4.20, 5.24, 14.61, 9.47, 0.000, 0.000, 0.000, 16:16:42.281
49, 6.76, 7.25, 11.79, 13.14, 0.000, 0.000, 0.000, 16:16:42.303
50, 11.40, 13.03, 10.08, 11.74, 0.000, 0.000, 0.000, 16:16:42.303
51, 6.00, 4.72, 12.90, 14.16, 0.000, 0.000, 0.000, 16:16:42.304
52, 7.38, 6.53, 7.20, 12.07, 0.000, 0.000, 0.000, 16:16:42.304
53, 12.06, 10.68, 6.40, 13.10, 0.000, 0.000, 0.000, 16:16:42.325
54, 10.76, 13.16, 10.89, 16.64, 0.000, 0.000, 0.000, 16:16:42.326
55, -2.44, -0.33, 10.08, 10.90, 0.000, 0.000, 0.000, 16:16:42.326
56, 12.16, 9.32, 11.04, 8.66, 0.000, 0.000, 0.000, 16:16:42.326
57, 8.69, 13.33, 10.28, 12.46, 0.000, 0.000, 0.000, 16:16:42.348
58, 2.72, 5.83, 11.47, 12.97, 0.000, 0.000, 0.000, 16:16:42.348
59, 6.79, 7.64, 11.30, 11.70, 0.000, 0.000, 0.000, 16:16:42.349
60, 11.03, 12.02, 10.76, 12.67, 0.000, 0.000, 0.000, 16:16:42.350
61, 4.05, 3.33, 15.09, 14.06, 0.000, 0.000, 0.000, 16:16:42.350
62, 4.85, 11.21, 8.77, 12.81, 0.000, 0.000, 0.000, 16:16:42.350
63, 15.52, 12.02, 11.87, 9.94, 0.000, 0.000, 0.000, 16:16:42.371
64, -0.69, 2.06, 16.29, 16.34, 0.000, 0.000, 0.000, 16:16:42.371
65, 0.99, 4.82, 8.43, 8.16, 0.000, 0.000, 0.000, 16:16:42.371
66, 7.47, 5.45, 9.60, 9.79, 0.000, 0.000, 0.000, 16:16:42.371
67, 10.62, 4.48, 15.10, 11.99, 0.000, 0.000, 0.000, 16:16:42.393
68, 2.08, 1.76, 10.51, 12.01, 0.000, 0.000, 0.000, 16:16:42.393
69, 7.76, 10.02, 10.71, 10.59, 0.000, 0.000, 0.000, 16:16:42.393
70, 8.40, 15.24, 12.04, 13.59, 0.000, 0.000, 0.000, 16:16:42.394
71, 0.62, 6.85, 12.66, 17.09, 0.000, 0.000, 0.000, 16:16:42.415
72, 11.97, 14.08, 11.35, 9.67, 0.000, 0.000, 0.000, 16:16:42.416
73, 6.24, 8.61, 9.04, 12.32, 0.000, 0.000, 0.000, 16:16:42.416
74, 8.15, 6.85, 12.62, 13.77, 0.000, 0.000, 0.000, 16:16:42.416
75, 5.82, 2.36, 9.85, 10.38, 0.000, 0.000, 0.000, 16:16:42.438
76, 8.01, 13.32, 9.90, 11.76, 0.000, 0.000, 0.000, 16:16:42.438
77, 6.36, 12.01, 8.72, 14.73, 0.000, 0.000, 0.000, 16:16:42.439
78, 0.53, 8.38, 11.78, 11.84, 0.000, 0.000, 0.000, 16:16:42.439
79, 2.25, 10.18, 10.22, 7.33, 0.000, 0.000, 0.000, 16:16:42.439
80, 5.61, 11.21, 9.62, 9.13, 0.000, 0.000, 0.000, 16:16:42.439
81, 5.03, 5.66, 12.17, 12.71, 0.000, 0.000, 0.000, 16:16:42.460
82, -2.28, 5.86, 8.46, 12.65, 0.000, 0.000, 0.000, 16:16:42.461
83, 9.54, 14.26, 9.87, 11.07, 0.000, 0.000, 0.000, 16:16:42.461
84, 0.74, 8.37, 13.65, 13.67, 0.000, 0.000, 0.000, 16:16:42.461
85, 5.77, 7.60, 7.98, 10.58, 0.000, 0.000, 0.000, 16:16:42.483
86, 9.13, 4.69, 6.54, 10.17, 0.000, 0.000, 0.000, 16:16:42.483
87, 11.29, 11.72, 13.87, 14.49, 0.000, 0.000, 0.000, 16:16:42.483
88, 3.32, 3.43, 15.78, 9.83, 0.000, 0.000, 0.000, 16:16:42.484
89, 11.54, 5.99, 8.44, 9.52, 0.000, 0.000, 0.000, 16:16:42.505
90, 17.38, 14.97, 8.70, 8.66, 0.000, 0.000, 0.000, 16:16:42.505
91, -1.18, 6.57, 14.20, 11.17, 0.000, 0.000, 0.000, 16:16:42.506
92, 3.80, 7.82, 9.07, 10.63, 0.000, 0.000, 0.000, 16:16:42.506
93, 11.71, 14.16, 11.23, 13.33, 0.000, 0.000, 0.000, 16:16:42.528
94, 1.82, 7.21, 16.57, 16.99, 0.000, 0.000, 0.000, 16:16:42.528
95, 0.50, 4.95, 14.13, 13.07, 0.000, 0.000, 0.000, 16:16:42.528
96, 11.61, 6.90, 9.11, 10.63, 0.000, 0.000, 0.000, 16:16:42.529
97, 10.22, 9.19, 9.00, 14.94, 0.000, 0.000, 0.000, 16:16:42.529
98, 2.84, 6.73, 11.09, 18.50, 0.000, 0.000, 0.000, 16:16:42.529
99, 8.65, 10.60, 11.40, 10.71, 0.000, 0.000, 0.000, 16:16:42.550
100, 5.72, 6.35, 7.19, 10.13, 0.000, 0.000, 0.000, 16:16:42.550
101, 1.72, 2.49, 14.55, 14.21, 0.000, 0.000, 0.000, 16:16:42.551
102, 7.13, 10.98, 11.27, 6.69, 0.000, 0.000, 0.000, 16:16:42.551
103, 12.24, 12.06, 11.29, 10.87, 0.000, 0.000, 0.000, 16:16:42.573
104, 5.45, 3.06, 10.42, 17.13, 0.000, 0.000, 0.000, 16:16:42.573
105, 0.62, 5.94, 9.11, 12.70, 0.000, 0.000, 0.000, 16:16:42.573
106, 10.34, 9.23, 9.33, 12.28, 0.000, 0.000, 0.000, 16:16:42.573
107, 5.45, 10.14, 11.47, 8.60, 0.000, 0.000, 0.000, 16:16:42.595
108, 6.53, 9.48, 12.82, 14.02, 0.000, 0.000, 0.000, 16:16:42.596
109, 0.24, 7.49, 11.17, 9.24, 0.000, 0.000, 0.000, 16:16:42.596
110, 12.51, 12.97, 7.65, 11.94, 0.000, 0.000, 0.000, 16:16:42.596
111, 1.77, 2.20, 14.08, 12.46, 0.000, 0.000, 0.000, 16:16:42.618
112, 7.25, 10.95, 8.83, 10.50, 0.000, 0.000, 0.000, 16:16:42.618
113, 8.05, 11.33, 13.52, 11.11, 0.000, 0.000, 0.000, 16:16:42.618
114, 10.31, 8.27, 14.86, 11.79, 0.000, 0.000, 0.000, 16:16:42.619
115, 4.09, 5.30, 11.35, 12.83, 0.000, 0.000, 0.000, 16:16:42.619
116, 10.64, 10.21, 9.65, 8.24, 0.000, 0.000, 0.000, 16:16:42.620
117, 11.85, 11.89, 13.27, 9.53, 0.000, 0.000, 0.000, 16:16:42.640
118, 3.45, 0.06, 14.69, 15.60, 0.000, 0.000, 0.000, 16:16:42.640
119, 7.06, 9.21, 8.95, 9.54, 0.000, 0.000, 0.000, 16:16:42.641
120, 8.77, 15.70, 7.73, 15.70, 0.000, 0.000, 0.000, 16:16:42.641
121, 2.77, 6.32, 16.51, 13.33, 0.000, 0.000, 0.000, 16:16:42.663
122, 2.65, -0.30, 13.74, 9.37, 0.000, 0.000, 0.000, 16:16:42.663
123, 10.21, 13.98, 5.08, 9.56, 0.000, 0.000, 0.000, 16:16:42.663
124, 9.78, 9.14, 12.36, 18.49, 0.000, 0.000, 0.000, 16:16:42.663
125, 3.45, 7.10, 8.45, 12.78, 0.000, 0.000, 0.000, 16:16:42.685
126, 10.59, 17.52, 9.82, 8.85, 0.000, 0.000, 0.000, 16:16:42.686
127, 3.24, 4.54, 11.30, 11.22, 0.000, 0.000, 0.000, 16:16:42.686
128, 1.71, 7.75, 9.59, 15.82, 0.000, 0.000, 0.000, 16:16:42.686
129, 6.92, 7.80, 9.08, 10.95, 0.000, 0.000, 0.000, 16:16:42.708
130, 13.73, 8.38, 10.37, 10.59, 0.000, 0.000, 0.000, 16:16:42.708
131, -0.32, 4.00, 11.74, 12.95, 0.000, 0.000, 0.000, 16:16:42.708
132, 5.89, 11.10, 11.61, 10.95, 0.000, 0.000, 0.000, 16:16:42.709
133, 10.66, 12.45, 9.20, 12.11, 0.000, 0.000, 0.000, 16:16:42.709
134, 6.80, 8.34, 13.13, 15.27, 0.000, 0.000, 0.000, 16:16:42.709
135, 5.33, 7.34, 13.50, 12.37, 0.000, 0.000, 0.000, 16:16:42.730
136, 7.35, 5.45, 7.48, 12.69, 0.000, 0.000, 0.000, 16:16:42.731
137, 6.94, 11.42, 13.11, 16.16, 0.000, 0.000, 0.000, 16:16:42.731
138, 1.22, 2.31, 14.25, 14.82, 0.000, 0.000, 0.000, 16:16:42.732
139, 10.50, 11.14, 7.98, 8.33, 0.000, 0.000, 0.000, 16:16:42.753
140, 12.36, 9.17, 11.25, 10.64, 0.000, 0.000, 0.000, 16:16:42.753
141, 4.16, 9.21, 13.12, 15.60, 0.000, 0.000, 0.000, 16:16:42.753
142, 3.00, 8.03, 11.17, 6.71, 0.000, 0.000, 0.000, 16:16:42.754
143, 9.43, 12.11, 12.23, 11.01, 0.000, 0.000, 0.000, 16:16:42.775
144, 10.25, 11.01, 14.36, 9.99, 0.000, 0.000, 0.000, 16:16:42.776
145, -2.76, -1.32, 13.00, 7.94, 0.000, 0.000, 0.000, 16:16:42.776
146, 5.38, 11.55, 7.64, 9.25, 0.000, 0.000, 0.000, 16:16:42.777
147, 11.28, 7.22, 13.62, 13.69, 0.000, 0.000, 0.000, 16:16:42.798
148, 2.60, 3.50, 10.78, 12.99, 0.000, 0.000, 0.000, 16:16:42.798
149, 6.27, 5.89, 10.12, 12.88, 0.000, 0.000, 0.000, 16:16:42.798
150, 11.28, 18.57, 11.30, 14.73, 0.000, 0.000, 0.000, 16:16:42.799
151, 5.54, 4.76, 9.07, 10.88, 0.000, 0.000, 0.000, 16:16:42.799
152, 5.99, 4.16, 8.86, 12.64, 0.000, 0.000, 0.000, 16:16:42.800
153, 17.21, 14.03, 7.02, 11.49, 0.000, 0.000, 0.000, 16:16:42.820
154, -1.11, 5.38, 13.34, 14.52, 0.000, 0.000, 0.000, 16:16:42.821
155, 3.02, 7.71, 12.55, 13.24, 0.000, 0.000, 0.000, 16:16:42.822
156, 9.81, 12.42, 11.43, 9.68, 0.000, 0.000, 0.000, 16:16:42.822
157, 8.83, 10.87, 13.92, 13.40, 0.000, 0.000, 0.000, 16:16:42.843
158, 4.67, 2.37, 13.52, 14.48, 0.000, 0.000, 0.000, 16:16:42.843
159, 6.13, 10.02, 8.51, 9.36, 0.000, 0.000, 0.000, 16:16:42.843
160, 8.05, 8.19, 11.98, 12.05, 0.000, 0.000, 0.000, 16:16:42.844
161, 3.46, 6.95, 10.07, 8.22, 0.000, 0.000, 0.000, 16:16:42.865
162, 10.20, 11.35, 8.73, 14.72, 0.000, 0.000, 0.000, 16:16:42.866
163, 4.10, 7.43, 12.32, 9.68, 0.000, 0.000, 0.000, 16:16:42.866
164, 3.08, 7.98, 14.06, 9.65, 0.000, 0.000, 0.000, 16:16:42.866
165, 0.92, 5.51, 10.07, 13.25, 0.000, 0.000, 0.000, 16:16:42.888
166, 10.14, 9.75, 9.46, 9.63, 0.000, 0.000, 0.000, 16:16:42.888
167, 8.07, 10.65, 13.21, 16.61, 0.000, 0.000, 0.000, 16:16:42.888
168, -0.69, 4.87, 12.64, 13.63, 0.000, 0.000, 0.000, 16:16:42.888
169, 6.05, 8.18, 12.92, 14.89, 0.000, 0.000, 0.000, 16:16:42.889
170, 11.13, 10.65, 12.10, 10.45, 0.000, 0.000, 0.000, 16:16:42.889
171, 7.38, 9.48, 11.65, 13.42, 0.000, 0.000, 0.000, 16:16:42.910
172, 4.18, 2.48, 12.73, 11.49, 0.000, 0.000, 0.000, 16:16:42.912
173, 8.54, 10.91, 8.73, 8.37, 0.000, 0.000, 0.000, 16:16:42.912
174, 10.48, 7.92, 12.74, 11.98, 0.000, 0.000, 0.000, 16:16:42.912
175, 5.89, 8.86, 12.49, 13.33, 0.000, 0.000, 0.000, 16:16:42.933
176, 10.23, 9.39, 5.09, 9.59, 0.000, 0.000, 0.000, 16:16:42.933
177, 7.27, 11.21, 10.48, 14.13, 0.000, 0.000, 0.000, 16:16:42.933
178, 0.94, 4.28, 11.91, 14.29, 0.000, 0.000, 0.000, 16:16:42.933
179, 4.03, 7.67, 10.71, 9.63, 0.000, 0.000, 0.000, 16:16:42.955
180, 14.69, 14.91, 9.68, 11.29, 0.000, 0.000, 0.000, 16:16:42.956
181, -3.08, 1.12, 14.57, 16.33, 0.000, 0.000, 0.000, 16:16:42.956
182, 5.60, 6.70, 12.72, 9.03, 0.000, 0.000, 0.000, 16:16:42.956
183, 9.96, 11.75, 11.30, 6.48, 0.000, 0.000, 0.000, 16:16:42.978
184, 2.87, 7.78, 13.50, 12.14, 0.000, 0.000, 0.000, 16:16:42.978
185, 3.10, 7.50, 9.17, 15.07, 0.000, 0.000, 0.000, 16:16:42.978
186, 11.08, 10.97, 9.61, 11.24, 0.000, 0.000, 0.000, 16:16:42.979
187, 10.29, 9.81, 10.38, 12.32, 0.000, 0.000, 0.000, 16:16:42.979
188, 5.39, 2.82, 11.11, 12.83, 0.000, 0.000, 0.000, 16:16:42.979
189, 11.31, 11.01, 9.46, 9.06, 0.000, 0.000, 0.000, 16:16:43.000
190, 4.73, 12.66, 7.44, 13.33, 0.000, 0.000, 0.000, 16:16:43.001
191, 1.19, 9.09, 13.47, 10.90, 0.000, 0.000, 0.000, 16:16:43.001
192, 7.00, 8.95, 15.41, 10.47, 0.000, 0.000, 0.000, 16:16:43.001
193, 11.08, 13.92, 7.60, 10.70, 0.000, 0.000, 0.000, 16:16:43.024
194, 2.49, 8.67, 11.82, 16.55, 0.000, 0.000, 0.000, 16:16:43.024
195, 6.82, 5.05, 11.06, 11.64, 0.000, 0.000, 0.000, 16:16:43.025
196, 9.07, 9.92, 8.83, 8.82, 0.000, 0.000, 0.000, 16:16:43.025
197, 6.79, 10.79, 14.02, 9.65, 0.000, 0.000, 0.000, 16:16:43.045
198, 8.87, 10.78, 11.86, 12.52, 0.000, 0.000, 0.000, 16:16:43.046
199, 2.34, 3.65, 9.15, 12.05, 0.000, 0.000, 0.000, 16:16:43.047
200, 8.75, 8.99, 10.14, 12.14, 0.000, 0.000, 0.000, 16:16:43.047
0, 2.07, 3.78, 14.07, 13.34, 0.000, 0.000, 0.000, 16:16:43.048
1, 9.59, 8.20, 8.63, 12.97, 0.000, 0.000, 0.000, 16:16:43.068
2, 10.54, 5.87, 8.76, 10.55, 0.000, 0.000, 0.000, 16:16:43.069
3, 7.00, 6.56, 13.18, 15.38, 0.000, 0.000, 0.000, 16:16:43.069
4, 3.45, 5.45, 11.23, 6.72, 0.000, 0.000, 0.000, 16:16:43.069
5, 3.93, 10.09, 7.69, 11.86, 0.000, 0.000, 0.000, 16:16:43.090
6, 9.42, 15.70, 11.01, 12.85, 0.000, 0.000, 0.000, 16:16:43.090
7, -1.70, -0.16, 12.44, 11.43, 0.000, 0.000, 0.000, 16:16:43.091
8, 8.07, 8.66, 11.39, 10.30, 0.000, 0.000, 0.000, 16:16:43.092
9, 8.81, 13.12, 9.72, 11.74, 0.000, 0.000, 0.000, 16:16:43.113
10, 3.23, 6.64, 9.33, 17.24, 0.000, 0.000, 0.000, 16:16:43.113
11, 2.13, 4.94, 8.79, 10.45, 0.000, 0.000, 0.000, 16:16:43.114
12, 12.25, 13.98, 8.45, 8.65, 0.000, 0.000, 0.000, 16:16:43.114
13, 6.49, 3.45, 14.25, 13.07, 0.000, 0.000, 0.000, 16:16:43.115
14, 2.70, 5.05, 10.63, 10.79, 0.000, 0.000, 0.000, 16:16:43.115
15, 13.97, 14.75, 9.95, 13.04, 0.000, 0.000, 0.000, 16:16:43.135
16, 3.38, 5.58, 10.71, 12.90, 0.000, 0.000, 0.000, 16:16:43.136
17, 1.82, 3.73, 14.69, 11.66, 0.000, 0.000, 0.000, 16:16:43.136
18, 7.57, 9.61, 10.82, 13.19, 0.000, 0.000, 0.000, 16:16:43.136
19, 10.31, 13.62, 7.29, 9.00, 0.000, 0.000, 0.000, 16:16:43.158
20, -0.04, 0.81, 10.70, 10.07, 0.000, 0.000, 0.000, 16:16:43.158
21, 9.50, 8.66, 6.48, 5.25, 0.000, 0.000, 0.000, 16:16:43.158
22, 13.05, 12.52, 9.86, 11.65, 0.000, 0.000, 0.000, 16:16:43.158
23, 5.05, 7.47, 16.72, 15.10, 0.000, 0.000, 0.000, 16:16:43.180
24, 6.27, 11.72, 9.69, 12.37, 0.000, 0.000, 0.000, 16:16:43.180
25, 5.05, 6.70, 10.09, 12.02, 0.000, 0.000, 0.000, 16:16:43.181
26, 10.16, 8.20, 9.42, 10.23, 0.000, 0.000, 0.000, 16:16:43.181
27, 3.98, 2.30, 11.04, 12.77, 0.000, 0.000, 0.000, 16:16:43.203
28, 6.53, 8.96, 9.66, 7.87, 0.000, 0.000, 0.000, 16:16:43.203
29, 10.33, 11.97, 11.63, 9.30, 0.000, 0.000, 0.000, 16:16:43.203
30, 4.84, 7.61, 17.33, 14.77, 0.000, 0.000, 0.000, 16:16:43.204
31, 3.24, 7.18, 15.17, 12.30, 0.000, 0.000, 0.000, 16:16:43.204
32, 14.68, 9.63, 6.89, 13.24, 0.000, 0.000, 0.000, 16:16:43.204
33, 5.94, 13.00, 13.40, 13.53, 0.000, 0.000, 0.000, 16:16:43.225
34, -2.85, 2.80, 11.84, 14.08, 0.000, 0.000, 0.000, 16:16:43.225
35, 6.23, 11.24, 9.38, 13.64, 0.000, 0.000, 0.000, 16:16:43.226
36, 9.59, 12.24, 13.82, 14.12, 0.000, 0.000, 0.000, 16:16:43.226
37, 2.15, 2.17, 10.83, 14.43, 0.000, 0.000, 0.000, 16:16:43.248
38, 3.99, 6.51, 9.22, 11.29, 0.000, 0.000, 0.000, 16:16:43.249
39, 13.06, 11.40, 9.67, 10.71, 0.000, 0.000, 0.000, 16:16:43.249
40, -2.67, 5.72, 11.13, 16.64, 0.000, 0.000, 0.000, 16:16:43.249
41, 5.14, 4.90, 10.53, 9.13, 0.000, 0.000, 0.000, 16:16:43.270
42, 16.49, 13.14, 7.42, 9.33, 0.000, 0.000, 0.000, 16:16:43.270
43, 1.44, 3.67, 14.16, 15.13, 0.000, 0.000, 0.000, 16:16:43.271
44, 4.22, 8.04, 11.57, 12.32, 0.000, 0.000, 0.000, 16:16:43.271
45, 9.55, 13.13, 9.02, 12.30, 0.000, 0.000, 0.000, 16:16:43.293
46, 11.98, 14.12, 10.94, 9.75, 0.000, 0.000, 0.000, 16:16:43.293
47, 1.46, 2.72, 15.72, 8.87, 0.000, 0.000, 0.000, 16:16:43.293
48, 6.19, 7.01, 10.86, 11.63, 0.000, 0.000, 0.000, 16:16:43.293
49, 14.31, 9.53, 7.22, 11.53, 0.000, 0.000, 0.000, 16:16:43.294
50, 0.56, 5.19, 15.67, 14.85, 0.000, 0.000, 0.000, 16:16:43.294
51, 7.56, 10.58, 7.53, 10.33, 0.000, 0.000, 0.000, 16:16:43.315
52, 7.75, 11.03, 9.58, 9.28, 0.000, 0.000, 0.000, 16:16:43.316
53, 4.12, 7.12, 14.46, 11.10, 0.000, 0.000, 0.000, 16:16:43.316
54, 5.86, 4.76, 12.67, 12.33, 0.000, 0.000, 0.000, 16:16:43.316
55, 10.84, 12.49, 12.86, 10.03, 0.000, 0.000, 0.000, 16:16:43.338
56, 6.83, 10.95, 11.37, 13.26, 0.000, 0.000, 0.000, 16:16:43.338
57, 1.63, 5.25, 11.99, 16.63, 0.000, 0.000, 0.000, 16:16:43.338
58, 8.06, 6.94, 11.17, 7.18, 0.000, 0.000, 0.000, 16:16:43.338
59, 10.04, 12.45, 10.14, 11.28, 0.000, 0.000, 0.000, 16:16:43.360
60, 3.88, 5.92, 7.91, 12.97, 0.000, 0.000, 0.000, 16:16:43.361
61, 1.05, 2.35, 10.87, 16.31, 0.000, 0.000, 0.000, 16:16:43.361
62, 10.16, 11.52, 7.94, 12.59, 0.000, 0.000, 0.000, 16:16:43.361
63, 4.31, 9.94, 13.52, 11.63, 0.000, 0.000, 0.000, 16:16:43.383
64, 5.21, 6.97, 11.31, 13.00, 0.000, 0.000, 0.000, 16:16:43.383
65, 8.46, 8.01, 12.45, 12.58, 0.000, 0.000, 0.000, 16:16:43.383
66, 9.85, 12.26, 10.18, 14.11, 0.000, 0.000, 0.000, 16:16:43.384
67, 1.22, 5.74, 9.77, 11.07, 0.000, 0.000, 0.000, 16:16:43.384
68, 6.48, 9.47, 10.26, 10.45, 0.000, 0.000, 0.000, 16:16:43.384
69, 10.86, 17.15, 13.12, 12.40, 0.000, 0.000, 0.000, 16:16:43.405
70, 0.62, 2.85, 13.40, 14.29, 0.000, 0.000, 0.000, 16:16:43.405
71, 6.05, 5.52, 8.54, 8.84, 0.000, 0.000, 0.000, 16:16:43.406
72, 5.49, 7.62, 9.77, 13.48, 0.000, 0.000, 0.000, 16:16:43.406
73, 5.87, 8.15, 13.30, 13.75, 0.000, 0.000, 0.000, 16:16:43.428
74, 2.96, 4.13, 14.41, 10.60, 0.000, 0.000, 0.000, 16:16:43.428
75, 10.23, 13.62, 13.10, 11.02, 0.000, 0.000, 0.000, 16:16:43.428
76, 7.12, 9.51, 12.75, 12.35, 0.000, 0.000, 0.000, 16:16:43.428
77, 3.35, 6.03, 12.31, 11.59, 0.000, 0.000, 0.000, 16:16:43.451
78, 14.41, 13.19, 6.93, 11.66, 0.000, 0.000, 0.000, 16:16:43.451
79, 7.95, 7.84, 10.90, 12.17, 0.000, 0.000, 0.000, 16:16:43.451
80, 6.86, 5.87, 15.53, 15.61, 0.000, 0.000, 0.000, 16:16:43.452
81, 4.92, 9.64, 10.27, 11.75, 0.000, 0.000, 0.000, 16:16:43.473
82, 8.71, 10.37, 9.36, 12.86, 0.000, 0.000, 0.000, 16:16:43.474
83, 6.51, 5.38, 11.83, 13.07, 0.000, 0.000, 0.000, 16:16:43.474
84, 9.07, 4.59, 11.28, 8.84, 0.000, 0.000, 0.000, 16:16:43.474
85, 13.71, 9.27, 7.88, 8.96, 0.000, 0.000, 0.000, 16:16:43.474
86, 10.41, 11.50, 8.57, 11.90, 0.000, 0.000, 0.000, 16:16:43.474
87, 1.71, 8.07, 14.66, 13.22, 0.000, 0.000, 0.000, 16:16:43.495
88, 3.88, 5.57, 6.10, 9.18, 0.000, 0.000, 0.000, 16:16:43.496
89, 15.46, 15.95, 7.06, 4.22, 0.000, 0.000, 0.000, 16:16:43.496
90, 1.10, 1.45, 10.86, 13.05, 0.000, 0.000, 0.000, 16:16:43.496
91, 2.15, 9.66, 11.51, 10.10, 0.000, 0.000, 0.000, 16:16:43.518
92, 6.47, 12.50, 10.37, 11.27, 0.000, 0.000, 0.000, 16:16:43.518
93, 5.53, 8.52, 11.07, 13.40, 0.000, 0.000, 0.000, 16:16:43.518
94, 3.99, 5.91, 13.38, 12.55, 0.000, 0.000, 0.000, 16:16:43.519
95, 12.54, 8.01, 11.67, 11.71, 0.000, 0.000, 0.000, 16:16:43.540
96, 9.61, 16.42, 12.43, 11.39, 0.000, 0.000, 0.000, 16:16:43.540
97, -4.92, 4.04, 12.31, 13.85, 0.000, 0.000, 0.000, 16:16:43.541
98, 6.53, 10.08, 12.52, 11.52, 0.000, 0.000, 0.000, 16:16:43.541
99, 6.68, 11.69, 9.77, 11.68, 0.000, 0.000, 0.000, 16:16:43.563
100, 1.79, 3.30, 15.11, 13.72, 0.000, 0.000, 0.000, 16:16:43.563
101, 2.91, 5.78, 8.92, 11.70, 0.000, 0.000, 0.000, 16:16:43.563
102, 8.57, 10.76, 11.42, 12.39, 0.000, 0.000, 0.000, 16:16:43.563
103, 7.02, 2.97, 10.83, 15.44, 0.000, 0.000, 0.000, 16:16:43.564
104, 0.68, 4.09, 11.69, 12.50, 0.000, 0.000, 0.000, 16:16:43.564
105, 11.66, 10.11, 9.23, 14.62, 0.000, 0.000, 0.000, 16:16:43.585
106, 7.64, 10.70, 11.88, 13.10, 0.000, 0.000, 0.000, 16:16:43.586
107, 4.56, 3.89, 12.01, 12.49, 0.000, 0.000, 0.000, 16:16:43.586
108, 6.59, 9.66, 8.50, 12.08, 0.000, 0.000, 0.000, 16:16:43.586
109, 11.78, 11.41, 10.31, 13.56, 0.000, 0.000, 0.000, 16:16:43.608
110, 2.80, 3.87, 12.11, 12.02, 0.000, 0.000, 0.000, 16:16:43.608
111, 5.17, 5.94, 10.46, 11.36, 0.000, 0.000, 0.000, 16:16:43.609
112, 14.03, 11.05, 8.98, 9.33, 0.000, 0.000, 0.000, 16:16:43.610
113, 5.33, 7.53, 15.28, 15.25, 0.000, 0.000, 0.000, 16:16:43.630
114, 8.75, 8.74, 11.86, 8.71, 0.000, 0.000, 0.000, 16:16:43.631
115, 5.02, 7.18, 9.15, 11.15, 0.000, 0.000, 0.000, 16:16:43.631
116, 12.07, 9.66, 11.30, 7.75, 0.000, 0.000, 0.000, 16:16:43.631
117, 1.70, 7.63, 14.39, 15.88, 0.000, 0.000, 0.000, 16:16:43.653
118, 4.96, 9.65, 8.61, 8.12, 0.000, 0.000, 0.000, 16:16:43.653
119, 7.97, 10.63, 9.85, 8.32, 0.000, 0.000, 0.000, 16:16:43.653
120, 2.82, 8.65, 11.60, 14.60, 0.000, 0.000, 0.000, 16:16:43.653
121, 2.83, 7.20, 7.58, 13.56, 0.000, 0.000, 0.000, 16:16:43.654
122, 6.71, 12.91, 10.71, 12.78, 0.000, 0.000, 0.000, 16:16:43.654
123, 9.30, 12.37, 13.00, 13.78, 0.000, 0.000, 0.000, 16:16:43.675
124, -1.30, 4.25, 11.14, 12.32, 0.000, 0.000, 0.000, 16:16:43.676
125, 9.72, 6.04, 8.45, 6.84, 0.000, 0.000, 0.000, 16:16:43.676
126, 10.40, 13.04, 9.69, 14.60, 0.000, 0.000, 0.000, 16:16:43.676
127, -0.23, 0.70, 11.83, 11.80, 0.000, 0.000, 0.000, 16:16:43.698
128, 5.99, 9.23, 11.85, 11.88, 0.000, 0.000, 0.000, 16:16:43.698
129, 10.11, 12.38, 7.78, 14.01, 0.000, 0.000, 0.000, 16:16:43.698
130, 2.75, 7.61, 10.39, 14.19, 0.000, 0.000, 0.000, 16:16:43.699
131, 3.90, 7.45, 11.39, 10.76, 0.000, 0.000, 0.000, 16:16:43.720
132, 14.97, 12.88, 11.10, 9.82, 0.000, 0.000, 0.000, 16:16:43.720
133, -1.74, 1.53, 13.76, 13.70, 0.000, 0.000, 0.000, 16:16:43.721
134, -0.10, 3.75, 13.24, 10.54, 0.000, 0.000, 0.000, 16:16:43.721
135, 9.57, 10.34, 5.47, 15.39, 0.000, 0.000, 0.000, 16:16:43.743
136, 11.44, 9.66, 9.75, 13.33, 0.000, 0.000, 0.000, 16:16:43.743
137, -2.88, 2.91, 14.84, 14.77, 0.000, 0.000, 0.000, 16:16:43.744
138, 6.64, 10.77, 9.73, 8.89, 0.000, 0.000, 0.000, 16:16:43.745
139, 11.34, 10.37, 10.98, 12.03, 0.000, 0.000, 0.000, 16:16:43.745
140, 5.38, 6.60, 10.35, 12.98, 0.000, 0.000, 0.000, 16:16:43.745
141, 11.39, 8.01, 9.74, 13.31, 0.000, 0.000, 0.000, 16:16:43.765
142, 7.15, 9.52, 9.63, 10.68, 0.000, 0.000, 0.000, 16:16:43.765
143, 4.62, 7.88, 14.95, 13.18, 0.000, 0.000, 0.000, 16:16:43.766
144, 1.99, 6.43, 11.62, 12.07, 0.000, 0.000, 0.000, 16:16:43.766
145, 9.44, 6.76, 11.23, 12.84, 0.000, 0.000, 0.000, 16:16:43.788
146, 5.89, 7.73, 8.95, 16.32, 0.000, 0.000, 0.000, 16:16:43.788
147, 0.71, 6.58, 14.06, 13.19, 0.000, 0.000, 0.000, 16:16:43.788
148, 4.62, 7.84, 9.08, 6.13, 0.000, 0.000, 0.000, 16:16:43.789
149, 13.33, 10.03, 14.34, 14.56, 0.000, 0.000, 0.000, 16:16:43.810
150, 6.03, 10.84, 13.09, 14.72, 0.000, 0.000, 0.000, 16:16:43.811
151, 2.02, 5.71, 14.49, 14.73, 0.000, 0.000, 0.000, 16:16:43.811
152, 7.11, 8.20, 9.62, 7.13, 0.000, 0.000, 0.000, 16:16:43.811
153, 8.20, 11.23, 10.32, 12.32, 0.000, 0.000, 0.000, 16:16:43.833
154, 5.05, 6.38, 10.38, 14.55, 0.000, 0.000, 0.000, 16:16:43.833
155, 6.95, 6.92, 8.55, 7.84, 0.000, 0.000, 0.000, 16:16:43.834
156, 8.57, 12.98, 9.22, 11.43, 0.000, 0.000, 0.000, 16:16:43.835
157, -1.24, 6.15, 14.05, 9.90, 0.000, 0.000, 0.000, 16:16:43.835
158, 9.66, 9.34, 8.79, 9.10, 0.000, 0.000, 0.000, 16:16:43.836
159, 14.51, 14.37, 7.99, 11.75, 0.000, 0.000, 0.000, 16:16:43.855
160, -0.73, 3.79, 14.09, 12.98, 0.000, 0.000, 0.000, 16:16:43.856
161, 2.25, 7.67, 9.42, 10.11, 0.000, 0.000, 0.000, 16:16:43.856
162, 11.32, 12.11, 11.25, 10.44, 0.000, 0.000, 0.000, 16:16:43.856
163, 5.52, 12.19, 15.36, 14.84, 0.000, 0.000, 0.000, 16:16:43.878
164, -0.50, 2.63, 9.87, 11.95, 0.000, 0.000, 0.000, 16:16:43.878
165, 7.17, 11.93, 7.59, 9.39, 0.000, 0.000, 0.000, 16:16:43.879
166, 7.74, 5.56, 10.22, 13.09, 0.000, 0.000, 0.000, 16:16:43.879
167, 2.73, 2.76, 16.32, 12.20, 0.000, 0.000, 0.000, 16:16:43.901
168, 11.03, 13.10, 11.24, 11.92, 0.000, 0.000, 0.000, 16:16:43.901
169, 9.61, 9.92, 6.91, 10.13, 0.000, 0.000, 0.000, 16:16:43.901
170, 4.65, 3.65, 12.31, 12.13, 0.000, 0.000, 0.000, 16:16:43.901
171, 8.03, 6.59, 12.77, 10.62, 0.000, 0.000, 0.000, 16:16:43.924
172, 12.81, 8.11, 10.40, 10.56, 0.000, 0.000, 0.000, 16:16:43.924
173, 7.02, 6.16, 13.61, 11.91, 0.000, 0.000, 0.000, 16:16:43.924
174, 6.77, 8.03, 10.92, 11.67, 0.000, 0.000, 0.000, 16:16:43.924
175, 8.32, 13.92, 9.55, 9.58, 0.000, 0.000, 0.000, 16:16:43.925
176, 5.84, 9.34, 11.76, 15.14, 0.000, 0.000, 0.000, 16:16:43.925
177, 4.20, 8.29, 15.27, 8.43, 0.000, 0.000, 0.000, 16:16:43.945
178, 3.14, 6.83, 9.00, 10.79, 0.000, 0.000, 0.000, 16:16:43.946
179, 8.55, 11.06, 10.49, 13.73, 0.000, 0.000, 0.000, 16:16:43.946
180, 5.41, 5.65, 11.72, 11.36, 0.000, 0.000, 0.000, 16:16:43.946
181, 4.06, 10.47, 12.09, 10.06, 0.000, 0.000, 0.000, 16:16:43.968
182, 10.03, 12.15, 9.49, 13.26, 0.000, 0.000, 0.000, 16:16:43.968
183, 7.63, 5.85, 12.70, 11.91, 0.000, 0.000, 0.000, 16:16:43.969
184, 5.98, 5.94, 13.27, 13.67, 0.000, 0.000, 0.000, 16:16:43.969
185, 5.69, 11.66, 14.04, 7.32, 0.000, 0.000, 0.000, 16:16:43.990
186, 10.47, 15.45, 12.61, 11.47, 0.000, 0.000, 0.000, 16:16:43.991
187, -2.42, -0.05, 13.48, 15.62, 0.000, 0.000, 0.000, 16:16:43.991
188, 7.20, 3.88, 10.34, 13.59, 0.000, 0.000, 0.000, 16:16:43.991
189, 10.37, 8.03, 13.18, 11.49, 0.000, 0.000, 0.000, 16:16:44.013
190, 2.47, 2.89, 12.07, 13.55, 0.000, 0.000, 0.000, 16:16:44.014
191, 4.32, 4.62, 8.49, 8.07, 0.000, 0.000, 0.000, 16:16:44.014
192, 11.22, 12.27, 7.81, 13.88, 0.000, 0.000, 0.000, 16:16:44.014
193, 4.97, 9.88, 15.55, 14.84, 0.000, 0.000, 0.000, 16:16:44.014
194, 1.50, 8.90, 11.26, 11.96, 0.000, 0.000, 0.000, 16:16:44.015
195, 12.97, 9.70, 13.60, 12.84, 0.000, 0.000, 0.000, 16:16:44.035
196, 5.43, 6.22, 10.74, 14.46, 0.000, 0.000, 0.000, 16:16:44.035
197, 3.32, 6.33, 12.08, 10.40, 0.000, 0.000, 0.000, 16:16:44.036
198, 7.79, 10.79, 11.25, 10.65, 0.000, 0.000, 0.000, 16:16:44.036
199, 11.65, 10.66, 13.58, 11.82, 0.000, 0.000, 0.000, 16:16:44.058
200, 4.62, 2.92, 12.30, 11.51, 0.000, 0.000, 0.000, 16:16:44.058
0, 5.29, 7.12, 8.90, 9.21, 0.000, 0.000, 0.000, 16:16:44.058
1, 8.63, 13.07, 10.40, 10.17, 0.000, 0.000, 0.000, 16:16:44.059
2, 6.84, 11.04, 13.35, 15.16, 0.000, 0.000, 0.000, 16:16:44.059
3, 6.12, 9.23, 8.24, 13.28, 0.000, 0.000, 0.000, 16:16:44.080
4, 7.19, 6.22, 11.00, 9.80, 0.000, 0.000, 0.000, 16:16:44.081
5, 6.60, 7.21, 10.36, 12.28, 0.000, 0.000, 0.000, 16:16:44.081
6, 2.69, 4.56, 11.38, 14.72, 0.000, 0.000, 0.000, 16:16:44.081
7, 5.62, 10.37, 8.98, 12.49, 0.000, 0.000, 0.000, 16:16:44.103
8, 4.33, 8.59, 11.42, 13.84, 0.000, 0.000, 0.000, 16:16:44.103
9, 3.13, 4.91, 11.95, 8.08, 0.000, 0.000, 0.000, 16:16:44.103
10, 5.18, 6.15, 10.96, 9.42, 0.000, 0.000, 0.000, 16:16:44.103
11, 12.77, 14.81, 7.98, 10.10, 0.000, 0.000, 0.000, 16:16:44.125
12, 12.35, 9.30, 8.83, 12.28, 0.000, 0.000, 0.000, 16:16:44.125
13, -1.89, 0.76, 12.33, 13.04, 0.000, 0.000, 0.000, 16:16:44.126
14, 10.41, 12.66, 8.53, 11.90, 0.000, 0.000, 0.000, 16:16:44.126
15, 6.22, 14.95, 9.61, 10.90, 0.000, 0.000, 0.000, 16:16:44.148
16, 1.25, 6.13, 9.42, 12.92, 0.000, 0.000, 0.000, 16:16:44.148
17, 6.29, 6.96, 12.50, 12.63, 0.000, 0.000, 0.000, 16:16:44.148
18, 12.01, 11.08, 7.40, 11.58, 0.000, 0.000, 0.000, 16:16:44.149
19, 3.61, 4.10, 13.33, 14.51, 0.000, 0.000, 0.000, 16:16:44.149
20, 4.70, 8.49, 10.93, 11.56, 0.000, 0.000, 0.000, 16:16:44.149
21, 11.59, 15.25, 10.91, 15.15, 0.000, 0.000, 0.000, 16:16:44.170
22, 5.57, 5.15, 14.09, 16.59, 0.000, 0.000, 0.000, 16:16:44.170
23, 2.52, 5.05, 12.03, 11.81, 0.000, 0.000, 0.000, 16:16:44.171
24, 6.99, 13.57, 6.07, 10.48, 0.000, 0.000, 0.000, 16:16:44.171
25, 8.51, 9.20, 9.02, 10.72, 0.000, 0.000, 0.000, 16:16:44.193
26, 2.18, 2.69, 13.52, 13.68, 0.000, 0.000, 0.000, 16:16:44.193
27, 6.45, 8.71, 8.98, 10.45, 0.000, 0.000, 0.000, 16:16:44.193
28, 9.11, 12.04, 9.53, 12.72, 0.000, 0.000, 0.000, 16:16:44.193
29, 5.29, 4.95, 11.73, 12.15, 0.000, 0.000, 0.000, 16:16:44.215
30, 12.54, 10.07, 12.73, 10.62, 0.000, 0.000, 0.000, 16:16:44.216
31, 7.67, 9.28, 12.58, 9.39, 0.000, 0.000, 0.000, 16:16:44.216
32, -0.76, 7.65, 14.23, 13.70, 0.000, 0.000, 0.000, 16:16:44.216
33, 4.17, 6.01, 9.56, 7.55, 0.000, 0.000, 0.000, 16:16:44.238
34, 10.42, 10.10, 13.65, 6.94, 0.000, 0.000, 0.000, 16:16:44.238
35, 11.71, 4.95, 14.13, 14.42, 0.000, 0.000, 0.000, 16:16:44.238
36, 4.57, 4.36, 11.81, 14.52, 0.000, 0.000, 0.000, 16:16:44.239
37, 5.84, 12.57, 10.60, 7.91, 0.000, 0.000, 0.000, 16:16:44.239
38, 5.68, 11.73, 7.58, 11.47, 0.000, 0.000, 0.000, 16:16:44.239
39, 7.44, 10.30, 9.02, 17.56, 0.000, 0.000, 0.000, 16:16:44.260
40, -1.38, 3.89, 10.56, 15.10, 0.000, 0.000, 0.000, 16:16:44.260
41, 12.43, 10.39, 8.82, 12.11, 0.000, 0.000, 0.000, 16:16:44.261
42, 9.08, 5.98, 11.51, 14.45, 0.000, 0.000, 0.000, 16:16:44.261
43, 4.09, 7.36, 13.12, 11.09, 0.000, 0.000, 0.000, 16:16:44.283
44, 9.13, 9.94, 10.43, 11.54, 0.000, 0.000, 0.000, 16:16:44.283
45, 10.36, 15.04, 10.27, 12.67, 0.000, 0.000, 0.000, 16:16:44.283
46, 6.50, 8.58, 11.68, 16.77, 0.000, 0.000, 0.000, 16:16:44.284
47, 7.93, 6.07, 8.37, 9.38, 0.000, 0.000, 0.000, 16:16:44.305
48, 16.59, 10.40, 8.35, 13.36, 0.000, 0.000, 0.000, 16:16:44.305
49, 1.22, 0.10, 12.06, 13.25, 0.000, 0.000, 0.000, 16:16:44.306
50, 6.91, 6.15, 9.69, 11.29, 0.000, 0.000, 0.000, 16:16:44.306
51, 9.56, 15.59, 13.05, 8.44, 0.000, 0.000, 0.000, 16:16:44.328
52, 6.42, 6.34, 12.89, 12.52, 0.000, 0.000, 0.000, 16:16:44.328
53, -1.20, 6.59, 14.58, 12.96, 0.000, 0.000, 0.000, 16:16:44.328
54, 10.31, 15.78, 6.69, 10.47, 0.000, 0.000, 0.000, 16:16:44.328
55, 5.11, 8.87, 10.52, 15.00, 0.000, 0.000, 0.000, 16:16:44.329
56, -2.63, 4.84, 9.94, 13.60, 0.000, 0.000, 0.000, 16:16:44.329
57, 13.59, 9.55, 11.63, 10.37, 0.000, 0.000, 0.000, 16:16:44.350
58, 6.25, 9.44, 11.34, 10.62, 0.000, 0.000, 0.000, 16:16:44.350
59, 0.10, 4.59, 12.41, 12.90, 0.000, 0.000, 0.000, 16:16:44.351
60, 4.94, 7.20, 11.08, 10.72, 0.000, 0.000, 0.000, 16:16:44.351
61, 12.69, 14.33, 10.25, 6.91, 0.000, 0.000, 0.000, 16:16:44.373
62, 1.29, 3.21, 11.81, 15.12, 0.000, 0.000, 0.000, 16:16:44.373
63, 5.12, 5.88, 10.60, 13.38, 0.000, 0.000, 0.000, 16:16:44.373
64, 7.20, 10.46, 8.74, 11.60, 0.000, 0.000, 0.000, 16:16:44.373
65, 9.36, 10.25, 7.73, 11.81, 0.000, 0.000, 0.000, 16:16:44.396
66, 6.95, 7.04, 12.55, 9.26, 0.000, 0.000, 0.000, 16:16:44.396
67, -1.78, 5.80, 15.32, 11.51, 0.000, 0.000, 0.000, 16:16:44.396
68, 11.02, 16.11, 9.36, 11.41, 0.000, 0.000, 0.000, 16:16:44.396
69, 2.16, 4.36, 15.07, 13.18, 0.000, 0.000, 0.000, 16:16:44.418
70, 7.97, 5.21, 10.56, 10.03, 0.000, 0.000, 0.000, 16:16:44.418
71, 7.48, 15.11, 10.29, 11.88, 0.000, 0.000, 0.000, 16:16:44.418
72, 4.01, 11.94, 13.63, 15.32, 0.000, 0.000, 0.000, 16:16:44.418
73, 6.52, 6.03, 15.10, 15.80, 0.000, 0.000, 0.000, 16:16:44.421
74, 12.50, 10.81, 10.60, 10.60, 0.000, 0.000, 0.000, 16:16:44.421
75, 9.26, 7.56, 9.43, 18.40, 0.000, 0.000, 0.000, 16:16:44.441
76, -4.87, 2.29, 10.51, 15.00, 0.000, 0.000, 0.000, 16:16:44.441
77, 4.85, 8.57, 10.91, 9.49, 0.000, 0.000, 0.000, 16:16:44.463
78, 13.23, 14.03, 11.29, 8.55, 0.000, 0.000, 0.000, 16:16:44.463
79, 3.81, 6.67, 11.72, 12.38, 0.000, 0.000, 0.000, 16:16:44.463
80, 9.09, 9.24, 9.18, 13.01, 0.000, 0.000, 0.000, 16:16:44.463
81, 14.38, 7.96, 8.83, 10.09, 0.000, 0.000, 0.000, 16:16:44.464
82, 4.44, 7.81, 12.48, 12.45, 0.000, 0.000, 0.000, 16:16:44.464
83, 1.51, 6.88, 9.29, 12.54, 0.000, 0.000, 0.000, 16:16:44.485
84, 10.46, 12.70, 8.32, 11.50, 0.000, 0.000, 0.000, 16:16:44.485
85, 6.01, 7.58, 12.32, 11.84, 0.000, 0.000, 0.000, 16:16:44.486
86, 2.57, 3.67, 13.50, 13.77, 0.000, 0.000, 0.000, 16:16:44.486
87, 5.54, 10.31, 9.80, 7.47, 0.000, 0.000, 0.000, 16:16:44.508
88, 12.42, 14.39, 8.33, 9.41, 0.000, 0.000, 0.000, 16:16:44.508
89, 3.81, 3.75, 12.04, 11.88, 0.000, 0.000, 0.000, 16:16:44.508
90, 3.62, 2.96, 12.21, 8.94, 0.000, 0.000, 0.000, 16:16:44.508
91, 9.90, 9.42, 9.68, 12.32, 0.000, 0.000, 0.000, 16:16:44.509
92, 5.23, 9.53, 10.52, 12.63, 0.000, 0.000, 0.000, 16:16:44.509
93, 5.44, 8.87, 9.33, 10.53, 0.000, 0.000, 0.000, 16:16:44.530
94, 4.39, 9.73, 8.44, 12.08, 0.000, 0.000, 0.000, 16:16:44.530
95, 8.19, 13.34, 12.26, 10.84, 0.000, 0.000, 0.000, 16:16:44.531
96, 2.92, 0.27, 13.27, 14.19, 0.000, 0.000, 0.000, 16:16:44.531
97, 5.35, 7.64, 12.09, 7.32, 0.000, 0.000, 0.000, 16:16:44.553
98, 10.70, 6.93, 8.89, 11.74, 0.000, 0.000, 0.000, 16:16:44.553
99, 4.45, 3.99, 11.54, 17.92, 0.000, 0.000, 0.000, 16:16:44.554
100, 7.91, 6.68, 10.64, 9.24, 0.000, 0.000, 0.000, 16:16:44.554
101, 6.30, 13.93, 12.78, 11.49, 0.000, 0.000, 0.000, 16:16:44.575
102, 12.73, 13.75, 12.76, 11.97, 0.000, 0.000, 0.000, 16:16:44.575
103, -3.56, 2.12, 11.87, 12.93, 0.000, 0.000, 0.000, 16:16:44.575
104, 8.32, 14.49, 10.07, 9.77, 0.000, 0.000, 0.000, 16:16:44.576
105, 5.56, 8.39, 12.00, 12.41, 0.000, 0.000, 0.000, 16:16:44.598
106, 2.27, 7.84, 13.42, 13.96, 0.000, 0.000, 0.000, 16:16:44.598
107, 6.50, 8.34, 8.59, 9.86, 0.000, 0.000, 0.000, 16:16:44.598
108, 8.74, 10.94, 11.83, 13.20, 0.000, 0.000, 0.000, 16:16:44.599
109, 1.88, 8.25, 15.42, 15.90, 0.000, 0.000, 0.000, 16:16:44.599
110, 5.80, 5.67, 10.80, 8.08, 0.000, 0.000, 0.000, 16:16:44.599
111, 11.78, 15.66, 8.90, 10.09, 0.000, 0.000, 0.000, 16:16:44.620
112, 2.13, 4.86, 14.66, 14.00, 0.000, 0.000, 0.000, 16:16:44.620
113, 1.25, 5.65, 5.43, 10.22, 0.000, 0.000, 0.000, 16:16:44.621
114, 7.53, 10.75, 11.03, 8.20, 0.000, 0.000, 0.000, 16:16:44.621
115, 9.89, 12.01, 12.57, 11.98, 0.000, 0.000, 0.000, 16:16:44.643
116, 2.04, 5.22, 11.74, 13.93, 0.000, 0.000, 0.000, 16:16:44.643
117, 9.34, 10.54, 9.89, 7.26, 0.000, 0.000, 0.000, 16:16:44.643
118, 12.27, 12.23, 12.18, 12.20, 0.000, 0.000, 0.000, 16:16:44.643
119, 1.62, 2.96, 11.10, 14.73, 0.000, 0.000, 0.000, 16:16:44.665
120, 14.51, 12.81, 7.41, 12.42, 0.000, 0.000, 0.000, 16:16:44.666
121, 10.15, 7.07, 11.64, 11.13, 0.000, 0.000, 0.000, 16:16:44.666
122, 5.00, 7.48, 14.14, 10.16, 0.000, 0.000, 0.000, 16:16:44.666
123, 1.45, 3.53, 9.31, 11.84, 0.000, 0.000, 0.000, 16:16:44.688
124, 7.92, 11.39, 8.64, 9.11, 0.000, 0.000, 0.000, 16:16:44.688
125, 8.20, 8.23, 11.52, 13.47, 0.000, 0.000, 0.000, 16:16:44.688
126, 2.20, 1.61, 12.01, 13.14, 0.000, 0.000, 0.000, 16:16:44.689
127, 9.57, 6.41, 13.40, 13.69, 0.000, 0.000, 0.000, 16:16:44.689
128, 4.52, 12.44, 10.05, 11.20, 0.000, 0.000, 0.000, 16:16:44.689
129, 6.25, 9.66, 13.10, 15.27, 0.000, 0.000, 0.000, 16:16:44.710
130, 0.53, 7.18, 11.75, 12.98, 0.000, 0.000, 0.000, 16:16:44.710
131, 8.94, 9.89, 9.16, 10.71, 0.000, 0.000, 0.000, 16:16:44.711
132, 1.57, 5.38, 11.80, 13.50, 0.000, 0.000, 0.000, 16:16:44.711
133, 3.19, 7.87, 9.88, 15.49, 0.000, 0.000, 0.000, 16:16:44.733
134, 8.74, 6.65, 9.98, 11.49, 0.000, 0.000, 0.000, 16:16:44.733
135, 11.86, 11.11, 10.77, 15.48, 0.000, 0.000, 0.000, 16:16:44.733
136, 1.53, 5.27, 13.86, 11.87, 0.000, 0.000, 0.000, 16:16:44.733
137, 5.32, 11.54, 10.74, 12.65, 0.000, 0.000, 0.000, 16:16:44.755
138, 17.32, 15.03, 9.24, 8.54, 0.000, 0.000, 0.000, 16:16:44.755
139, 0.17, 1.71, 14.05, 15.52, 0.000, 0.000, 0.000, 16:16:44.756
140, 6.80, 7.21, 9.25, 14.97, 0.000, 0.000, 0.000, 16:16:44.756
141, 13.58, 12.63, 10.23, 11.23, 0.000, 0.000, 0.000, 16:16:44.778
142, 5.60, 6.53, 14.80, 10.18, 0.000, 0.000, 0.000, 16:16:44.778
143, 0.84, 4.67, 14.22, 11.72, 0.000, 0.000, 0.000, 16:16:44.778
144, 12.00, 10.23, 10.63, 7.43, 0.000, 0.000, 0.000, 16:16:44.778
145, 12.68, 7.11, 12.60, 16.04, 0.000, 0.000, 0.000, 16:16:44.779
146, 2.89, 7.67, 9.50, 13.06, 0.000, 0.000, 0.000, 16:16:44.779
147, 11.57, 13.74, 7.45, 11.08, 0.000, 0.000, 0.000, 16:16:44.800
148, 11.87, 11.62, 9.80, 10.64, 0.000, 0.000, 0.000, 16:16:44.800
149, 4.07, 6.16, 14.66, 13.57, 0.000, 0.000, 0.000, 16:16:44.801
150, 2.74, 7.05, 9.91, 10.94, 0.000, 0.000, 0.000, 16:16:44.801
151, 10.24, 14.45, 10.55, 12.28, 0.000, 0.000, 0.000, 16:16:44.823
152, 2.77, 9.45, 12.75, 8.16, 0.000, 0.000, 0.000, 16:16:44.823
153, 2.78, 8.69, 9.55, 13.92, 0.000, 0.000, 0.000, 16:16:44.823
154, 9.73, 12.08, 10.96, 11.94, 0.000, 0.000, 0.000, 16:16:44.824
155, 6.20, 6.66, 7.38, 13.51, 0.000, 0.000, 0.000, 16:16:44.845
156, 4.63, 6.55, 11.14, 11.80, 0.000, 0.000, 0.000, 16:16:44.846
157, -0.13, 3.41, 15.14, 11.35, 0.000, 0.000, 0.000, 16:16:44.846
158, 9.33, 12.29, 10.91, 7.40, 0.000, 0.000, 0.000, 16:16:44.846
159, 1.93, 4.96, 13.45, 16.34, 0.000, 0.000, 0.000, 16:16:44.868
160, 7.65, 4.65, 8.72, 11.18, 0.000, 0.000, 0.000, 16:16:44.868
161, 7.69, 10.24, 7.72, 10.80, 0.000, 0.000, 0.000, 16:16:44.869
162, 5.78, 11.16, 12.83, 14.30, 0.000, 0.000, 0.000, 16:16:44.869
163, 2.98, 5.78, 10.77, 7.06, 0.000, 0.000, 0.000, 16:16:44.869
164, 6.23, 9.41, 10.40, 4.53, 0.000, 0.000, 0.000, 16:16:44.870
165, 14.10, 12.15, 12.34, 14.46, 0.000, 0.000, 0.000, 16:16:44.890
166, 3.38, 1.94, 10.94, 11.62, 0.000, 0.000, 0.000, 16:16:44.891
167, 7.34, 8.65, 12.45, 11.44, 0.000, 0.000, 0.000, 16:16:44.891
168, 8.81, 12.70, 7.46, 12.87, 0.000, 0.000, 0.000, 16:16:44.891
169, 1.57, 9.10, 17.35, 16.20, 0.000, 0.000, 0.000, 16:16:44.913
170, 4.24, 6.79, 10.33, 11.76, 0.000, 0.000, 0.000, 16:16:44.913
171, 9.21, 12.96, 8.18, 9.01, 0.000, 0.000, 0.000, 16:16:44.913
172, 6.69, 5.16, 12.98, 13.73, 0.000, 0.000, 0.000, 16:16:44.914
173, 5.68, 6.80, 10.80, 16.93, 0.000, 0.000, 0.000, 16:16:44.935
174, 13.72, 13.36, 6.59, 6.95, 0.000, 0.000, 0.000, 16:16:44.936
175, 3.61, 5.98, 13.21, 12.09, 0.000, 0.000, 0.000, 16:16:44.936
176, 1.92, 4.82, 17.26, 14.23, 0.000, 0.000, 0.000, 16:16:44.936
177, 11.18, 6.48, 10.41, 12.17, 0.000, 0.000, 0.000, 16:16:44.958
178, 9.26, 12.66, 11.98, 14.29, 0.000, 0.000, 0.000, 16:16:44.958
179, 2.63, 5.40, 12.64, 14.41, 0.000, 0.000, 0.000, 16:16:44.959
180, 5.85, 10.55, 10.96, 10.14, 0.000, 0.000, 0.000, 16:16:44.959
181, 7.60, 10.89, 9.16, 9.85, 0.000, 0.000, 0.000, 16:16:44.959
182, 5.37, 8.67, 11.78, 13.77, 0.000, 0.000, 0.000, 16:16:44.960
183, 6.90, 9.00, 13.25, 12.76, 0.000, 0.000, 0.000, 16:16:44.980
184, 4.41, 6.67, 11.44, 9.54, 0.000, 0.000, 0.000, 16:16:44.981
185, 10.63, 8.03, 9.95, 13.60, 0.000, 0.000, 0.000, 16:16:44.981
186, 0.09, 4.82, 14.27, 11.44, 0.000, 0.000, 0.000, 16:16:44.981
187, 10.30, 9.25, 9.04, 11.18, 0.000, 0.000, 0.000, 16:16:45.004
188, 7.47, 9.33, 8.57, 12.47, 0.000, 0.000, 0.000, 16:16:45.004
189, -1.65, 5.52, 13.09, 10.54, 0.000, 0.000, 0.000, 16:16:45.005
190, 1.23, 6.20, 9.29, 10.57, 0.000, 0.000, 0.000, 16:16:45.005
191, 10.94, 13.02, 6.95, 10.00, 0.000, 0.000, 0.000, 16:16:45.025
192, 7.75, 14.32, 12.46, 13.03, 0.000, 0.000, 0.000, 16:16:45.025
193, 2.21, 2.84, 8.87, 12.28, 0.000, 0.000, 0.000, 16:16:45.026
194, 10.39, 8.37, 10.88, 7.20, 0.000, 0.000, 0.000, 16:16:45.026
195, 10.82, 9.95, 9.62, 9.66, 0.000, 0.000, 0.000, 16:16:45.048
196, 1.98, 5.94, 13.97, 13.03, 0.000, 0.000, 0.000, 16:16:45.048
197, 5.26, 6.09, 12.69, 14.34, 0.000, 0.000, 0.000, 16:16:45.048
198, 8.67, 10.06, 8.21, 9.86, 0.000, 0.000, 0.000, 16:16:45.048
199, 2.55, 7.60, 12.57, 14.57, 0.000, 0.000, 0.000, 16:16:45.049
200, 3.74, 7.12, 9.95, 14.87, 0.000, 0.000, 0.000, 16:16:45.049
0, 15.08, 13.73, 6.28, 14.04, 0.000, 0.000, 0.000, 16:16:45.070
1, 5.51, 4.89, 11.27, 15.39, 0.000, 0.000, 0.000, 16:16:45.071
2, 0.40, 3.93, 8.57, 11.28, 0.000, 0.000, 0.000, 16:16:45.071
3, 6.92, 9.50, 8.40, 9.50, 0.000, 0.000, 0.000, 16:16:45.093
4, 10.86, 8.55, 7.50, 12.98, 0.000, 0.000, 0.000, 16:16:45.093
5, 1.47, 2.74, 13.94, 12.99, 0.000, 0.000, 0.000, 16:16:45.095
6, 9.55, 12.00, 10.11, 8.54, 0.000, 0.000, 0.000, 16:16:45.095
7, 13.12, 11.80, 13.13, 9.01, 0.000, 0.000, 0.000, 16:16:45.095
8, -0.41, 3.37, 13.22, 15.19, 0.000, 0.000, 0.000, 16:16:45.095
9, 7.49, 7.27, 11.38, 10.42, 0.000, 0.000, 0.000, 16:16:45.115
10, 8.02, 8.37, 10.63, 12.48, 0.000, 0.000, 0.000, 16:16:45.115
11, 5.11, 10.17, 15.47, 14.71, 0.000, 0.000, 0.000, 16:16:45.116
12, 0.48, 6.63, 11.31, 12.88, 0.000, 0.000, 0.000, 16:16:45.116
13, 11.85, 11.14, 8.44, 11.02, 0.000, 0.000, 0.000, 16:16:45.138
14, 7.12, 10.16, 13.50, 9.16, 0.000, 0.000, 0.000, 16:16:45.138
15, 1.63, 3.61, 12.61, 11.28, 0.000, 0.000, 0.000, 16:16:45.138
16, 9.06, 10.48, 13.23, 9.49, 0.000, 0.000, 0.000, 16:16:45.138
17, 10.90, 9.50, 6.79, 11.74, 0.000, 0.000, 0.000, 16:16:45.160
18, 8.26, 10.15, 11.29, 13.75, 0.000, 0.000, 0.000, 16:16:45.160
19, -0.62, 4.95, 12.58, 11.71, 0.000, 0.000, 0.000, 16:16:45.161
20, 12.14, 14.74, 8.17, 6.51, 0.000, 0.000, 0.000, 16:16:45.161
21, 7.45, 11.40, 12.05, 12.79, 0.000, 0.000, 0.000, 16:16:45.183
22, 5.12, 6.92, 11.06, 13.07, 0.000, 0.000, 0.000, 16:16:45.183
23, 5.43, 7.78, 7.75, 11.80, 0.000, 0.000, 0.000, 16:16:45.183
24, 8.59, 8.08, 12.48, 14.33, 0.000, 0.000, 0.000, 16:16:45.183
25, 0.19, 2.68, 12.91, 15.85, 0.000, 0.000, 0.000, 16:16:45.184
26, 6.09, 10.94, 9.56, 11.53, 0.000, 0.000, 0.000, 16:16:45.184
27, 14.19, 16.44, 7.60, 10.35, 0.000, 0.000, 0.000, 16:16:45.205
28, -1.36, 1.74, 12.89, 12.14, 0.000, 0.000, 0.000, 16:16:45.205
29, 4.09, 3.69, 7.99, 10.54, 0.000, 0.000, 0.000, 16:16:45.206
30, 8.32, 7.76, 14.38, 12.17, 0.000, 0.000, 0.000, 16:16:45.206
31, 3.82, 6.11, 15.30, 15.70, 0.000, 0.000, 0.000, 16:16:45.228
32, -0.87, 3.38, 10.64, 13.85, 0.000, 0.000, 0.000, 16:16:45.228
33, 9.31, 9.02, 11.08, 8.64, 0.000, 0.000, 0.000, 16:16:45.228
34, 8.97, 9.38, 10.83, 9.38, 0.000, 0.000, 0.000, 16:16:45.229
35, 3.22, 4.66, 8.41, 10.04, 0.000, 0.000, 0.000, 16:16:45.250
36, 13.52, 12.96, 9.26, 10.10, 0.000, 0.000, 0.000, 16:16:45.251
37, 4.73, 5.76, 10.66, 8.24, 0.000, 0.000, 0.000, 16:16:45.251
38, 4.67, 5.59, 10.19, 16.16, 0.000, 0.000, 0.000, 16:16:45.251
39, 6.27, 6.78, 10.35, 12.54, 0.000, 0.000, 0.000, 16:16:45.273
40, 11.21, 12.19, 11.75, 12.09, 0.000, 0.000, 0.000, 16:16:45.273
41, 2.48, 7.34, 12.79, 14.57, 0.000, 0.000, 0.000, 16:16:45.274
42, 3.95, 6.82, 11.22, 11.31, 0.000, 0.000, 0.000, 16:16:45.274
43, 6.75, 7.94, 8.23, 10.54, 0.000, 0.000, 0.000, 16:16:45.274
44, 11.04, 10.31, 10.11, 12.61, 0.000, 0.000, 0.000, 16:16:45.274
45, 6.72, 12.33, 14.68, 16.21, 0.000, 0.000, 0.000, 16:16:45.295
46, 4.54, 12.26, 12.20, 9.64, 0.000, 0.000, 0.000, 16:16:45.295
47, 9.87, 13.57, 10.08, 9.19, 0.000, 0.000, 0.000, 16:16:45.295
48, 5.27, 4.04, 13.46, 15.48, 0.000, 0.000, 0.000, 16:16:45.296
49, 3.13, 7.64, 10.94, 4.80, 0.000, 0.000, 0.000, 16:16:45.318
50, 11.80, 10.62, 13.13, 10.45, 0.000, 0.000, 0.000, 16:16:45.318
51, 2.86, 6.31, 12.63, 15.84, 0.000, 0.000, 0.000, 16:16:45.318
52, 2.30, 7.41, 13.43, 12.29, 0.000, 0.000, 0.000, 16:16:45.318
53, 7.73, 12.54, 8.01, 10.25, 0.000, 0.000, 0.000, 16:16:45.340
54, 16.57, 13.79, 11.12, 12.67, 0.000, 0.000, 0.000, 16:16:45.340
55, -1.16, -1.39, 13.70, 14.09, 0.000, 0.000, 0.000, 16:16:45.341
56, 7.47, 6.85, 8.29, 11.85, 0.000, 0.000, 0.000, 16:16:45.341
57, 11.58, 8.14, 8.17, 10.59, 0.000, 0.000, 0.000, 16:16:45.363
58, 2.01, 4.70, 13.15, 11.03, 0.000, 0.000, 0.000, 16:16:45.363
59, 2.50, 7.81, 13.46, 12.28, 0.000, 0.000, 0.000, 16:16:45.364
60, 14.00, 13.42, 8.43, 9.31, 0.000, 0.000, 0.000, 16:16:45.364
61, 5.70, 9.40, 9.18, 13.42, 0.000, 0.000, 0.000, 16:16:45.364
62, 0.08, 5.77, 10.19, 11.84, 0.000, 0.000, 0.000, 16:16:45.364
63, 8.79, 13.42, 9.48, 15.05, 0.000, 0.000, 0.000, 16:16:45.385
64, 5.52, 8.37, 11.79, 15.67, 0.000, 0.000, 0.000, 16:16:45.385
65, 0.23, 5.92, 13.47, 12.87, 0.000, 0.000, 0.000, 16:16:45.386
66, 7.92, 12.28, 8.52, 11.34, 0.000, 0.000, 0.000, 16:16:45.386
67, 12.88, 14.32, 7.90, 9.58, 0.000, 0.000, 0.000, 16:16:45.408
68, 5.66, 4.48, 12.43, 14.61, 0.000, 0.000, 0.000, 16:16:45.408
69, 5.99, 8.07, 12.70, 9.22, 0.000, 0.000, 0.000, 16:16:45.408
70, 7.12, 9.46, 8.06, 14.38, 0.000, 0.000, 0.000, 16:16:45.409
71, 7.20, 9.32, 11.93, 11.95, 0.000, 0.000, 0.000, 16:16:45.430
72, 7.19, 9.07, 9.66, 12.93, 0.000, 0.000, 0.000, 16:16:45.430
73, 6.44, 5.02, 12.34, 13.07, 0.000, 0.000, 0.000, 16:16:45.431
74, 12.80, 13.28, 14.36, 12.48, 0.000, 0.000, 0.000, 16:16:45.431
75, 3.99, 2.92, 10.63, 10.70, 0.000, 0.000, 0.000, 16:16:45.453
76, 6.65, 6.71, 5.04, 10.62, 0.000, 0.000, 0.000, 16:16:45.453
77, 11.16, 11.91, 11.03, 11.81, 0.000, 0.000, 0.000, 16:16:45.453
78, 4.13, 7.89, 14.65, 15.70, 0.000, 0.000, 0.000, 16:16:45.453
79, 6.33, 9.01, 10.71, 7.50, 0.000, 0.000, 0.000, 16:16:45.454
80, 8.63, 8.01, 9.27, 10.96, 0.000, 0.000, 0.000, 16:16:45.454
81, 7.55, 6.83, 12.87, 16.12, 0.000, 0.000, 0.000, 16:16:45.475
82, 1.14, 2.63, 12.84, 15.52, 0.000, 0.000, 0.000, 16:16:45.475
83, 6.67, 11.41, 10.64, 8.54, 0.000, 0.000, 0.000, 16:16:45.476
84, 6.99, 11.98, 9.87, 12.06, 0.000, 0.000, 0.000, 16:16:45.476
85, 1.75, 3.26, 10.04, 15.02, 0.000, 0.000, 0.000, 16:16:45.498
86, 3.90, 6.62, 11.99, 9.18, 0.000, 0.000, 0.000, 16:16:45.498
87, 11.66, 10.62, 8.40, 8.75, 0.000, 0.000, 0.000, 16:16:45.498
88, 3.34, 3.44, 14.17, 7.75, 0.000, 0.000, 0.000, 16:16:45.498
89, 3.74, 5.09, 12.93, 10.11, 0.000, 0.000, 0.000, 16:16:45.520
90, 16.07, 18.26, 11.13, 13.96, 0.000, 0.000, 0.000, 16:16:45.520
91, 1.75, 6.68, 14.88, 16.25, 0.000, 0.000, 0.000, 16:16:45.521
92, 3.73, 4.44, 10.78, 12.04, 0.000, 0.000, 0.000, 16:16:45.521
93, 8.44, 11.45, 8.84, 14.86, 0.000, 0.000, 0.000, 16:16:45.543
94, 9.60, 7.24, 11.77, 13.05, 0.000, 0.000, 0.000, 16:16:45.543
95, -0.04, 3.18, 13.18, 12.40, 0.000, 0.000, 0.000, 16:16:45.543
96, 3.00, 10.60, 11.07, 9.09, 0.000, 0.000, 0.000, 16:16:45.543
97, 12.83, 14.93, 10.16, 12.64, 0.000, 0.000, 0.000, 16:16:45.543
98, -0.05, 7.51, 8.99, 10.26, 0.000, 0.000, 0.000, 16:16:45.544
99, 7.20, 9.96, 7.69, 11.67, 0.000, 0.000, 0.000, 16:16:45.565
100, 5.17, 7.13, 7.54, 12.15, 0.000, 0.000, 0.000, 16:16:45.565
101, 7.78, 6.63, 14.98, 14.45, 0.000, 0.000, 0.000, 16:16:45.566
102, 3.52, 3.38, 14.06, 12.32, 0.000, 0.000, 0.000, 16:16:45.566
103, 14.47, 10.73, 8.92, 12.79, 0.000, 0.000, 0.000, 16:16:45.588
104, 9.59, 8.30, 13.08, 11.02, 0.000, 0.000, 0.000, 16:16:45.588
105, 5.36, 4.01, 10.83, 14.62, 0.000, 0.000, 0.000, 16:16:45.588
106, 6.49, 9.11, 8.87, 7.49, 0.000, 0.000, 0.000, 16:16:45.588
107, 12.20, 10.22, 8.21, 10.64, 0.000, 0.000, 0.000, 16:16:45.610
108, 6.73, 8.00, 13.18, 14.65, 0.000, 0.000, 0.000, 16:16:45.610
109, -0.15, 2.55, 10.68, 9.39, 0.000, 0.000, 0.000, 16:16:45.611
110, 11.49, 8.99, 13.74, 10.14, 0.000, 0.000, 0.000, 16:16:45.611
111, 2.90, 9.62, 14.62, 14.31, 0.000, 0.000, 0.000, 16:16:45.633
112, 1.46, 8.28, 12.78, 10.06, 0.000, 0.000, 0.000, 16:16:45.634
113, 5.31, 11.19, 11.70, 12.98, 0.000, 0.000, 0.000, 16:16:45.634
114, 5.33, 10.91, 9.08, 10.39, 0.000, 0.000, 0.000, 16:16:45.635
115, -0.58, 1.25, 12.70, 8.87, 0.000, 0.000, 0.000, 16:16:45.635
116, 9.48, 7.49, 10.76, 8.66, 0.000, 0.000, 0.000, 16:16:45.635
117, 14.53, 12.70, 9.81, 11.25, 0.000, 0.000, 0.000, 16:16:45.655
118, 2.26, 3.34, 14.33, 16.18, 0.000, 0.000, 0.000, 16:16:45.655
119, 3.60, 5.97, 9.77, 11.74, 0.000, 0.000, 0.000, 16:16:45.656
120, 10.80, 13.52, 12.74, 11.08, 0.000, 0.000, 0.000, 16:16:45.656
121, 7.50, 8.43, 14.44, 14.63, 0.000, 0.000, 0.000, 16:16:45.678
122, -0.58, 0.41, 11.41, 12.86, 0.000, 0.000, 0.000, 16:16:45.678
123, 8.19, 10.95, 7.81, 6.52, 0.000, 0.000, 0.000, 16:16:45.678
124, 7.35, 12.53, 10.81, 11.93, 0.000, 0.000, 0.000, 16:16:45.678
125, 7.91, 6.68, 11.55, 14.23, 0.000, 0.000, 0.000, 16:16:45.700
126, 12.11, 12.89, 9.22, 10.98, 0.000, 0.000, 0.000, 16:16:45.700
127, 4.21, 6.05, 11.43, 12.66, 0.000, 0.000, 0.000, 16:16:45.701
128, 3.87, 6.18, 12.92, 13.45, 0.000, 0.000, 0.000, 16:16:45.701
129, 6.28, 6.71, 9.10, 11.77, 0.000, 0.000, 0.000, 16:16:45.723
130, 8.35, 10.83, 5.90, 11.73, 0.000, 0.000, 0.000, 16:16:45.723
131, 2.53, 7.70, 12.47, 15.64, 0.000, 0.000, 0.000, 16:16:45.723
132, 1.63, 8.42, 12.29, 11.34, 0.000, 0.000, 0.000, 16:16:45.723
133, 11.88, 12.37, 7.61, 12.43, 0.000, 0.000, 0.000, 16:16:45.724
134, 12.36, 9.40, 12.10, 15.23, 0.000, 0.000, 0.000, 16:16:45.724
135, 5.36, 6.90, 11.86, 8.48, 0.000, 0.000, 0.000, 16:16:45.745
136, 3.27, 4.00, 13.23, 7.69, 0.000, 0.000, 0.000, 16:16:45.746
137, 9.25, 13.36, 9.58, 8.16, 0.000, 0.000, 0.000, 16:16:45.746
138, 2.80, 4.68, 12.90, 12.12, 0.000, 0.000, 0.000, 16:16:45.746
139, 9.15, 7.06, 10.75, 13.39, 0.000, 0.000, 0.000, 16:16:45.768
140, 8.63, 8.75, 7.72, 12.28, 0.000, 0.000, 0.000, 16:16:45.768
141, 5.99, 7.44, 12.74, 12.40, 0.000, 0.000, 0.000, 16:16:45.768
142, 2.53, 9.02, 12.38, 13.84, 0.000, 0.000, 0.000, 16:16:45.768
143, 8.96, 11.13, 10.30, 11.15, 0.000, 0.000, 0.000, 16:16:45.790
144, 14.10, 15.44, 11.15, 12.15, 0.000, 0.000, 0.000, 16:16:45.790
145, -3.53, -1.06, 12.36, 16.29, 0.000, 0.000, 0.000, 16:16:45.791
146, 5.03, 7.21, 8.68, 11.09, 0.000, 0.000, 0.000, 16:16:45.791
147, 12.96, 11.20, 10.19, 12.28, 0.000, 0.000, 0.000, 16:16:45.813
148, 4.20, 11.99, 12.00, 13.72, 0.000, 0.000, 0.000, 16:16:45.813
149, 3.01, 3.50, 14.28, 14.55, 0.000, 0.000, 0.000, 16:16:45.813
150, 6.75, 12.07, 12.61, 10.37, 0.000, 0.000, 0.000, 16:16:45.814
151, 6.19, 5.82, 11.72, 15.42, 0.000, 0.000, 0.000, 16:16:45.814
152, 3.07, 5.20, 11.78, 12.45, 0.000, 0.000, 0.000, 16:16:45.814
153, 14.05, 14.39, 6.80, 10.73, 0.000, 0.000, 0.000, 16:16:45.835
154, 8.55, 5.76, 10.60, 14.47, 0.000, 0.000, 0.000, 16:16:45.836
155, 2.70, 5.57, 14.01, 11.81, 0.000, 0.000, 0.000, 16:16:45.836
156, 7.29, 10.82, 7.88, 9.04, 0.000, 0.000, 0.000, 16:16:45.836
157, 9.42, 8.17, 10.01, 12.96, 0.000, 0.000, 0.000, 16:16:45.858
158, 1.77, 8.56, 12.70, 13.83, 0.000, 0.000, 0.000, 16:16:45.858
159, 10.22, 8.64, 9.52, 14.41, 0.000, 0.000, 0.000, 16:16:45.858
160, 9.93, 11.06, 8.69, 11.68, 0.000, 0.000, 0.000, 16:16:45.858
161, 8.52, 7.74, 10.93, 13.65, 0.000, 0.000, 0.000, 16:16:45.880
162, 6.53, 11.39, 11.04, 9.91, 0.000, 0.000, 0.000, 16:16:45.880
163, 0.62, 6.05, 8.15, 8.59, 0.000, 0.000, 0.000, 16:16:45.881
164, 4.69, 7.19, 10.92, 10.33, 0.000, 0.000, 0.000, 16:16:45.881
165, 1.80, 6.19, 15.30, 14.03, 0.000, 0.000, 0.000, 16:16:45.903
166, 6.50, 5.95, 11.01, 12.48, 0.000, 0.000, 0.000, 16:16:45.903
167, 7.92, 11.70, 10.49, 14.34, 0.000, 0.000, 0.000, 16:16:45.903
168, 3.53, 4.95, 13.75, 14.09, 0.000, 0.000, 0.000, 16:16:45.903
169, 6.48, 8.37, 10.66, 10.69, 0.000, 0.000, 0.000, 16:16:45.904
170, 7.56, 9.56, 11.95, 6.81, 0.000, 0.000, 0.000, 16:16:45.904
171, 6.94, 11.93, 9.39, 10.43, 0.000, 0.000, 0.000, 16:16:45.925
172, -0.29, 1.58, 13.75, 7.09, 0.000, 0.000, 0.000, 16:16:45.925
173, 8.81, 11.10, 11.62, 9.63, 0.000, 0.000, 0.000, 16:16:45.926
174, 14.33, 11.52, 11.76, 14.42, 0.000, 0.000, 0.000, 16:16:45.926
175, 4.39, 4.82, 11.48, 11.18, 0.000, 0.000, 0.000, 16:16:45.948
176, 4.94, 6.32, 8.40, 12.46, 0.000, 0.000, 0.000, 16:16:45.948
177, 11.42, 13.77, 9.74, 11.10, 0.000, 0.000, 0.000, 16:16:45.948
178, 1.15, 5.32, 14.36, 17.25, 0.000, 0.000, 0.000, 16:16:45.948
179, 6.23, 4.78, 9.54, 6.94, 0.000, 0.000, 0.000, 16:16:45.971
180, 16.73, 18.36, 10.35, 9.04, 0.000, 0.000, 0.000, 16:16:45.971
181, -0.59, 4.88, 14.60, 13.84, 0.000, 0.000, 0.000, 16:16:45.971
182, 3.20, 5.69, 14.45, 9.93, 0.000, 0.000, 0.000, 16:16:45.971
183, 7.94, 10.65, 10.13, 9.66, 0.000, 0.000, 0.000, 16:16:45.993
184, 9.99, 13.24, 13.23, 10.30, 0.000, 0.000, 0.000, 16:16:45.993
185, 1.80, 4.40, 14.04, 11.79, 0.000, 0.000, 0.000, 16:16:45.993
186, 6.55, 9.44, 10.68, 10.73, 0.000, 0.000, 0.000, 16:16:45.993
187, 13.53, 11.62, 8.71, 10.49, 0.000, 0.000, 0.000, 16:16:45.994
188, 1.17, 4.12, 11.91, 19.18, 0.000, 0.000, 0.000, 16:16:45.994
189, 4.48, 7.72, 7.74, 10.63, 0.000, 0.000, 0.000, 16:16:46.015
190, 5.86, 7.64, 8.73, 7.88, 0.000, 0.000, 0.000, 16:16:46.015
191, 5.08, 3.64, 12.29, 12.86, 0.000, 0.000, 0.000, 16:16:46.016
192, 4.39, 8.67, 13.46, 12.53, 0.000, 0.000, 0.000, 16:16:46.016
193, 11.53, 12.04, 4.54, 14.94, 0.000, 0.000, 0.000, 16:16:46.038
194, 6.34, 13.11, 10.77, 11.50, 0.000, 0.000, 0.000, 16:16:46.038
195, 4.24, 2.78, 9.48, 9.07, 0.000, 0.000, 0.000, 16:16:46.038
196, 6.88, 9.02, 8.74, 11.03, 0.000, 0.000, 0.000, 16:16:46.038
197, 10.48, 15.87, 9.75, 9.17, 0.000, 0.000, 0.000, 16:16:46.060
198, 9.32, 12.03, 9.81, 12.94, 0.000, 0.000, 0.000, 16:16:46.060
199, 0.35, 1.91, 11.96, 10.89, 0.000, 0.000, 0.000, 16:16:46.061
200, 11.62, 11.82, 7.30, 11.13, 0.000, 0.000, 0.000, 16:16:46.061
0, 11.96, 6.94, 10.36, 11.98, 0.000, 0.000, 0.000, 16:16:46.061
1, 2.85, 5.88, 10.98, 11.75, 0.000, 0.000, 0.000, 16:16:46.083
2, 5.22, 10.97, 13.29, 11.09, 0.000, 0.000, 0.000, 16:16:46.083
3, 9.71, 6.82, 14.31, 11.98, 0.000, 0.000, 0.000, 16:16:46.083
4, 3.26, 5.57, 13.25, 13.36, 0.000, 0.000, 0.000, 16:16:46.083
5, 7.29, 12.47, 10.16, 12.18, 0.000, 0.000, 0.000, 16:16:46.105
6, 14.97, 18.36, 7.19, 13.49, 0.000, 0.000, 0.000, 16:16:46.105
7, -2.09, 0.24, 14.92, 14.02, 0.000, 0.000, 0.000, 16:16:46.106
8, 3.79, 6.35, 5.75, 8.92, 0.000, 0.000, 0.000, 16:16:46.106
9, 10.96, 8.02, 10.81, 10.65, 0.000, 0.000, 0.000, 16:16:46.128
10, 3.69, 4.87, 12.73, 12.77, 0.000, 0.000, 0.000, 16:16:46.128
11, 1.82, 3.21, 13.77, 11.25, 0.000, 0.000, 0.000, 16:16:46.129
12, 4.65, 11.39, 9.72, 10.54, 0.000, 0.000, 0.000, 16:16:46.129
13, 9.80, 9.16, 8.55, 15.88, 0.000, 0.000, 0.000, 16:16:46.129
14, -1.12, 5.71, 7.60, 17.72, 0.000, 0.000, 0.000, 16:16:46.129
15, 8.79, 12.78, 11.68, 10.92, 0.000, 0.000, 0.000, 16:16:46.152
16, 7.88, 8.06, 11.61, 8.82, 0.000, 0.000, 0.000, 16:16:46.152
17, 0.45, 6.34, 16.59, 14.91, 0.000, 0.000, 0.000, 16:16:46.152
18, 7.81, 3.77, 13.72, 9.25, 0.000, 0.000, 0.000, 16:16:46.152
19, 12.79, 14.58, 11.65, 10.11, 0.000, 0.000, 0.000, 16:16:46.173
20, 5.22, 5.86, 12.58, 8.76, 0.000, 0.000, 0.000, 16:16:46.173
21, 1.46, 5.51, 5.51, 9.32, 0.000, 0.000, 0.000, 16:16:46.173
22, 8.13, 12.50, 10.24, 9.77, 0.000, 0.000, 0.000, 16:16:46.173
23, 11.89, 7.86, 9.45, 12.36, 0.000, 0.000, 0.000, 16:16:46.195
24, 4.32, 8.05, 14.83, 13.90, 0.000, 0.000, 0.000, 16:16:46.195
25, 2.66, 5.63, 9.84, 11.32, 0.000, 0.000, 0.000, 16:16:46.196
26, 13.55, 12.26, 13.22, 12.06, 0.000, 0.000, 0.000, 16:16:46.196
27, 6.59, 9.82, 10.55, 12.66, 0.000, 0.000, 0.000, 16:16:46.218
28, 3.56, 2.95, 13.12, 14.57, 0.000, 0.000, 0.000, 16:16:46.218
29, 10.35, 15.86, 11.59, 12.87, 0.000, 0.000, 0.000, 16:16:46.218
30, 6.11, 10.18, 11.59, 15.10, 0.000, 0.000, 0.000, 16:16:46.218
31, 3.40, 6.03, 14.02, 12.06, 0.000, 0.000, 0.000, 16:16:46.219
32, 12.41, 7.25, 12.36, 10.32, 0.000, 0.000, 0.000, 16:16:46.219
33, 8.10, 11.95, 8.52, 13.36, 0.000, 0.000, 0.000, 16:16:46.240
34, -3.47, 3.51, 13.48, 14.99, 0.000, 0.000, 0.000, 16:16:46.240
35, 4.45, 8.15, 8.47, 9.18, 0.000, 0.000, 0.000, 16:16:46.241
36, 11.70, 10.08, 9.51, 13.85, 0.000, 0.000, 0.000, 16:16:46.241
37, 5.42, 3.67, 10.98, 13.66, 0.000, 0.000, 0.000, 16:16:46.263
38, 2.89, 1.58, 10.69, 12.95, 0.000, 0.000, 0.000, 16:16:46.263
39, 8.42, 8.12, 11.57, 8.83, 0.000, 0.000, 0.000, 16:16:46.263
40, 6.98, 9.23, 9.88, 12.23, 0.000, 0.000, 0.000, 16:16:46.263
41, 2.00, 4.26, 10.24, 10.79, 0.000, 0.000, 0.000, 16:16:46.285
42, 14.49, 15.60, 8.45, 10.09, 0.000, 0.000, 0.000, 16:16:46.286
43, 4.78, 7.84, 9.79, 13.30, 0.000, 0.000, 0.000, 16:16:46.286
44, 1.37, 1.81, 12.22, 12.82, 0.000, 0.000, 0.000, 16:16:46.286
45, 6.93, 10.86, 11.48, 10.57, 0.000, 0.000, 0.000, 16:16:46.308
46, 9.01, 14.96, 13.12, 14.64, 0.000, 0.000, 0.000, 16:16:46.308
47, -2.76, 1.15, 13.84, 13.66, 0.000, 0.000, 0.000, 16:16:46.308
48, 6.53, 9.72, 12.13, 11.11, 0.000, 0.000, 0.000, 16:16:46.308
49, 9.38, 13.02, 10.17, 6.42, 0.000, 0.000, 0.000, 16:16:46.309
50, 6.14, 6.84, 12.10, 8.81, 0.000, 0.000, 0.000, 16:16:46.309
51, 9.77, 4.67, 12.76, 12.29, 0.000, 0.000, 0.000, 16:16:46.330
52, 8.70, 8.42, 11.01, 14.20, 0.000, 0.000, 0.000, 16:16:46.330
53, 9.52, 11.23, 12.01, 11.91, 0.000, 0.000, 0.000, 16:16:46.331
54, 0.76, 5.03, 8.56, 14.17, 0.000, 0.000, 0.000, 16:16:46.331
55, 6.54, 10.69, 10.42, 11.24, 0.000, 0.000, 0.000, 16:16:46.353
56, 4.80, 12.18, 9.22, 11.83, 0.000, 0.000, 0.000, 16:16:46.353
57, 6.88, 7.34, 14.12, 14.76, 0.000, 0.000, 0.000, 16:16:46.353
58, 5.33, 7.82, 10.48, 10.21, 0.000, 0.000, 0.000, 16:16:46.353
59, 11.37, 12.38, 8.76, 9.02, 0.000, 0.000, 0.000, 16:16:46.375
60, 11.89, 11.29, 13.67, 11.93, 0.000, 0.000, 0.000, 16:16:46.375
61, -2.81, -0.57, 12.79, 14.36, 0.000, 0.000, 0.000, 16:16:46.376
62, 8.90, 7.75, 8.11, 10.63, 0.000, 0.000, 0.000, 16:16:46.376
63, 4.58, 11.39, 10.48, 16.23, 0.000, 0.000, 0.000, 16:16:46.398
64, 2.09, 9.17, 14.05, 14.49, 0.000, 0.000, 0.000, 16:16:46.398
65, 5.32, 8.43, 8.02, 11.27, 0.000, 0.000, 0.000, 16:16:46.398
66, 11.53, 14.21, 9.41, 10.19, 0.000, 0.000, 0.000, 16:16:46.398
67, 1.26, 6.20, 13.79, 10.09, 0.000, 0.000, 0.000, 16:16:46.399
68, 4.34, 5.80, 7.29, 11.61, 0.000, 0.000, 0.000, 16:16:46.399
69, 13.19, 13.53, 8.12, 13.40, 0.000, 0.000, 0.000, 16:16:46.420
70, 4.64, 6.75, 11.21, 10.49, 0.000, 0.000, 0.000, 16:16:46.420
71, 5.41, 4.99, 11.11, 11.19, 0.000, 0.000, 0.000, 16:16:46.421
72, 10.19, 10.74, 6.89, 10.15, 0.000, 0.000, 0.000, 16:16:46.421
73, 10.28, 8.61, 9.48, 11.86, 0.000, 0.000, 0.000, 16:16:46.443
74, -1.04, 6.66, 12.23, 10.51, 0.000, 0.000, 0.000, 16:16:46.443
75, 5.03, 6.54, 8.34, 8.47, 0.000, 0.000, 0.000, 16:16:46.443
76, 15.71, 6.76, 8.86, 9.91, 0.000, 0.000, 0.000, 16:16:46.443
77, 6.16, 7.40, 13.89, 15.44, 0.000, 0.000, 0.000, 16:16:46.465
78, 11.77, 13.02, 12.70, 10.12, 0.000, 0.000, 0.000, 16:16:46.465
79, 4.33, 3.36, 9.86, 6.65, 0.000, 0.000, 0.000, 16:16:46.466
80, 4.10, 8.98, 13.22, 14.71, 0.000, 0.000, 0.000, 16:16:46.466
81, 0.08, 8.11, 14.10, 13.93, 0.000, 0.000, 0.000, 16:16:46.488
82, 8.85, 10.56, 11.27, 11.61, 0.000, 0.000, 0.000, 16:16:46.488
83, 9.47, 12.61, 9.31, 10.01, 0.000, 0.000, 0.000, 16:16:46.488
84, 3.11, 6.26, 13.68, 15.86, 0.000, 0.000, 0.000, 16:16:46.488
85, 7.04, 7.00, 8.06, 9.65, 0.000, 0.000, 0.000, 16:16:46.489
86, 11.86, 9.08, 14.06, 15.67, 0.000, 0.000, 0.000, 16:16:46.489
87, 3.66, 5.14, 12.57, 13.85, 0.000, 0.000, 0.000, 16:16:46.510
88, 1.29, 2.30, 12.66, 9.93, 0.000, 0.000, 0.000, 16:16:46.511
89, 9.13, 8.32, 8.35, 6.50, 0.000, 0.000, 0.000, 16:16:46.511
90, 6.45, 7.23, 14.74, 12.60, 0.000, 0.000, 0.000, 16:16:46.511
91, 4.06, 6.77, 12.13, 12.06, 0.000, 0.000, 0.000, 16:16:46.533
92, 6.44, 8.44, 10.11, 11.78, 0.000, 0.000, 0.000, 16:16:46.533
93, 9.97, 10.80, 10.38, 9.64, 0.000, 0.000, 0.000, 16:16:46.533
94, -0.15, 2.21, 11.72, 12.67, 0.000, 0.000, 0.000, 16:16:46.533
95, 4.36, 9.72, 8.58, 13.27, 0.000, 0.000, 0.000, 16:16:46.555
96, 14.23, 14.52, 11.22, 8.54, 0.000, 0.000, 0.000, 16:16:46.555
97, -1.07, 5.18, 11.22, 16.08, 0.000, 0.000, 0.000, 16:16:46.556
98, 4.17, 9.20, 10.19, 12.41, 0.000, 0.000, 0.000, 16:16:46.556
99, 13.54, 12.55, 13.04, 13.30, 0.000, 0.000, 0.000, 16:16:46.578
100, 2.34, 6.86, 11.81, 11.21, 0.000, 0.000, 0.000, 16:16:46.578
101, 1.60, 3.78, 12.70, 11.24, 0.000, 0.000, 0.000, 16:16:46.578
102, 11.11, 11.78, 13.56, 14.85, 0.000, 0.000, 0.000, 16:16:46.579
103, 13.26, 13.23, 9.76, 13.21, 0.000, 0.000, 0.000, 16:16:46.579
104, 3.57, 5.10, 9.77, 12.13, 0.000, 0.000, 0.000, 16:16:46.579
105, 7.31, 13.28, 11.08, 11.92, 0.000, 0.000, 0.000, 16:16:46.600
106, 4.03, 12.22, 9.36, 10.03, 0.000, 0.000, 0.000, 16:16:46.600
107, 2.20, 7.98, 12.76, 17.36, 0.000, 0.000, 0.000, 16:16:46.601
108, 6.96, 6.01, 11.54, 11.66, 0.000, 0.000, 0.000, 16:16:46.601
109, 12.10, 9.49, 9.80, 10.77, 0.000, 0.000, 0.000, 16:16:46.623
110, 8.26, 3.60, 11.48, 10.70, 0.000, 0.000, 0.000, 16:16:46.623
111, 0.91, 6.28, 14.63, 10.81, 0.000, 0.000, 0.000, 16:16:46.623
112, 7.92, 9.74, 9.54, 11.16, 0.000, 0.000, 0.000, 16:16:46.623
113, 8.40, 9.00, 9.68, 14.50, 0.000, 0.000, 0.000, 16:16:46.645
114, 7.59, 11.01, 12.79, 14.05, 0.000, 0.000, 0.000, 16:16:46.645
115, 1.33, 2.46, 8.71, 9.15, 0.000, 0.000, 0.000, 16:16:46.646
116, 12.17, 8.94, 8.00, 9.32, 0.000, 0.000, 0.000, 16:16:46.646
117, 2.52, 2.29, 11.68, 12.05, 0.000, 0.000, 0.000, 16:16:46.668
118, 4.08, 6.70, 9.29, 9.72, 0.000, 0.000, 0.000, 16:16:46.668
119, 5.15, 12.78, 12.53, 12.13, 0.000, 0.000, 0.000, 16:16:46.668
120, 9.36, 9.12, 12.97, 10.48, 0.000, 0.000, 0.000, 16:16:46.668
121, 2.51, 8.91, 11.42, 12.21, 0.000, 0.000, 0.000, 16:16:46.669
122, 9.29, 15.47, 10.72, 10.87, 0.000, 0.000, 0.000, 16:16:46.669
123, 12.55, 12.29, 14.97, 15.10, 0.000, 0.000, 0.000, 16:16:46.690
124, -1.27, 0.50, 10.60, 12.96, 0.000, 0.000, 0.000, 16:16:46.690
125, 7.83, 8.96, 6.87, 12.64, 0.000, 0.000, 0.000, 16:16:46.713
126, 10.86, 11.86, 6.91, 10.97, 0.000, 0.000, 0.000, 16:16:46.713
127, 1.92, 5.12, 16.38, 14.96, 0.000, 0.000, 0.000, 16:16:46.713
128, 6.50, 6.82, 9.66, 10.40, 0.000, 0.000, 0.000, 16:16:46.713
129, 9.52, 12.97, 8.99, 11.96, 0.000, 0.000, 0.000, 16:16:46.714
130, 7.99, 5.53, 13.43, 12.06, 0.000, 0.000, 0.000, 16:16:46.714
131, 5.06, 5.59, 12.77, 14.92, 0.000, 0.000, 0.000, 16:16:46.735
132, 9.75, 14.89, 11.22, 14.60, 0.000, 0.000, 0.000, 16:16:46.735
133, 5.04, 5.71, 8.90, 12.56, 0.000, 0.000, 0.000, 16:16:46.736
134, 3.42, 7.03, 7.28, 12.40, 0.000, 0.000, 0.000, 16:16:46.736
135, 5.51, 7.07, 10.09, 10.11, 0.000, 0.000, 0.000, 16:16:46.758
136, 10.11, 12.73, 8.25, 7.06, 0.000, 0.000, 0.000, 16:16:46.758
137, 0.93, 3.41, 11.68, 15.94, 0.000, 0.000, 0.000, 16:16:46.759
138, 4.33, 7.23, 11.84, 8.24, 0.000, 0.000, 0.000, 16:16:46.759
139, 8.17, 13.90, 11.86, 10.34, 0.000, 0.000, 0.000, 16:16:46.759
140, 1.22, 8.78, 14.46, 14.79, 0.000, 0.000, 0.000, 16:16:46.759
141, 7.76, 8.05, 9.13, 10.57, 0.000, 0.000, 0.000, 16:16:46.780
142, 8.12, 6.60, 7.10, 12.64, 0.000, 0.000, 0.000, 16:16:46.780
143, 8.90, 9.41, 9.43, 11.54, 0.000, 0.000, 0.000, 16:16:46.781
144, 3.75, 3.40, 16.10, 13.39, 0.000, 0.000, 0.000, 16:16:46.781
145, 7.68, 8.04, 9.42, 13.87, 0.000, 0.000, 0.000, 16:16:46.803
146, 11.07, 10.28, 11.05, 11.45, 0.000, 0.000, 0.000, 16:16:46.803
147, 3.41, 9.41, 10.89, 11.87, 0.000, 0.000, 0.000, 16:16:46.803
148, 5.14, 3.74, 10.67, 9.26, 0.000, 0.000, 0.000, 16:16:46.803
149, 11.16, 6.29, 10.77, 14.50, 0.000, 0.000, 0.000, 16:16:46.825
150, 12.52, 12.51, 10.72, 10.51, 0.000, 0.000, 0.000, 16:16:46.825
151, -2.16, 2.13, 10.31, 12.93, 0.000, 0.000, 0.000, 16:16:46.826
152, 9.03, 11.34, 7.17, 7.29, 0.000, 0.000, 0.000, 16:16:46.826
153, 10.77, 14.31, 14.01, 13.63, 0.000, 0.000, 0.000, 16:16:46.848
154, 4.00, 5.33, 16.20, 12.04, 0.000, 0.000, 0.000, 16:16:46.848
155, 5.78, 10.19, 10.68, 11.97, 0.000, 0.000, 0.000, 16:16:46.848
156, 12.15, 12.64, 7.42, 10.35, 0.000, 0.000, 0.000, 16:16:46.848
157, 3.06, 2.43, 14.03, 12.92, 0.000, 0.000, 0.000, 16:16:46.849
158, 6.87, 8.18, 14.23, 11.40, 0.000, 0.000, 0.000, 16:16:46.849
159, 11.16, 16.71, 9.97, 10.45, 0.000, 0.000, 0.000, 16:16:46.870
160, 1.97, 5.55, 13.33, 10.56, 0.000, 0.000, 0.000, 16:16:46.870
161, 4.22, 6.89, 10.52, 12.16, 0.000, 0.000, 0.000, 16:16:46.871
162, 8.34, 12.20, 8.78, 8.83, 0.000, 0.000, 0.000, 16:16:46.871
163, 8.85, 12.46, 9.96, 11.64, 0.000, 0.000, 0.000, 16:16:46.893
164, 1.22, 2.13, 12.39, 16.78, 0.000, 0.000, 0.000, 16:16:46.893
165, 7.10, 12.03, 12.34, 11.49, 0.000, 0.000, 0.000, 16:16:46.894
166, 9.92, 12.83, 9.45, 12.64, 0.000, 0.000, 0.000, 16:16:46.894
167, 1.89, 5.76, 14.10, 16.05, 0.000, 0.000, 0.000, 16:16:46.915
168, 10.75, 15.74, 12.73, 14.51, 0.000, 0.000, 0.000, 16:16:46.915
169, 3.61, 7.47, 9.95, 9.22, 0.000, 0.000, 0.000, 16:16:46.916
170, 3.73, 9.47, 12.01, 9.82, 0.000, 0.000, 0.000, 16:16:46.916
171, 3.67, 3.51, 16.92, 10.25, 0.000, 0.000, 0.000, 16:16:46.937
172, 5.78, 7.75, 8.45, 10.47, 0.000, 0.000, 0.000, 16:16:46.938
173, 7.83, 6.05, 10.40, 9.72, 0.000, 0.000, 0.000, 16:16:46.938
174, 1.28, 3.26, 13.03, 18.49, 0.000, 0.000, 0.000, 16:16:46.938
175, 11.23, 6.02, 10.86, 14.85, 0.000, 0.000, 0.000, 16:16:46.939
176, 11.66, 11.60, 7.37, 12.28, 0.000, 0.000, 0.000, 16:16:46.939
177, 5.76, 11.62, 14.57, 14.83, 0.000, 0.000, 0.000, 16:16:46.960
178, 1.01, 2.89, 9.93, 14.25, 0.000, 0.000, 0.000, 16:16:46.961
179, 10.13, 10.54, 10.24, 7.65, 0.000, 0.000, 0.000, 16:16:46.961
180, 5.14, 4.68, 13.23, 10.28, 0.000, 0.000, 0.000, 16:16:46.961
181, 4.77, 7.67, 16.29, 11.51, 0.000, 0.000, 0.000, 16:16:46.983
182, 5.19, 4.67, 9.35, 13.70, 0.000, 0.000, 0.000, 16:16:46.983
183, 12.12, 12.50, 5.38, 8.22, 0.000, 0.000, 0.000, 16:16:46.983
184, 5.54, 1.39, 17.36, 17.12, 0.000, 0.000, 0.000, 16:16:46.983
185, 2.92, 10.57, 12.28, 14.35, 0.000, 0.000, 0.000, 16:16:47.005
186, 14.70, 19.37, 4.79, 5.22, 0.000, 0.000, 0.000, 16:16:47.005
187, 1.51, 2.56, 14.05, 13.24, 0.000, 0.000, 0.000, 16:16:47.006
188, 5.85, 8.66, 13.01, 14.62, 0.000, 0.000, 0.000, 16:16:47.006
189, 7.25, 9.83, 7.17, 8.87, 0.000, 0.000, 0.000, 16:16:47.027
190, 4.57, 8.05, 10.88, 6.15, 0.000, 0.000, 0.000, 16:16:47.028
191, -0.32, 4.75, 15.09, 18.33, 0.000, 0.000, 0.000, 16:16:47.028
192, 14.25, 11.37, 10.76, 5.97, 0.000, 0.000, 0.000, 16:16:47.028
193, 8.08, 10.02, 3.50, 3.01, 0.000, 0.000, 0.000, 16:16:47.029
194, 3.33, -0.20, 20.29, 18.04, 0.000, 0.000, 0.000, 16:16:47.029
195, 11.41, 10.64, 10.83, 13.18, 0.000, 0.000, 0.000, 16:16:47.050
196, 10.18, 13.71, 0.18, 2.38, 0.000, 0.000, 0.000, 16:16:47.050
197, 3.17, 7.47, 13.36, 17.21, 0.000, 0.000, 0.000, 16:16:47.051
198, 2.01, 8.79, 16.61, 16.66, 0.000, 0.000, 0.000, 16:16:47.051
199, 10.74, 10.95, 0.47, 4.35, 0.000, 0.000, 0.000, 16:16:47.072
200, 3.42, 5.02, 5.08, 14.12, 0.000, 0.000, 0.000, 16:16:47.073
0, 2.79, 6.37, 21.40, 21.62, 0.000, 0.000, 0.000, 16:16:47.073
1, 5.15, 11.58, 12.53, 10.53, 0.000, 0.000, 0.000, 16:16:47.074
2, 10.42, 11.15, 3.87, 4.14, 0.000, 0.000, 0.000, 16:16:47.074
3, 7.11, 7.11, 23.79, 25.96, 0.000, 0.000, 0.000, 16:16:47.095
4, 1.63, 1.65, 14.04, 16.41, 0.000, 0.000, 0.000, 16:16:47.096
5, 12.49, 9.92, -4.33, -0.69, 0.000, 0.000, 0.000, 16:16:47.096
6, 3.93, 3.64, 14.79, 16.66, 0.000, 0.000, 0.000, 16:16:47.096
7, 3.80, 7.27, 14.85, 17.67, 0.000, 0.000, 0.000, 16:16:47.117
8, 10.62, 10.19, 2.48, 1.19, 0.000, 0.000, 0.000, 16:16:47.118
9, 9.26, 9.06, 10.43, 7.70, 0.000, 0.000, 0.000, 16:16:47.118
10, -1.20, 2.13, 17.26, 23.02, 0.000, 0.000, 0.000, 16:16:47.118
11, 6.76, 9.51, 4.24, 10.46, 0.000, 0.000, 0.000, 16:16:47.140
12, 15.73, 17.79, 3.47, 0.36, 0.000, 0.000, 0.000, 16:16:47.140
13, -5.47, -1.77, 23.61, 24.11, 0.000, 0.000, 0.000, 16:16:47.141
14, 5.70, 4.02, 12.95, 13.02, 0.000, 0.000, 0.000, 16:16:47.141
15, 12.84, 13.94, -2.92, 0.94, 0.000, 0.000, 0.000, 16:16:47.162
16, 0.28, 6.46, 14.51, 18.28, 0.000, 0.000, 0.000, 16:16:47.163
17, 3.58, 3.19, 17.04, 14.72, 0.000, 0.000, 0.000, 16:16:47.163
18, 16.94, 17.18, 2.09, 0.23, 0.000, 0.000, 0.000, 16:16:47.163
19, 7.66, 13.47, 12.50, 13.52, 0.000, 0.000, 0.000, 16:16:47.164
20, -2.84, 2.10, 18.12, 21.54, 0.000, 0.000, 0.000, 16:16:47.164
21, 9.57, 12.27, 9.66, 7.04, 0.000, 0.000, 0.000, 16:16:47.185
22, 13.97, 11.54, 2.45, 5.59, 0.000, 0.000, 0.000, 16:16:47.185
23, -3.53, 0.49, 21.94, 22.49, 0.000, 0.000, 0.000, 16:16:47.186
24, 7.56, 10.06, 13.89, 12.93, 0.000, 0.000, 0.000, 16:16:47.186
25, 17.45, 17.40, 3.78, 0.94, 0.000, 0.000, 0.000, 16:16:47.208
26, -0.78, 1.33, 20.72, 17.68, 0.000, 0.000, 0.000, 16:16:47.208
27, 3.78, 2.45, 13.73, 17.20, 0.000, 0.000, 0.000, 16:16:47.208
28, 11.26, 13.59, 2.27, 5.68, 0.000, 0.000, 0.000, 16:16:47.209
29, 7.61, 11.49, 11.00, 9.21, 0.000, 0.000, 0.000, 16:16:47.230
30, 6.25, 4.78, 20.55, 22.20, 0.000, 0.000, 0.000, 16:16:47.231
31, 2.81, 4.11, 10.73, 9.61, 0.000, 0.000, 0.000, 16:16:47.231
32, 12.48, 15.23, 5.20, 3.00, 0.000, 0.000, 0.000, 16:16:47.231
33, -1.52, 1.30, 19.86, 20.83, 0.000, 0.000, 0.000, 16:16:47.253
34, 8.19, 6.34, 14.65, 13.75, 0.000, 0.000, 0.000, 16:16:47.253
35, 12.41, 14.87, 3.73, 1.95, 0.000, 0.000, 0.000, 16:16:47.253
36, 1.44, 7.49, 13.29, 16.01, 0.000, 0.000, 0.000, 16:16:47.253
37, -0.42, 7.66, 15.70, 21.93, 0.000, 0.000, 0.000, 16:16:47.254
38, 9.28, 14.47, 3.87, 6.45, 0.000, 0.000, 0.000, 16:16:47.254
39, 10.62, 10.67, 10.58, 12.03, 0.000, 0.000, 0.000, 16:16:47.275
40, -5.39, 4.11, 19.07, 24.49, 0.000, 0.000, 0.000, 16:16:47.276
41, 7.06, 9.56, 6.85, 9.04, 0.000, 0.000, 0.000, 16:16:47.276
42, 13.42, 17.62, 2.81, 1.74, 0.000, 0.000, 0.000, 16:16:47.276
43, -3.16, 2.00, 18.39, 19.67, 0.000, 0.000, 0.000, 16:16:47.298
44, 4.64, 5.96, 13.58, 12.28, 0.000, 0.000, 0.000, 16:16:47.298
45, 20.88, 18.16, 1.65, 2.58, 0.000, 0.000, 0.000, 16:16:47.298
46, -2.36, -0.63, 14.13, 16.72, 0.000, 0.000, 0.000, 16:16:47.298
47, -2.81, 2.17, 13.44, 17.79, 0.000, 0.000, 0.000, 16:16:47.320
48, 21.79, 20.88, 3.89, 5.10, 0.000, 0.000, 0.000, 16:16:47.320
49, 6.82, 4.83, 12.15, 10.35, 0.000, 0.000, 0.000, 16:16:47.321
50, -2.96, 1.72, 15.34, 18.17, 0.000, 0.000, 0.000, 16:16:47.321
51, 8.29, 11.97, 10.80, 10.43, 0.000, 0.000, 0.000, 16:16:47.343
52, 19.49, 17.46, -0.65, -0.07, 0.000, 0.000, 0.000, 16:16:47.343
53, -3.89, -4.42, 22.19, 19.78, 0.000, 0.000, 0.000, 16:16:47.343
54, 5.81, 6.78, 13.13, 10.50, 0.000, 0.000, 0.000, 16:16:47.343
55, 16.62, 19.83, 0.75, 1.74, 0.000, 0.000, 0.000, 16:16:47.344
56, 2.19, 1.91, 17.31, 21.63, 0.000, 0.000, 0.000, 16:16:47.344
57, 3.01, 4.23, 15.42, 21.33, 0.000, 0.000, 0.000, 16:16:47.365
58, 16.15, 13.16, -2.29, 1.03, 0.000, 0.000, 0.000, 16:16:47.365
59, 10.29, 9.14, 8.67, 7.05, 0.000, 0.000, 0.000, 16:16:47.366
60, -7.52, -2.93, 25.96, 22.23, 0.000, 0.000, 0.000, 16:16:47.366
61, 10.06, 13.14, 9.82, 8.28, 0.000, 0.000, 0.000, 16:16:47.388
62, 14.50, 17.75, -0.13, 3.96, 0.000, 0.000, 0.000, 16:16:47.388
63, -9.40, -0.06, 25.68, 23.40, 0.000, 0.000, 0.000, 16:16:47.388
64, 0.13, 0.34, 12.96, 13.30, 0.000, 0.000, 0.000, 16:16:47.388
65, 23.91, 21.10, -2.44, -1.21, 0.000, 0.000, 0.000, 16:16:47.410
66, 2.38, 6.93, 15.68, 22.63, 0.000, 0.000, 0.000, 16:16:47.410
67, -9.57, -8.24, 16.55, 23.93, 0.000, 0.000, 0.000, 16:16:47.411
68, 16.86, 21.30, -2.62, -2.74, 0.000, 0.000, 0.000, 16:16:47.411
69, 10.95, 10.91, 10.54, 6.24, 0.000, 0.000, 0.000, 16:16:47.433
70, -6.94, -0.20, 22.96, 27.28, 0.000, 0.000, 0.000, 16:16:47.434
71, 9.98, 10.02, 6.80, 8.64, 0.000, 0.000, 0.000, 16:16:47.434
72, 22.02, 21.04, 1.97, -0.19, 0.000, 0.000, 0.000, 16:16:47.434
73, -5.60, -1.46, 25.13, 22.39, 0.000, 0.000, 0.000, 16:16:47.434
74, 3.96, 4.69, 16.67, 20.54, 0.000, 0.000, 0.000, 16:16:47.434
75, 21.66, 25.57, -1.99, -5.91, 0.000, 0.000, 0.000, 16:16:47.455
76, 0.34, -0.46, 17.92, 22.36, 0.000, 0.000, 0.000, 16:16:47.456
77, 1.17, 0.49, 17.94, 21.35, 0.000, 0.000, 0.000, 16:16:47.456
78, 16.96, 20.92, -1.22, -1.06, 0.000, 0.000, 0.000, 16:16:47.456
79, 9.34, 13.39, 4.64, 10.24, 0.000, 0.000, 0.000, 16:16:47.478
80, -10.89, -3.55, 25.62, 22.80, 0.000, 0.000, 0.000, 16:16:47.478
81, 8.73, 11.85, 9.74, 8.23, 0.000, 0.000, 0.000, 16:16:47.478
82, 18.61, 21.30, -0.14, -0.57, 0.000, 0.000, 0.000, 16:16:47.478
83, -6.78, -0.76, 22.26, 24.32, 0.000, 0.000, 0.000, 16:16:47.500
84, 11.12, 10.56, 13.79, 14.90, 0.000, 0.000, 0.000, 16:16:47.500
85, 14.50, 19.48, -2.82, -2.02, 0.000, 0.000, 0.000, 16:16:47.501
86, 1.06, 0.67, 16.48, 18.96, 0.000, 0.000, 0.000, 16:16:47.501
87, -1.39, -0.49, 20.98, 24.89, 0.000, 0.000, 0.000, 16:16:47.523
88, 17.81, 21.15, 1.15, 0.12, 0.000, 0.000, 0.000, 16:16:47.523
89, 5.75, 11.52, 7.32, 7.77, 0.000, 0.000, 0.000, 16:16:47.523
90, -2.11, -1.17, 23.76, 24.01, 0.000, 0.000, 0.000, 16:16:47.523
91, 10.67, 9.45, 7.29, 7.55, 0.000, 0.000, 0.000, 16:16:47.524
92, 17.06, 15.67, 1.17, -2.75, 0.000, 0.000, 0.000, 16:16:47.524
93, -1.97, -1.32, 25.56, 29.30, 0.000, 0.000, 0.000, 16:16:47.545
94, 1.63, 2.85, 13.41, 14.99, 0.000, 0.000, 0.000, 16:16:47.545
95, 15.60, 19.96, -3.20, -3.19, 0.000, 0.000, 0.000, 16:16:47.546
96, -0.27, -0.47, 19.88, 20.18, 0.000, 0.000, 0.000, 16:16:47.546
97, -0.53, -1.56, 19.47, 19.13, 0.000, 0.000, 0.000, 16:16:47.568
98, 8.59, 15.51, -0.37, 2.70, 0.000, 0.000, 0.000, 16:16:47.568
99, 9.99, 12.44, 6.97, 8.47, 0.000, 0.000, 0.000, 16:16:47.568
100, -2.23, -3.78, 20.12, 25.03, 0.000, 0.000, 0.000, 16:16:47.568
101, 7.87, 11.01, 10.35, 10.48, 0.000, 0.000, 0.000, 16:16:47.590
102, 25.77, 23.52, 0.11, -1.16, 0.000, 0.000, 0.000, 16:16:47.591
103, -11.30, -11.39, 27.42, 23.54, 0.000, 0.000, 0.000, 16:16:47.591
104, 0.37, 1.40, 14.11, 16.91, 0.000, 0.000, 0.000, 16:16:47.591
105, 19.90, 18.74, -4.59, -3.92, 0.000, 0.000, 0.000, 16:16:47.612
106, 0.36, 1.04, 15.86, 18.06, 0.000, 0.000, 0.000, 16:16:47.613
107, -6.42, -2.51, 17.63, 20.42, 0.000, 0.000, 0.000, 16:16:47.613
108, 15.00, 19.55, 2.63, -1.85, 0.000, 0.000, 0.000, 16:16:47.613
109, 9.36, 14.36, 6.66, 8.23, 0.000, 0.000, 0.000, 16:16:47.635
110, -5.20, -1.52, 26.66, 26.55, 0.000, 0.000, 0.000, 16:16:47.635
111, 18.68, 16.75, 8.09, 7.12, 0.000, 0.000, 0.000, 16:16:47.636
112, 12.82, 14.66, -1.99, 0.29, 0.000, 0.000, 0.000, 16:16:47.636
113, -6.62, -1.09, 23.82, 24.07, 0.000, 0.000, 0.000, 16:16:47.637
114, 3.24, 6.14, 15.17, 16.77, 0.000, 0.000, 0.000, 16:16:47.637
115, 22.44, 23.01, -3.32, -2.97, 0.000, 0.000, 0.000, 16:16:47.658
116, 4.43, 2.25, 17.94, 23.83, 0.000, 0.000, 0.000, 16:16:47.659
117, -0.75, -3.02, 15.46, 20.63, 0.000, 0.000, 0.000, 16:16:47.659
118, 18.12, 21.77, -0.02, -1.91, 0.000, 0.000, 0.000, 16:16:47.659
119, 10.87, 8.88, 5.41, 6.82, 0.000, 0.000, 0.000, 16:16:47.680
120, -3.58, 4.73, 20.64, 25.06, 0.000, 0.000, 0.000, 16:16:47.681
121, 1.29, 2.38, 10.06, 9.65, 0.000, 0.000, 0.000, 16:16:47.681
122, 20.76, 22.85, -5.41, -3.21, 0.000, 0.000, 0.000, 16:16:47.681
123, -6.04, -2.04, 23.17, 28.04, 0.000, 0.000, 0.000, 16:16:47.703
124, 7.26, 1.47, 15.30, 12.53, 0.000, 0.000, 0.000, 16:16:47.703
125, 21.62, 19.88, -2.79, -4.99, 0.000, 0.000, 0.000, 16:16:47.703
126, 0.88, 1.61, 15.68, 22.84, 0.000, 0.000, 0.000, 16:16:47.703
127, -1.87, -3.02, 20.78, 20.90, 0.000, 0.000, 0.000, 16:16:47.704
128, 19.60, 22.97, 2.91, -2.06, 0.000, 0.000, 0.000, 16:16:47.704
129, 11.18, 19.05, 9.43, 5.92, 0.000, 0.000, 0.000, 16:16:47.725
130, -6.21, -5.48, 22.99, 27.94, 0.000, 0.000, 0.000, 16:16:47.725
131, 8.47, 12.73, 8.43, 7.84, 0.000, 0.000, 0.000, 16:16:47.726
132, 19.93, 25.11, 3.76, -1.83, 0.000, 0.000, 0.000, 16:16:47.726
133, -7.28, -5.23, 24.60, 26.07, 0.000, 0.000, 0.000, 16:16:47.748
134, -2.92, 2.08, 11.26, 17.47, 0.000, 0.000, 0.000, 16:16:47.748
135, 18.13, 26.68, -4.79, -7.12, 0.000, 0.000, 0.000, 16:16:47.748
136, 0.85, 3.30, 19.54, 21.84, 0.000, 0.000, 0.000, 16:16:47.749
137, -5.23, -1.08, 19.80, 23.48, 0.000, 0.000, 0.000, 16:16:47.770
138, 24.64, 23.05, 2.07, 1.22, 0.000, 0.000, 0.000, 16:16:47.770
139, 4.90, 6.82, 9.95, 8.96, 0.000, 0.000, 0.000, 16:16:47.771
140, -8.55, -2.57, 22.35, 21.98, 0.000, 0.000, 0.000, 16:16:47.771
141, 8.13, 9.26, 8.79, 9.76, 0.000, 0.000, 0.000, 16:16:47.793
142, 19.95, 19.92, 2.40, -4.29, 0.000, 0.000, 0.000, 16:16:47.793
143, -5.84, -10.96, 26.85, 32.54, 0.000, 0.000, 0.000, 16:16:47.794
144, 6.78, 2.98, 15.74, 16.21, 0.000, 0.000, 0.000, 16:16:47.794
145, 22.01, 23.87, -4.20, -7.28, 0.000, 0.000, 0.000, 16:16:47.794
146, -0.84, 4.73, 16.06, 20.68, 0.000, 0.000, 0.000, 16:16:47.794
147, -3.52, -0.53, 16.24, 21.08, 0.000, 0.000, 0.000, 16:16:47.816
148, 19.12, 18.37, 0.66, 1.57, 0.000, 0.000, 0.000, 16:16:47.816
149, 11.28, 12.08, 6.84, 6.34, 0.000, 0.000, 0.000, 16:16:47.816
150, -8.52, -8.18, 22.66, 26.31, 0.000, 0.000, 0.000, 16:16:47.816
151, 9.09, 13.92, 10.96, 8.15, 0.000, 0.000, 0.000, 16:16:47.838
152, 19.57, 19.58, 0.09, -0.10, 0.000, 0.000, 0.000, 16:16:47.838
153, -9.22, -5.54, 20.31, 26.25, 0.000, 0.000, 0.000, 16:16:47.838
154, 3.03, 4.27, 15.10, 19.16, 0.000, 0.000, 0.000, 16:16:47.839
155, 24.10, 26.05, -1.48, -7.75, 0.000, 0.000, 0.000, 16:16:47.860
156, 3.20, 7.97, 16.00, 17.05, 0.000, 0.000, 0.000, 16:16:47.860
157, -7.35, -1.87, 21.71, 24.44, 0.000, 0.000, 0.000, 16:16:47.861
158, 19.21, 19.37, 2.10, -0.97, 0.000, 0.000, 0.000, 16:16:47.861
159, 8.59, 12.11, 8.16, 6.94, 0.000, 0.000, 0.000, 16:16:47.883
160, -9.05, -5.31, 20.40, 28.26, 0.000, 0.000, 0.000, 16:16:47.883
161, 6.69, 9.75, 12.95, 11.77, 0.000, 0.000, 0.000, 16:16:47.883
162, 25.45, 21.10, 2.61, 0.89, 0.000, 0.000, 0.000, 16:16:47.883
163, -9.51, -6.02, 20.14, 27.61, 0.000, 0.000, 0.000, 16:16:47.884
164, -2.04, 3.58, 9.55, 14.60, 0.000, 0.000, 0.000, 16:16:47.884
165, 32.21, 31.10, 1.80, -6.48, 0.000, 0.000, 0.000, 16:16:47.905
166, -7.23, -4.12, 13.82, 18.56, 0.000, 0.000, 0.000, 16:16:47.906
167, -9.59, -5.21, 12.93, 24.53, 0.000, 0.000, 0.000, 16:16:47.906
168, 24.84, 22.52, 7.58, -1.35, 0.000, 0.000, 0.000, 16:16:47.906
169, 18.75, 18.45, 10.46, 8.19, 0.000, 0.000, 0.000, 16:16:47.928
170, -21.48, -9.50, 13.68, 23.29, 0.000, 0.000, 0.000, 16:16:47.928
171, 11.51, 13.36, 10.79, 10.19, 0.000, 0.000, 0.000, 16:16:47.928
172, 44.59, 29.40, 7.49, -2.67, 0.000, 0.000, 0.000, 16:16:47.928
173, -30.71, -14.32, 13.80, 27.65, 0.000, 0.000, 0.000, 16:16:47.950
174, -939.78, 9.86, 6.00, 8.64, 0.000, 0.000, 0.000, 16:16:47.951
175, -915.24, -25.61, -5.83, -17.87, 0.000, 0.000, 0.000, 16:16:47.951
176, -1888.35, -19.35, -17.01, -20.72, 0.000, 0.000, 0.000, 16:16:47.951
177, -1977.70, -38.18, -51.94, -52.55, 0.000, 0.000, 0.000, 16:16:47.973
178, -1874.28, 1.34, 8.82, 7.18, 0.000, 0.000, 0.000, 16:16:47.973
179, -1473.52, -42.09, -15.15, -18.14, 0.000, 0.000, 0.000, 16:16:47.973
180, -1845.64, -19.80, -38.58, -35.57, 0.000, 0.000, 0.000, 16:16:47.974
181, -1024.18, 15.44, 8.92, 11.96, 0.000, 0.000, 0.000, 16:16:47.974
182, -255.84, 831.47, -10.77, -21.57, 0.000, 0.000, 0.000, 16:16:47.974
183, -1004.47, 300.47, -9.61, -7.66, 0.000, 0.000, 0.000, 16:16:47.995
184, -1973.23, 906.46, -11.33, -7.03, 0.000, 0.000, 0.000, 16:16:47.995
185, -1244.84, 945.85, 5.25, 2.63, 0.000, 0.000, 0.000, 16:16:47.996
186, -1706.84, 92.67, 2.94, 7.89, 0.000, 0.000, 0.000, 16:16:47.996
187, -2597.36, -263.14, -28.40, -29.57, 0.000, 0.000, 0.000, 16:16:48.018
188, -1807.30, -150.70, 26.87, 25.19, 0.000, 0.000, 0.000, 16:16:48.018
189, -933.64, 270.11, 0.70, -4.99, 0.000, 0.000, 0.000, 16:16:48.018
190, -1498.62, -540.71, -19.90, -17.98, 0.000, 0.000, 0.000, 16:16:48.018
191, -1037.37, 23.27, 25.10, 23.03, 0.000, 0.000, 0.000, 16:16:48.040
192, -894.61, 819.22, 0.04, -11.41, 0.000, 0.000, 0.000, 16:16:48.041
193, -1119.15, 362.05, 0.38, 4.69, 0.000, 0.000, 0.000, 16:16:48.041
194, -786.21, -339.58, 0.70, 3.76, 0.000, 0.000, 0.000, 16:16:48.041
195, -286.38, 139.52, 13.50, 12.42, 0.000, 0.000, 0.000, 16:16:48.063
196, -704.22, 99.08, 17.09, 15.38, 0.000, 0.000, 0.000, 16:16:48.063
197, -1616.12, -314.43, -23.31, -19.59, 0.000, 0.000, 0.000, 16:16:48.064
198, -1348.57, 309.97, 32.62, 35.08, 0.000, 0.000, 0.000, 16:16:48.064
199, -432.52, 820.35, 4.61, 5.63, 0.000, 0.000, 0.000, 16:16:48.064
200, -1340.37, 227.17, -8.17, -10.79, 0.000, 0.000, 0.000, 16:16:48.065
0, -2526.55, -204.14, 27.39, 29.56, 0.000, 0.000, 0.000, 16:16:48.085
1, -1991.14, 47.28, -5.36, -2.50, 0.000, 0.000, 0.000, 16:16:48.086
2, -2377.10, -447.17, 6.30, 12.87, 0.000, 0.000, 0.000, 16:16:48.086
3, -2320.99, -764.85, 4.06, 4.13, 0.000, 0.000, 0.000, 16:16:48.108
4, -1808.80, -471.16, 16.09, 16.22, 0.000, 0.000, 0.000, 16:16:48.108
5, -1944.16, -498.03, 14.86, 16.72, 0.000, 0.000, 0.000, 16:16:48.109
6, -2824.63, -997.24, -18.01, -13.34, 0.000, 0.000, 0.000, 16:16:48.109
7, -2047.07, -124.28, 34.18, 35.55, 0.000, 0.000, 0.000, 16:16:48.109
8, -1127.83, 417.97, 6.98, 9.17, 0.000, 0.000, 0.000, 16:16:48.109
9, -1955.80, 180.29, -9.03, -8.48, 0.000, 0.000, 0.000, 16:16:48.130
10, -1109.64, 984.81, 30.81, 30.80, 0.000, 0.000, 0.000, 16:16:48.130
11, -449.98, 1195.54, 4.56, -0.76, 0.000, 0.000, 0.000, 16:16:48.131
12, -926.64, 1163.25, 11.37, 14.84, 0.000, 0.000, 0.000, 16:16:48.131
13, -1069.96, 1806.44, 14.37, 17.01, 0.000, 0.000, 0.000, 16:16:48.153
14, -700.78, 2060.86, 53.12, 41.47, 0.000, 0.000, 0.000, 16:16:48.153
15, -396.57, 2020.40, 44.02, 56.90, 0.000, 0.000, 0.000, 16:16:48.153
16, -469.18, 2005.69, 35.01, 54.64, 0.000, 0.000, 0.000, 16:16:48.153
17, -452.36, 2060.11, 39.80, 32.93, 0.000, 0.000, 0.000, 16:16:48.175
18, -519.15, 2043.24, 35.59, 32.89, 0.000, 0.000, 0.000, 16:16:48.176
19, -624.80, 1974.48, 32.82, 47.31, 0.000, 0.000, 0.000, 16:16:48.176
20, -616.03, 2016.92, 27.54, 31.19, 0.000, 0.000, 0.000, 16:16:48.176
21, -627.79, 2040.72, 29.96, 18.74, 0.000, 0.000, 0.000, 16:16:48.198
22, -726.10, 1973.90, 28.84, 39.25, 0.000, 0.000, 0.000, 16:16:48.198
23, -734.97, 1989.27, 27.92, 29.85, 0.000, 0.000, 0.000, 16:16:48.198
24, -715.50, 2027.54, 23.30, 14.57, 0.000, 0.000, 0.000, 16:16:48.199
25, -788.86, 1982.75, 23.74, 31.13, 0.000, 0.000, 0.000, 16:16:48.199
26, -813.90, 1967.85, 22.50, 31.17, 0.000, 0.000, 0.000, 16:16:48.199
27, -788.54, 2011.55, 17.26, 10.48, 0.000, 0.000, 0.000, 16:16:48.220
28, -821.99, 1994.41, 19.03, 15.27, 0.000, 0.000, 0.000, 16:16:48.220
29, -866.93, 1958.12, 25.09, 30.68, 0.000, 0.000, 0.000, 16:16:48.221
30, -851.56, 1991.35, 10.90, 17.10, 0.000, 0.000, 0.000, 16:16:48.221
31, -839.86, 2006.95, 10.82, 6.17, 0.000, 0.000, 0.000, 16:16:48.243
32, -903.57, 1959.03, 21.29, 27.65, 0.000, 0.000, 0.000, 16:16:48.243
33, -896.09, 1972.18, 15.45, 18.34, 0.000, 0.000, 0.000, 16:16:48.243
34, -873.77, 2002.74, 9.20, 3.56, 0.000, 0.000, 0.000, 16:16:48.243
35, -918.93, 1968.10, 18.43, 22.62, 0.000, 0.000, 0.000, 16:16:48.265
36, -924.94, 1966.28, 19.57, 24.27, 0.000, 0.000, 0.000, 16:16:48.266
37, -903.22, 1989.27, 9.22, 8.38, 0.000, 0.000, 0.000, 16:16:48.266
38, -922.48, 1982.69, 11.99, 12.96, 0.000, 0.000, 0.000, 16:16:48.266
39, -953.69, 1954.19, 19.82, 26.44, 0.000, 0.000, 0.000, 16:16:48.288
40, -929.05, 1977.09, 11.77, 10.02, 0.000, 0.000, 0.000, 16:16:48.288
41, -915.57, 1994.40, 9.79, 1.63, 0.000, 0.000, 0.000, 16:16:48.288
42, -964.74, 1953.15, 19.81, 27.77, 0.000, 0.000, 0.000, 16:16:48.288
43, -953.22, 1962.74, 10.43, 18.87, 0.000, 0.000, 0.000, 16:16:48.289
44, -924.14, 1992.46, 5.40, 2.78, 0.000, 0.000, 0.000, 16:16:48.289
45, -961.35, 1963.68, 17.31, 16.84, 0.000, 0.000, 0.000, 16:16:48.310
46, -971.67, 1956.03, 14.41, 21.22, 0.000, 0.000, 0.000, 16:16:48.310
47, -937.58, 1986.85, 9.12, 0.47, 0.000, 0.000, 0.000, 16:16:48.311
48, -947.46, 1974.17, 10.75, 12.08, 0.000, 0.000, 0.000, 16:16:48.311
49, -977.88, 1951.65, 18.54, 22.94, 0.000, 0.000, 0.000, 16:16:48.333
50, -954.64, 1971.30, 9.68, 8.20, 0.000, 0.000, 0.000, 16:16:48.333
51, -937.50, 1988.89, 2.91, 1.91, 0.000, 0.000, 0.000, 16:16:48.333
52, -984.33, 1953.56, 15.85, 26.47, 0.000, 0.000, 0.000, 16:16:48.333
53, -968.85, 1963.56, 17.97, 16.46, 0.000, 0.000, 0.000, 16:16:48.355
54, -936.31, 1999.21, 3.24, -1.09, 0.000, 0.000, 0.000, 16:16:48.356
55, -979.57, 1956.29, 15.30, 17.61, 0.000, 0.000, 0.000, 16:16:48.356
56, -981.44, 1954.32, 15.43, 21.35, 0.000, 0.000, 0.000, 16:16:48.356
57, -955.66, 1980.54, 3.57, 5.91, 0.000, 0.000, 0.000, 16:16:48.378
58, -962.34, 1976.21, 10.07, 8.46, 0.000, 0.000, 0.000, 16:16:48.378
59, -983.23, 1953.92, 17.48, 22.72, 0.000, 0.000, 0.000, 16:16:48.378
60, -964.32, 1973.95, 10.05, 8.50, 0.000, 0.000, 0.000, 16:16:48.378
61, -952.11, 1985.11, 4.76, 1.32, 0.000, 0.000, 0.000, 16:16:48.379
62, -982.65, 1956.46, 20.80, 27.15, 0.000, 0.000, 0.000, 16:16:48.379
63, -970.76, 1967.06, 14.26, 15.05, 0.000, 0.000, 0.000, 16:16:48.400
64, -954.85, 1982.90, -2.43, -3.32, 0.000, 0.000, 0.000, 16:16:48.400
65, -977.79, 1960.33, 17.08, 15.79, 0.000, 0.000, 0.000, 16:16:48.401
66, -977.62, 1959.74, 16.84, 21.99, 0.000, 0.000, 0.000, 16:16:48.401
67, -959.19, 1982.46, 3.44, 5.93, 0.000, 0.000, 0.000, 16:16:48.423
68, -970.91, 1969.11, 4.48, 11.26, 0.000, 0.000, 0.000, 16:16:48.423
69, -981.79, 1957.29, 21.66, 22.80, 0.000, 0.000, 0.000, 16:16:48.423
70, -970.22, 1970.63, 5.32, 7.80, 0.000, 0.000, 0.000, 16:16:48.424
71, -959.70, 1978.80, 5.09, -0.79, 0.000, 0.000, 0.000, 16:16:48.445
72, -980.04, 1961.26, 19.56, 20.13, 0.000, 0.000, 0.000, 16:16:48.445
73, -981.40, 1961.93, 12.82, 13.76, 0.000, 0.000, 0.000, 16:16:48.446
74, -958.39, 1980.68, 1.11, -0.95, 0.000, 0.000, 0.000, 16:16:48.446
75, -979.32, 1964.76, 19.08, 17.23, 0.000, 0.000, 0.000, 16:16:48.467
76, -984.40, 1963.07, 17.61, 18.63, 0.000, 0.000, 0.000, 16:16:48.468
77, -964.86, 1972.99, 3.53, -0.61, 0.000, 0.000, 0.000, 16:16:48.468
78, -968.57, 1975.95, 8.38, 12.44, 0.000, 0.000, 0.000, 16:16:48.468
79, -987.74, 1958.41, 19.30, 21.82, 0.000, 0.000, 0.000, 16:16:48.469
80, -973.98, 1972.30, 8.72, 11.36, 0.000, 0.000, 0.000, 16:16:48.469
81, -958.11, 1982.51, 3.02, 0.33, 0.000, 0.000, 0.000, 16:16:48.490
82, -989.43, 1957.50, 20.22, 19.78, 0.000, 0.000, 0.000, 16:16:48.490
83, -977.07, 1965.50, 15.34, 16.76, 0.000, 0.000, 0.000, 16:16:48.491
84, -958.38, 1977.17, 0.70, -1.35, 0.000, 0.000, 0.000, 16:16:48.491
85, -979.19, 1962.90, 15.65, 20.62, 0.000, 0.000, 0.000, 16:16:48.513
86, -982.36, 1958.38, 15.83, 17.77, 0.000, 0.000, 0.000, 16:16:48.513
87, -962.48, 1978.75, 4.22, 0.95, 0.000, 0.000, 0.000, 16:16:48.513
88, -975.18, 1971.15, 8.23, 9.86, 0.000, 0.000, 0.000, 16:16:48.513
89, -983.22, 1957.47, 25.28, 27.05, 0.000, 0.000, 0.000, 16:16:48.535
90, -965.32, 1974.81, 8.69, 9.14, 0.000, 0.000, 0.000, 16:16:48.535
91, -967.34, 1976.88, -1.70, 3.87, 0.000, 0.000, 0.000, 16:16:48.536
92, -990.63, 1961.65, 19.41, 24.40, 0.000, 0.000, 0.000, 16:16:48.536
93, -976.92, 1966.78, 12.95, 18.59, 0.000, 0.000, 0.000, 16:16:48.558
94, -956.20, 1984.59, 3.48, -1.67, 0.000, 0.000, 0.000, 16:16:48.558
95, -979.40, 1964.48, 14.29, 15.72, 0.000, 0.000, 0.000, 16:16:48.559
96, -981.52, 1964.30, 15.14, 19.95, 0.000, 0.000, 0.000, 16:16:48.559
97, -963.55, 1973.91, 3.87, -0.57, 0.000, 0.000, 0.000, 16:16:48.559
98, -968.81, 1973.12, 11.86, 7.70, 0.000, 0.000, 0.000, 16:16:48.559
99, -982.62, 1960.16, 17.56, 19.89, 0.000, 0.000, 0.000, 16:16:48.580
100, -974.39, 1966.84, 8.72, 10.28, 0.000, 0.000, 0.000, 16:16:48.580
101, -961.34, 1977.83, 0.61, 1.91, 0.000, 0.000, 0.000, 16:16:48.581
102, -985.56, 1960.33, 20.88, 19.21, 0.000, 0.000, 0.000, 16:16:48.581
103, -979.75, 1966.72, 11.51, 16.70, 0.000, 0.000, 0.000, 16:16:48.603
104, -964.39, 1980.28, 2.07, -1.13, 0.000, 0.000, 0.000, 16:16:48.603
105, -977.63, 1965.36, 14.51, 15.90, 0.000, 0.000, 0.000, 16:16:48.603
106, -979.77, 1962.07, 17.11, 19.00, 0.000, 0.000, 0.000, 16:16:48.603
107, -961.30, 1974.50, 2.49, 3.69, 0.000, 0.000, 0.000, 16:16:48.625
108, -966.30, 1978.14, 7.77, 13.79, 0.000, 0.000, 0.000, 16:16:48.625
109, -990.89, 1955.44, 21.19, 22.87, 0.000, 0.000, 0.000, 16:16:48.626
110, -971.66, 1968.49, 12.02, 12.45, 0.000, 0.000, 0.000, 16:16:48.626
111, -960.01, 1978.69, 1.32, -0.80, 0.000, 0.000, 0.000, 16:16:48.648
112, -988.28, 1960.81, 23.22, 22.39, 0.000, 0.000, 0.000, 16:16:48.648
113, -979.04, 1963.99, 14.47, 14.76, 0.000, 0.000, 0.000, 16:16:48.648
114, -959.46, 1981.91, -0.98, -1.87, 0.000, 0.000, 0.000, 16:16:48.648
115, -979.47, 1965.68, 17.74, 20.60, 0.000, 0.000, 0.000, 16:16:48.649
116, -983.69, 1962.32, 20.00, 16.28, 0.000, 0.000, 0.000, 16:16:48.649
117, -963.03, 1979.95, 5.16, 1.28, 0.000, 0.000, 0.000, 16:16:48.670
118, -972.84, 1967.59, 5.06, 8.05, 0.000, 0.000, 0.000, 16:16:48.670
119, -982.31, 1954.82, 21.64, 26.10, 0.000, 0.000, 0.000, 16:16:48.671
120, -972.82, 1971.61, 6.60, 11.37, 0.000, 0.000, 0.000, 16:16:48.671
121, -961.98, 1978.50, 1.18, 1.58, 0.000, 0.000, 0.000, 16:16:48.693
122, -987.32, 1957.47, 16.31, 21.01, 0.000, 0.000, 0.000, 16:16:48.693
123, -978.06, 1966.26, 16.91, 12.12, 0.000, 0.000, 0.000, 16:16:48.693
124, -962.06, 1982.33, 0.30, 2.47, 0.000, 0.000, 0.000, 16:16:48.693
125, -978.05, 1963.08, 16.65, 18.62, 0.000, 0.000, 0.000, 16:16:48.715
126, -973.13, 1968.64, 18.59, 16.41, 0.000, 0.000, 0.000, 16:16:48.716
127, -968.59, 1972.45, 3.22, 3.26, 0.000, 0.000, 0.000, 16:16:48.716
128, -970.07, 1972.61, 11.80, 9.60, 0.000, 0.000, 0.000, 16:16:48.716
129, -985.74, 1958.88, 22.27, 18.67, 0.000, 0.000, 0.000, 16:16:48.738
130, -972.56, 1971.72, 9.68, 10.53, 0.000, 0.000, 0.000, 16:16:48.738
131, -962.48, 1980.62, 1.65, 1.81, 0.000, 0.000, 0.000, 16:16:48.739
132, -979.53, 1961.41, 14.54, 20.06, 0.000, 0.000, 0.000, 16:16:48.739
133, -979.88, 1963.29, 13.04, 20.04, 0.000, 0.000, 0.000, 16:16:48.739
134, -960.64, 1976.70, 3.94, 6.98, 0.000, 0.000, 0.000, 16:16:48.739
135, -974.54, 1967.65, 14.88, 16.66, 0.000, 0.000, 0.000, 16:16:48.760
136, -985.96, 1962.24, 15.64, 16.69, 0.000, 0.000, 0.000, 16:16:48.760
137, -966.37, 1973.70, 3.30, 3.14, 0.000, 0.000, 0.000, 16:16:48.761
138, -971.48, 1971.67, 10.83, 5.22, 0.000, 0.000, 0.000, 16:16:48.761
139, -983.48, 1959.47, 19.87, 22.00, 0.000, 0.000, 0.000, 16:16:48.783
140, -972.08, 1970.15, 5.26, 12.12, 0.000, 0.000, 0.000, 16:16:48.783
141, -961.09, 1981.43, 1.87, 5.76, 0.000, 0.000, 0.000, 16:16:48.783
142, -982.84, 1959.60, 23.42, 19.54, 0.000, 0.000, 0.000, 16:16:48.783
143, -974.19, 1965.01, 12.28, 15.13, 0.000, 0.000, 0.000, 16:16:48.805
144, -956.26, 1979.00, 2.40, 1.85, 0.000, 0.000, 0.000, 16:16:48.806
145, -982.34, 1961.33, 16.45, 16.75, 0.000, 0.000, 0.000, 16:16:48.806
146, -981.68, 1965.86, 15.54, 13.80, 0.000, 0.000, 0.000, 16:16:48.806
147, -967.57, 1976.89, 6.06, 3.85, 0.000, 0.000, 0.000, 16:16:48.828
148, -968.47, 1976.19, 9.17, 8.97, 0.000, 0.000, 0.000, 16:16:48.828
149, -983.13, 1960.92, 16.04, 18.29, 0.000, 0.000, 0.000, 16:16:48.828
150, -965.09, 1972.35, 9.90, 10.17, 0.000, 0.000, 0.000, 16:16:48.828
151, -968.95, 1973.09, 3.83, 5.49, 0.000, 0.000, 0.000, 16:16:48.829
152, -986.63, 1959.47, 17.91, 20.18, 0.000, 0.000, 0.000, 16:16:48.829
153, -975.13, 1972.42, 15.09, 15.42, 0.000, 0.000, 0.000, 16:16:48.850
154, -965.63, 1975.90, 4.04, 1.87, 0.000, 0.000, 0.000, 16:16:48.850
155, -979.33, 1967.26, 14.99, 20.83, 0.000, 0.000, 0.000, 16:16:48.851
156, -979.91, 1961.03, 12.70, 20.95, 0.000, 0.000, 0.000, 16:16:48.851
157, -966.07, 1975.74, 2.14, 7.09, 0.000, 0.000, 0.000, 16:16:48.873
158, -972.84, 1969.65, 10.33, 9.22, 0.000, 0.000, 0.000, 16:16:48.873
159, -979.56, 1962.56, 19.15, 22.13, 0.000, 0.000, 0.000, 16:16:48.873
160, -971.08, 1973.24, 9.01, 11.48, 0.000, 0.000, 0.000, 16:16:48.874
161, -968.18, 1978.27, -1.21, 3.83, 0.000, 0.000, 0.000, 16:16:48.895
162, -979.14, 1963.52, 22.13, 21.58, 0.000, 0.000, 0.000, 16:16:48.895
163, -982.88, 1960.32, 13.53, 19.82, 0.000, 0.000, 0.000, 16:16:48.896
164, -965.29, 1978.30, 3.13, -0.86, 0.000, 0.000, 0.000, 16:16:48.896
165, -978.54, 1964.83, 11.82, 17.98, 0.000, 0.000, 0.000, 16:16:48.918
166, -979.02, 1964.21, 14.82, 15.49, 0.000, 0.000, 0.000, 16:16:48.918
167, -971.29, 1972.14, 1.81, 5.65, 0.000, 0.000, 0.000, 16:16:48.918
168, -971.21, 1972.08, 9.46, 6.54, 0.000, 0.000, 0.000, 16:16:48.918
169, -980.31, 1961.76, 17.87, 18.14, 0.000, 0.000, 0.000, 16:16:48.940
170, -970.85, 1971.03, 8.81, 6.69, 0.000, 0.000, 0.000, 16:16:48.940
171, -957.90, 1980.10, 3.19, 2.02, 0.000, 0.000, 0.000, 16:16:48.941
172, -989.66, 1957.41, 20.36, 20.19, 0.000, 0.000, 0.000, 16:16:48.941
173, -977.17, 1966.06, 15.51, 13.39, 0.000, 0.000, 0.000, 16:16:48.941
174, -965.98, 1977.40, 1.33, 3.10, 0.000, 0.000, 0.000, 16:16:48.941
175, -978.72, 1968.13, 15.52, 17.06, 0.000, 0.000, 0.000, 16:16:48.963
176, -975.19, 1963.48, 19.39, 19.99, 0.000, 0.000, 0.000, 16:16:48.963
177, -967.31, 1977.85, 5.37, 5.10, 0.000, 0.000, 0.000, 16:16:48.963
178, -969.02, 1970.29, 9.36, 9.76, 0.000, 0.000, 0.000, 16:16:48.963
179, -981.15, 1963.64, 16.95, 20.01, 0.000, 0.000, 0.000, 16:16:48.985
180, -968.19, 1975.71, 9.10, 9.79, 0.000, 0.000, 0.000, 16:16:48.985
181, -970.47, 1968.80, 3.47, 3.64, 0.000, 0.000, 0.000, 16:16:48.986
182, -984.05, 1961.76, 19.05, 21.64, 0.000, 0.000, 0.000, 16:16:48.986
183, -976.64, 1968.06, 14.08, 10.99, 0.000, 0.000, 0.000, 16:16:49.008
184, -964.13, 1977.08, 2.13, 0.42, 0.000, 0.000, 0.000, 16:16:49.008
185, -981.94, 1965.52, 18.00, 17.62, 0.000, 0.000, 0.000, 16:16:49.008
186, -975.04, 1963.73, 14.82, 21.27, 0.000, 0.000, 0.000, 16:16:49.008
187, -968.21, 1972.96, 4.29, 3.19, 0.000, 0.000, 0.000, 16:16:49.009
188, -969.79, 1970.91, 7.41, 8.52, 0.000, 0.000, 0.000, 16:16:49.011
189, -980.39, 1962.73, 18.96, 19.77, 0.000, 0.000, 0.000, 16:16:49.030
190, -975.09, 1966.80, 9.42, 14.35, 0.000, 0.000, 0.000, 16:16:49.030
191, -968.91, 1976.62, 5.49, 1.54, 0.000, 0.000, 0.000, 16:16:49.031
192, -981.70, 1964.95, 19.23, 18.84, 0.000, 0.000, 0.000, 16:16:49.031
193, -973.41, 1973.29, 12.11, 12.10, 0.000, 0.000, 0.000, 16:16:49.053
194, -966.80, 1974.56, 3.38, 1.44, 0.000, 0.000, 0.000, 16:16:49.053
195, -976.10, 1963.27, 16.09, 13.46, 0.000, 0.000, 0.000, 16:16:49.053
196, -979.31, 1964.59, 16.78, 17.90, 0.000, 0.000, 0.000, 16:16:49.053
197, -971.02, 1971.72, 7.99, 10.21, 0.000, 0.000, 0.000, 16:16:49.075
198, -969.24, 1977.02, 7.54, 10.75, 0.000, 0.000, 0.000, 16:16:49.075
199, -985.16, 1960.25, 19.02, 21.09, 0.000, 0.000, 0.000, 16:16:49.076
200, -971.53, 1971.46, 11.27, 6.88, 0.000, 0.000, 0.000, 16:16:49.076
0, 16.00, 13.74, 5.17, 0.37, 0.000, 0.000, 0.000, 16:16:49.077
1, 2.16, 1.15, 16.58, 21.50, 0.000, 0.000, 0.000, 16:16:49.098
2, 5.10, 5.98, 14.40, 14.41, 0.000, 0.000, 0.000, 16:16:49.098
3, 14.98, 12.09, 3.43, 3.79, 0.000, 0.000, 0.000, 16:16:49.098
4, 5.20, 8.69, 11.51, 16.71, 0.000, 0.000, 0.000, 16:16:49.098
5, -0.65, 1.08, 12.73, 18.45, 0.000, 0.000, 0.000, 16:16:49.120
6, 13.34, 16.14, 3.96, 1.91, 0.000, 0.000, 0.000, 16:16:49.121
7, 2.63, 6.09, 9.02, 11.01, 0.000, 0.000, 0.000, 16:16:49.121
8, -1.49, 0.11, 15.05, 19.42, 0.000, 0.000, 0.000, 16:16:49.121
9, 6.80, 14.02, 11.03, 13.56, 0.000, 0.000, 0.000, 16:16:49.150
10, 13.08, 14.96, 4.20, 5.11, 0.000, 0.000, 0.000, 16:16:49.150
11, -3.38, 0.47, 23.17, 21.33, 0.000, 0.000, 0.000, 16:16:49.150
12, 4.86, 11.09, 15.36, 12.26, 0.000, 0.000, 0.000, 16:16:49.150
13, 15.10, 16.98, -1.89, -1.45, 0.000, 0.000, 0.000, 16:16:49.151
14, 4.12, 4.85, 10.17, 15.89, 0.000, 0.000, 0.000, 16:16:49.151
15, 8.85, 6.07, 16.03, 19.73, 0.000, 0.000, 0.000, 16:16:49.165
16, 11.33, 12.88, 2.38, 5.96, 0.000, 0.000, 0.000, 16:16:49.166
17, 8.50, 8.07, 9.73, 8.38, 0.000, 0.000, 0.000, 16:16:49.166
18, 4.11, -1.07, 20.62, 19.78, 0.000, 0.000, 0.000, 16:16:49.166
19, 7.90, 9.35, 8.37, 10.97, 0.000, 0.000, 0.000, 16:16:49.190
20, 9.96, 12.23, 5.82, 3.44, 0.000, 0.000, 0.000, 16:16:49.190
21, -2.30, 3.92, 15.53, 20.74, 0.000, 0.000, 0.000, 16:16:49.190
22, 4.01, 2.32, 9.42, 16.58, 0.000, 0.000, 0.000, 16:16:49.190
23, 13.95, 14.21, 0.42, 1.80, 0.000, 0.000, 0.000, 16:16:49.210
24, 7.63, 10.89, 15.07, 15.30, 0.000, 0.000, 0.000, 16:16:49.210
25, -2.21, -0.76, 17.35, 15.94, 0.000, 0.000, 0.000, 16:16:49.211
26, 17.46, 13.44, 7.38, 6.75, 0.000, 0.000, 0.000, 16:16:49.211
27, 9.10, 10.41, 8.67, 7.60, 0.000, 0.000, 0.000, 16:16:49.233
28, -1.86, 1.27, 19.52, 15.34, 0.000, 0.000, 0.000, 16:16:49.233
29, 10.48, 4.65, 9.50, 10.83, 0.000, 0.000, 0.000, 16:16:49.233
30, 15.28, 17.72, 2.32, 6.07, 0.000, 0.000, 0.000, 16:16:49.234
31, 0.51, -0.09, 18.02, 20.30, 0.000, 0.000, 0.000, 16:16:49.234
32, 6.24, 4.96, 15.53, 15.70, 0.000, 0.000, 0.000, 16:16:49.234
33, 15.50, 14.25, 2.11, 0.34, 0.000, 0.000, 0.000, 16:16:49.255
34, -0.31, 2.60, 15.15, 14.72, 0.000, 0.000, 0.000, 16:16:49.255
35, 2.27, 4.56, 16.84, 19.86, 0.000, 0.000, 0.000, 16:16:49.256
36, 11.54, 15.15, 5.22, 8.92, 0.000, 0.000, 0.000, 16:16:49.256
37, 7.26, 13.19, 10.20, 8.49, 0.000, 0.000, 0.000, 16:16:49.278
38, -1.04, 5.45, 18.23, 18.66, 0.000, 0.000, 0.000, 16:16:49.278
39, 7.05, 10.96, 6.62, 10.33, 0.000, 0.000, 0.000, 16:16:49.278
40, 11.24, 14.79, 0.55, 1.73, 0.000, 0.000, 0.000, 16:16:49.278
41, -0.46, 4.02, 18.02, 19.20, 0.000, 0.000, 0.000, 16:16:49.300
42, 8.91, 10.22, 12.60, 13.67, 0.000, 0.000, 0.000, 16:16:49.300
43, 8.52, 12.88, 6.82, 2.23, 0.000, 0.000, 0.000, 16:16:49.301
44, 2.03, 6.68, 16.55, 17.10, 0.000, 0.000, 0.000, 16:16:49.301
45, 4.07, 3.15, 18.23, 16.79, 0.000, 0.000, 0.000, 16:16:49.323
46, 17.39, 10.96, 8.27, 6.01, 0.000, 0.000, 0.000, 16:16:49.323
47, 5.09, 10.81, 11.51, 12.39, 0.000, 0.000, 0.000, 16:16:49.323
48, -2.03, 3.57, 18.72, 21.82, 0.000, 0.000, 0.000, 16:16:49.324
49, 9.67, 11.89, 9.24, 11.15, 0.000, 0.000, 0.000, 16:16:49.324
50, 11.56, 14.76, 3.01, 3.95, 0.000, 0.000, 0.000, 16:16:49.324
51, 3.72, 4.37, 20.39, 18.52, 0.000, 0.000, 0.000, 16:16:49.345
52, 1.11, 3.84, 12.51, 17.85, 0.000, 0.000, 0.000, 16:16:49.345
53, 16.08, 11.87, 3.65, 3.80, 0.000, 0.000, 0.000, 16:16:49.346
54, 2.96, 3.59, 10.80, 16.47, 0.000, 0.000, 0.000, 16:16:49.346
55, -2.35, 6.44, 16.87, 18.86, 0.000, 0.000, 0.000, 16:16:49.368
56, 10.31, 12.97, 5.88, 6.30, 0.000, 0.000, 0.000, 16:16:49.368
57, 7.83, 11.01, 9.87, 9.57, 0.000, 0.000, 0.000, 16:16:49.368
58, -1.50, 2.84, 21.09, 18.93, 0.000, 0.000, 0.000, 16:16:49.368
59, 9.03, 9.55, 8.69, 8.98, 0.000, 0.000, 0.000, 16:16:49.390
60, 15.60, 20.59, 0.66, 4.94, 0.000, 0.000, 0.000, 16:16:49.390
61, -6.37, -1.69, 19.17, 18.85, 0.000, 0.000, 0.000, 16:16:49.391
62, 6.14, 6.27, 12.24, 15.72, 0.000, 0.000, 0.000, 16:16:49.391
63, 14.78, 15.52, 3.87, 2.62, 0.000, 0.000, 0.000, 16:16:49.413
64, 6.32, 7.21, 13.64, 18.16, 0.000, 0.000, 0.000, 16:16:49.413
65, 2.89, 0.53, 16.94, 19.44, 0.000, 0.000, 0.000, 16:16:49.413
66, 12.93, 13.41, 3.35, 5.47, 0.000, 0.000, 0.000, 16:16:49.413
67, 8.99, 12.31, 10.66, 8.16, 0.000, 0.000, 0.000, 16:16:49.414
68, 2.03, 1.02, 18.92, 21.97, 0.000, 0.000, 0.000, 16:16:49.414
69, 7.25, 13.31, 11.00, 12.58, 0.000, 0.000, 0.000, 16:16:49.435
70, 10.13, 16.41, 1.11, 4.53, 0.000, 0.000, 0.000, 16:16:49.435
71, -1.05, 1.90, 19.88, 19.88, 0.000, 0.000, 0.000, 16:16:49.436
72, 7.21, 4.57, 13.74, 15.08, 0.000, 0.000, 0.000, 16:16:49.436
73, 16.13, 15.92, 5.62, -0.18, 0.000, 0.000, 0.000, 16:16:49.458
74, 1.07, 0.82, 13.51, 13.58, 0.000, 0.000, 0.000, 16:16:49.458
75, 1.47, 6.53, 13.76, 15.61, 0.000, 0.000, 0.000, 16:16:49.458
76, 10.63, 11.95, 3.41, 3.78, 0.000, 0.000, 0.000, 16:16:49.458
77, 8.51, 10.81, 9.07, 11.13, 0.000, 0.000, 0.000, 16:16:49.480
78, 6.15, 11.83, 16.61, 23.16, 0.000, 0.000, 0.000, 16:16:49.480
79, 1.95, 1.89, 12.42, 9.60, 0.000, 0.000, 0.000, 16:16:49.481
80, 13.26, 13.21, 2.68, 4.09, 0.000, 0.000, 0.000, 16:16:49.481
81, -3.28, 1.15, 19.18, 19.25, 0.000, 0.000, 0.000, 16:16:49.503
82, 7.64, 4.96, 14.42, 12.76, 0.000, 0.000, 0.000, 16:16:49.503
83, 12.86, 12.06, 3.05, -1.52, 0.000, 0.000, 0.000, 16:16:49.504
84, 1.36, 3.99, 15.37, 12.49, 0.000, 0.000, 0.000, 16:16:49.504
85, 1.51, 3.73, 17.33, 20.25, 0.000, 0.000, 0.000, 16:16:49.504
86, 10.70, 12.28, 4.02, 4.81, 0.000, 0.000, 0.000, 16:16:49.504
87, 11.74, 12.15, 8.17, 9.73, 0.000, 0.000, 0.000, 16:16:49.525
88, -0.19, 0.07, 16.55, 19.87, 0.000, 0.000, 0.000, 16:16:49.525
89, 7.49, 9.70, 9.04, 8.47, 0.000, 0.000, 0.000, 16:16:49.526
90, 10.39, 15.16, 1.89, 6.21, 0.000, 0.000, 0.000, 16:16:49.526
91, -2.70, 4.46, 18.92, 19.50, 0.000, 0.000, 0.000, 16:16:49.548
92, 6.12, 4.04, 13.13, 11.96, 0.000, 0.000, 0.000, 16:16:49.548
93, 12.92, 13.06, 0.42, 5.76, 0.000, 0.000, 0.000, 16:16:49.548
94, 0.87, 4.86, 16.44, 19.52, 0.000, 0.000, 0.000, 16:16:49.548
95, 4.02, 7.94, 18.27, 17.18, 0.000, 0.000, 0.000, 16:16:49.571
96, 18.86, 21.11, 4.90, 5.93, 0.000, 0.000, 0.000, 16:16:49.571
97, 7.17, 5.54, 7.97, 11.09, 0.000, 0.000, 0.000, 16:16:49.571
98, -1.59, 4.19, 21.90, 18.57, 0.000, 0.000, 0.000, 16:16:49.571
99, 9.23, 13.60, 13.34, 8.00, 0.000, 0.000, 0.000, 16:16:49.593
100, 12.96, 20.90, 5.37, 4.02, 0.000, 0.000, 0.000, 16:16:49.593
101, -0.68, 1.40, 19.03, 20.86, 0.000, 0.000, 0.000, 16:16:49.593
102, 3.49, 4.17, 12.47, 12.32, 0.000, 0.000, 0.000, 16:16:49.593
103, 12.84, 15.66, 1.05, 3.21, 0.000, 0.000, 0.000, 16:16:49.594
104, 2.36, 7.88, 16.39, 16.37, 0.000, 0.000, 0.000, 16:16:49.594
105, 2.42, 3.99, 16.33, 18.25, 0.000, 0.000, 0.000, 16:16:49.615
106, 7.64, 7.65, 4.31, 3.95, 0.000, 0.000, 0.000, 16:16:49.615
107, 7.10, 8.44, 7.49, 7.26, 0.000, 0.000, 0.000, 16:16:49.615
108, -0.14, 11.40, 19.61, 22.45, 0.000, 0.000, 0.000, 16:16:49.616
109, 10.89, 7.40, 8.23, 10.89, 0.000, 0.000, 0.000, 16:16:49.638
110, 9.36, 10.48, 1.74, 2.85, 0.000, 0.000, 0.000, 16:16:49.638
111, 1.19, 1.08, 14.22, 13.70, 0.000, 0.000, 0.000, 16:16:49.639
112, 1.20, 6.92, 12.32, 16.64, 0.000, 0.000, 0.000, 16:16:49.639
113, 12.94, 12.95, -0.49, 2.12, 0.000, 0.000, 0.000, 16:16:49.660
114, 10.83, 8.54, 15.67, 13.23, 0.000, 0.000, 0.000, 16:16:49.660
115, -3.12, 4.44, 15.79, 19.74, 0.000, 0.000, 0.000, 16:16:49.661
116, 12.24, 12.12, 4.38, 4.94, 0.000, 0.000, 0.000, 16:16:49.661
117, 7.48, 7.17, 10.14, 9.84, 0.000, 0.000, 0.000, 16:16:49.683
118, -1.44, 5.30, 19.60, 18.78, 0.000, 0.000, 0.000, 16:16:49.683
119, 4.42, 6.96, 10.76, 11.84, 0.000, 0.000, 0.000, 16:16:49.683
120, 15.80, 10.92, 5.25, 3.07, 0.000, 0.000, 0.000, 16:16:49.683
121, -0.42, 3.47, 17.40, 20.29, 0.000, 0.000, 0.000, 16:16:49.684
122, 9.43, 6.73, 11.06, 19.49, 0.000, 0.000, 0.000, 16:16:49.684
123, 11.66, 14.93, 3.31, 0.01, 0.000, 0.000, 0.000, 16:16:49.705
124, 1.48, 0.37, 15.39, 14.45, 0.000, 0.000, 0.000, 16:16:49.705
125, 2.29, 3.83, 18.84, 15.56, 0.000, 0.000, 0.000, 16:16:49.706
126, 12.80, 11.85, 7.10, 4.59, 0.000, 0.000, 0.000, 16:16:49.706
127, 9.59, 6.29, 10.65, 9.88, 0.000, 0.000, 0.000, 16:16:49.729
128, -2.35, 3.44, 17.96, 22.03, 0.000, 0.000, 0.000, 16:16:49.729
129, 8.26, 10.53, 10.13, 12.17, 0.000, 0.000, 0.000, 16:16:49.729
130, 11.14, 13.83, 2.14, 3.42, 0.000, 0.000, 0.000, 16:16:49.729
131, 6.12, -0.05, 20.73, 20.83, 0.000, 0.000, 0.000, 16:16:49.750
132, 12.02, 13.75, 11.33, 13.32, 0.000, 0.000, 0.000, 16:16:49.750
133, -0.41, 9.61, 4.50, 3.87, 0.000, 0.000, 0.000, 16:16:49.751
134, 5.15, 7.24, 17.37, 13.96, 0.000, 0.000, 0.000, 16:16:49.751
135, 3.97, 9.57, 14.31, 17.46, 0.000, 0.000, 0.000, 16:16:49.773
136, 12.99, 13.13, 7.02, 6.52, 0.000, 0.000, 0.000, 16:16:49.773
137, 4.90, 8.84, 10.88, 9.38, 0.000, 0.000, 0.000, 16:16:49.773
138, 1.57, 6.64, 15.57, 15.54, 0.000, 0.000, 0.000, 16:16:49.773
139, 7.77, 11.59, 8.59, 11.67, 0.000, 0.000, 0.000, 16:16:49.774
140, 9.77, 11.48, 1.19, 0.20, 0.000, 0.000, 0.000, 16:16:49.774
141, 3.77, 3.99, 15.77, 19.00, 0.000, 0.000, 0.000, 16:16:49.795
142, 5.02, 6.00, 9.27, 12.29, 0.000, 0.000, 0.000, 16:16:49.795
143, 12.23, 9.45, 6.73, 6.36, 0.000, 0.000, 0.000, 16:16:49.796
144, 5.97, 7.78, 14.84, 16.61, 0.000, 0.000, 0.000, 16:16:49.796
145, 6.09, 7.46, 16.65, 15.22, 0.000, 0.000, 0.000, 16:16:49.818
146, 6.30, 11.68, 8.12, 8.94, 0.000, 0.000, 0.000, 16:16:49.818
147, 5.81, 8.63, 9.82, 11.41, 0.000, 0.000, 0.000, 16:16:49.818
148, 1.13, 1.83, 16.49, 17.42, 0.000, 0.000, 0.000, 16:16:49.818
149, 5.90, 8.85, 12.36, 11.49, 0.000, 0.000, 0.000, 16:16:49.840
150, 15.09, 14.79, 6.98, 10.11, 0.000, 0.000, 0.000, 16:16:49.840
151, -0.89, 0.40, 14.29, 20.95, 0.000, 0.000, 0.000, 16:16:49.841
152, 8.08, 11.11, 11.36, 11.94, 0.000, 0.000, 0.000, 16:16:49.841
153, 12.32, 12.66, 6.94, 5.98, 0.000, 0.000, 0.000, 16:16:49.863
154, 7.71, 7.68, 15.69, 18.25, 0.000, 0.000, 0.000, 16:16:49.863
155, 2.91, 9.63, 13.59, 17.16, 0.000, 0.000, 0.000, 16:16:49.865
156, 8.79, 10.51, 8.89, 8.76, 0.000, 0.000, 0.000, 16:16:49.865
157, 5.68, 5.91, 10.29, 11.56, 0.000, 0.000, 0.000, 16:16:49.865
158, 6.65, 6.41, 15.22, 16.23, 0.000, 0.000, 0.000, 16:16:49.865
159, 8.57, 15.35, 11.09, 12.98, 0.000, 0.000, 0.000, 16:16:49.885
160, 8.66, 8.17, 7.28, 8.70, 0.000, 0.000, 0.000, 16:16:49.886
161, 3.19, 3.24, 15.06, 13.32, 0.000, 0.000, 0.000, 16:16:49.886
162, 7.69, 9.21, 8.71, 11.78, 0.000, 0.000, 0.000, 16:16:49.886
163, 8.92, 8.20, 3.41, 8.46, 0.000, 0.000, 0.000, 16:16:49.908
164, 2.33, 5.30, 12.63, 11.47, 0.000, 0.000, 0.000, 16:16:49.908
165, 5.99, 8.20, 9.81, 10.79, 0.000, 0.000, 0.000, 16:16:49.908
166, 9.04, 11.58, 8.39, 8.92, 0.000, 0.000, 0.000, 16:16:49.908
167, 3.83, 8.23, 10.65, 10.29, 0.000, 0.000, 0.000, 16:16:49.930
168, 5.40, 10.74, 11.38, 15.14, 0.000, 0.000, 0.000, 16:16:49.930
169, 2.09, 2.99, 10.29, 11.43, 0.000, 0.000, 0.000, 16:16:49.930
170, 5.33, 10.78, 8.51, 11.93, 0.000, 0.000, 0.000, 16:16:49.931
171, -0.33, 4.79, 18.23, 16.22, 0.000, 0.000, 0.000, 16:16:49.953
172, 5.78, 7.10, 10.70, 7.00, 0.000, 0.000, 0.000, 16:16:49.953
173, 7.02, 8.80, 5.09, 8.00, 0.000, 0.000, 0.000, 16:16:49.953
174, 5.50, 4.70, 15.04, 18.56, 0.000, 0.000, 0.000, 16:16:49.954
175, 10.72, 6.79, 15.07, 14.87, 0.000, 0.000, 0.000, 16:16:49.954
176, 9.76, 7.95, 9.23, 8.13, 0.000, 0.000, 0.000, 16:16:49.954
177, 6.37, 11.42, 12.69, 9.80, 0.000, 0.000, 0.000, 16:16:49.975
178, 2.39, 0.50, 15.92, 14.05, 0.000, 0.000, 0.000, 16:16:49.975
179, 10.17, 10.61, 9.87, 14.99, 0.000, 0.000, 0.000, 16:16:49.976
180, 10.79, 7.71, 9.03, 12.07, 0.000, 0.000, 0.000, 16:16:49.976
181, 2.43, 8.17, 11.94, 16.25, 0.000, 0.000, 0.000, 16:16:49.998
182, -0.87, 7.64, 8.57, 13.11, 0.000, 0.000, 0.000, 16:16:49.998
183, 14.13, 7.29, 13.85, 6.69, 0.000, 0.000, 0.000, 16:16:49.998
184, 7.45, 11.68, 12.07, 14.08, 0.000, 0.000, 0.000, 16:16:49.998
185, 5.21, 8.88, 12.33, 9.04, 0.000, 0.000, 0.000, 16:16:50.020
186, 12.60, 20.32, 8.66, 9.29, 0.000, 0.000, 0.000, 16:16:50.020
187, 1.02, 4.77, 14.40, 13.08, 0.000, 0.000, 0.000, 16:16:50.021
188, 1.00, 7.41, 10.06, 12.03, 0.000, 0.000, 0.000, 16:16:50.021
189, 9.10, 9.05, 12.37, 12.78, 0.000, 0.000, 0.000, 16:16:50.043
190, 11.18, 12.90, 8.82, 14.54, 0.000, 0.000, 0.000, 16:16:50.043
191, 3.42, 3.44, 12.50, 16.84, 0.000, 0.000, 0.000, 16:16:50.043
192, 6.77, 11.57, 9.23, 8.75, 0.000, 0.000, 0.000, 16:16:50.043
193, 8.81, 9.06, 8.06, 8.76, 0.000, 0.000, 0.000, 16:16:50.065
194, 3.58, 10.70, 15.47, 14.75, 0.000, 0.000, 0.000, 16:16:50.065
195, 14.02, 14.14, 9.94, 11.66, 0.000, 0.000, 0.000, 16:16:50.065
196, 2.08, 2.15, 8.44, 10.71, 0.000, 0.000, 0.000, 16:16:50.066
197, 9.15, 6.66, 5.22, 8.81, 0.000, 0.000, 0.000, 16:16:50.066
198, 1.86, 7.15, 15.60, 13.59, 0.000, 0.000, 0.000, 16:16:50.066
199, 5.05, 9.96, 11.22, 11.62, 0.000, 0.000, 0.000, 16:16:50.088
200, 8.87, 8.02, 8.98, 12.17, 0.000, 0.000, 0.000, 16:16:50.088
0, 1.15, 4.87, 15.84, 11.24, 0.000, 0.000, 0.000, 16:16:50.088
1, 7.50, 9.74, 10.44, 13.07, 0.000, 0.000, 0.000, 16:16:50.089
2, 8.64, 11.95, 7.94, 10.24, 0.000, 0.000, 0.000, 16:16:50.089
3, 5.96, 5.59, 13.83, 16.36, 0.000, 0.000, 0.000, 16:16:50.110
4, 4.42, 2.27, 13.42, 11.75, 0.000, 0.000, 0.000, 16:16:50.110
5, 11.62, 12.43, 11.48, 10.88, 0.000, 0.000, 0.000, 16:16:50.111
6, 8.20, 6.04, 12.23, 15.03, 0.000, 0.000, 0.000, 16:16:50.111
7, 7.58, 4.71, 10.84, 14.92, 0.000, 0.000, 0.000, 16:16:50.133
8, 4.99, 9.28, 8.90, 10.03, 0.000, 0.000, 0.000, 16:16:50.133
9, 6.10, 12.15, 9.69, 8.24, 0.000, 0.000, 0.000, 16:16:50.133
10, 3.43, 8.58, 12.78, 13.95, 0.000, 0.000, 0.000, 16:16:50.133
11, 8.36, 12.54, 5.22, 12.23, 0.000, 0.000, 0.000, 16:16:50.155
12, 10.57, 16.58, 3.25, 8.11, 0.000, 0.000, 0.000, 16:16:50.155
13, 1.14, 2.00, 11.74, 14.96, 0.000, 0.000, 0.000, 16:16:50.156
14, 8.15, 8.04, 10.71, 10.12, 0.000, 0.000, 0.000, 16:16:50.156
15, 11.67, 10.01, 10.86, 9.94, 0.000, 0.000, 0.000, 16:16:50.178
16, 7.73, 9.67, 13.74, 13.45, 0.000, 0.000, 0.000, 16:16:50.178
17, 1.56, 6.06, 14.06, 12.74, 0.000, 0.000, 0.000, 16:16:50.178
18, 7.72, 9.72, 10.97, 11.48, 0.000, 0.000, 0.000, 16:16:50.179
19, 6.64, 11.76, 12.72, 9.92, 0.000, 0.000, 0.000, 16:16:50.179
20, 2.15, 3.35, 15.84, 16.71, 0.000, 0.000, 0.000, 16:16:50.179
21, 9.92, 11.32, 11.61, 10.95, 0.000, 0.000, 0.000, 16:16:50.200
22, 3.67, 12.38, 11.26, 10.88, 0.000, 0.000, 0.000, 16:16:50.200
23, 0.78, 8.25, 14.82, 15.62, 0.000, 0.000, 0.000, 16:16:50.201
24, 0.84, 8.15, 14.64, 11.83, 0.000, 0.000, 0.000, 16:16:50.201
25, 12.64, 11.31, 10.39, 9.17, 0.000, 0.000, 0.000, 16:16:50.223
26, 4.09, 5.08, 8.36, 16.46, 0.000, 0.000, 0.000, 16:16:50.223
