%OpenBCI Raw EEG Data
%
%Sample Rate = 200.0 Hz
%First Column = SampleIndex
%Last Column = Timestamp 
%Other Columns = EEG data in microvolts followed by Accel Data (in G) interleaved with Aux Data
0, -427.32, 13.64, -0.66, 1.47, 0.000, 0.000, 0.000, 15:50:46.519
1, -406.56, 7.22, 12.88, 13.39, 0.000, 0.000, 0.000, 15:50:46.525
2, 438.28, 3.50, 13.34, 19.83, 0.000, 0.000, 0.000, 15:50:46.528
3, -50.28, 18.45, 4.04, 10.98, 0.000, 0.000, 0.000, 15:50:46.540
4, -626.79, 7.09, 9.94, 11.31, 0.000, 0.000, 0.000, 15:50:46.541
5, 235.36, 4.53, 20.90, 19.55, 0.000, 0.000, 0.000, 15:50:46.541
6, 293.01, 6.27, 12.53, 8.79, 0.000, 0.000, 0.000, 15:50:46.542
7, -621.96, 13.62, 7.29, 6.54, 0.000, 0.000, 0.000, 15:50:46.561
8, -98.33, 1.54, 18.02, 15.33, 0.000, 0.000, 0.000, 15:50:46.561
9, 472.71, 4.67, 11.25, 15.02, 0.000, 0.000, 0.000, 15:50:46.562
10, -378.61, 13.01, 3.02, 2.08, 0.000, 0.000, 0.000, 15:50:46.562
11, -424.29, 6.86, 12.10, 12.69, 0.000, 0.000, 0.000, 15:50:46.584
12, 442.98, 4.21, 17.18, 15.30, 0.000, 0.000, 0.000, 15:50:46.585
13, -33.92, 7.07, 4.92, 7.10, 0.000, 0.000, 0.000, 15:50:46.586
14, -619.42, 11.07, 6.58, 8.74, 0.000, 0.000, 0.000, 15:50:46.586
15, 224.15, 3.12, 18.71, 18.06, 0.000, 0.000, 0.000, 15:50:46.609
16, 283.22, 5.28, 8.95, 13.18, 0.000, 0.000, 0.000, 15:50:46.609
17, -599.50, 10.52, 2.28, 7.41, 0.000, 0.000, 0.000, 15:50:46.610
18, -82.38, 3.67, 13.13, 10.25, 0.000, 0.000, 0.000, 15:50:46.610
19, 471.86, 5.01, 12.78, 14.28, 0.000, 0.000, 0.000, 15:50:46.611
20, -392.85, 15.02, 5.32, 6.07, 0.000, 0.000, 0.000, 15:50:46.611
21, -438.59, 11.59, 8.49, 11.49, 0.000, 0.000, 0.000, 15:50:46.633
22, 426.19, -1.94, 18.58, 13.33, 0.000, 0.000, 0.000, 15:50:46.634
23, -15.34, 10.30, 5.34, 12.90, 0.000, 0.000, 0.000, 15:50:46.634
24, -612.38, 12.57, 8.23, 12.38, 0.000, 0.000, 0.000, 15:50:46.634
25, 230.52, 5.43, 18.19, 18.17, 0.000, 0.000, 0.000, 15:50:46.652
26, 312.03, 8.04, 11.83, 11.29, 0.000, 0.000, 0.000, 15:50:46.653
27, -611.93, 17.07, 5.06, 6.45, 0.000, 0.000, 0.000, 15:50:46.653
28, -95.37, 6.24, 14.76, 15.85, 0.000, 0.000, 0.000, 15:50:46.653
29, 465.51, 3.90, 18.78, 18.62, 0.000, 0.000, 0.000, 15:50:46.673
30, -380.44, 20.59, 1.98, 5.90, 0.000, 0.000, 0.000, 15:50:46.674
31, -422.16, 6.98, 11.44, 12.26, 0.000, 0.000, 0.000, 15:50:46.674
32, 436.43, 1.22, 12.28, 14.61, 0.000, 0.000, 0.000, 15:50:46.675
33, -35.65, 10.15, 5.70, 5.54, 0.000, 0.000, 0.000, 15:50:46.701
34, -576.18, 9.20, 12.20, 10.87, 0.000, 0.000, 0.000, 15:50:46.702
35, 297.40, 5.11, 19.70, 19.70, 0.000, 0.000, 0.000, 15:50:46.702
36, 152.93, 14.91, 5.33, 9.98, 0.000, 0.000, 0.000, 15:50:46.702
37, -678.76, 8.35, 7.32, 9.92, 0.000, 0.000, 0.000, 15:50:46.704
38, 50.43, 3.99, 14.00, 21.27, 0.000, 0.000, 0.000, 15:50:46.705
39, 437.70, 13.71, 10.80, 15.40, 0.000, 0.000, 0.000, 15:50:46.718
40, -477.99, 13.84, 4.53, 3.66, 0.000, 0.000, 0.000, 15:50:46.719
41, -303.97, 6.83, 15.73, 12.07, 0.000, 0.000, 0.000, 15:50:46.720
42, 488.93, 4.28, 15.21, 16.32, 0.000, 0.000, 0.000, 15:50:46.720
43, -174.29, 12.33, 2.34, 3.74, 0.000, 0.000, 0.000, 15:50:46.743
44, -583.96, 8.88, 12.36, 11.11, 0.000, 0.000, 0.000, 15:50:46.744
45, 369.55, 3.16, 15.75, 15.57, 0.000, 0.000, 0.000, 15:50:46.744
46, 191.91, 7.16, 5.27, 10.02, 0.000, 0.000, 0.000, 15:50:46.744
47, -666.01, 10.91, 4.95, 6.95, 0.000, 0.000, 0.000, 15:50:46.764
48, 65.38, 7.32, 16.52, 18.27, 0.000, 0.000, 0.000, 15:50:46.764
49, 426.26, 3.59, 12.92, 14.03, 0.000, 0.000, 0.000, 15:50:46.765
50, -505.32, 14.92, 6.39, 2.14, 0.000, 0.000, 0.000, 15:50:46.765
51, -319.43, 8.79, 19.41, 15.83, 0.000, 0.000, 0.000, 15:50:46.786
52, 469.02, 5.14, 12.96, 15.33, 0.000, 0.000, 0.000, 15:50:46.786
53, -176.93, 10.16, 3.70, 7.27, 0.000, 0.000, 0.000, 15:50:46.787
54, -596.21, 6.11, 13.30, 12.63, 0.000, 0.000, 0.000, 15:50:46.787
55, 356.74, 2.34, 17.55, 16.90, 0.000, 0.000, 0.000, 15:50:46.787
56, 182.81, 12.00, 10.08, 10.71, 0.000, 0.000, 0.000, 15:50:46.788
57, -679.87, 16.92, 9.62, 7.15, 0.000, 0.000, 0.000, 15:50:46.808
58, 24.05, -1.98, 20.16, 15.17, 0.000, 0.000, 0.000, 15:50:46.809
59, 419.68, 7.38, 12.87, 13.90, 0.000, 0.000, 0.000, 15:50:46.809
60, -505.65, 15.04, 5.08, 5.97, 0.000, 0.000, 0.000, 15:50:46.809
61, -323.90, 6.30, 14.69, 17.02, 0.000, 0.000, 0.000, 15:50:46.831
62, 463.64, 8.06, 17.37, 15.40, 0.000, 0.000, 0.000, 15:50:46.831
63, -176.22, 15.48, 5.20, 4.16, 0.000, 0.000, 0.000, 15:50:46.831
64, -602.24, 6.11, 11.09, 12.28, 0.000, 0.000, 0.000, 15:50:46.832
65, 337.11, 0.93, 17.21, 16.72, 0.000, 0.000, 0.000, 15:50:46.853
66, 179.66, 16.27, 3.73, 5.38, 0.000, 0.000, 0.000, 15:50:46.854
67, -671.64, 6.51, 4.40, 7.97, 0.000, 0.000, 0.000, 15:50:46.855
68, 36.62, -2.52, 15.89, 16.13, 0.000, 0.000, 0.000, 15:50:46.855
69, 416.48, 9.36, 11.34, 13.10, 0.000, 0.000, 0.000, 15:50:46.876
70, -524.10, 12.34, 2.64, 1.99, 0.000, 0.000, 0.000, 15:50:46.877
71, -332.57, 5.02, 16.58, 16.51, 0.000, 0.000, 0.000, 15:50:46.877
72, 473.93, 4.96, 14.94, 16.42, 0.000, 0.000, 0.000, 15:50:46.877
73, -177.40, 13.33, 2.30, 6.08, 0.000, 0.000, 0.000, 15:50:46.878
74, -569.56, 9.70, 14.50, 14.72, 0.000, 0.000, 0.000, 15:50:46.878
75, 349.34, 6.77, 17.50, 18.73, 0.000, 0.000, 0.000, 15:50:46.898
76, 176.05, 10.11, 7.53, 9.65, 0.000, 0.000, 0.000, 15:50:46.899
77, -671.12, 11.77, 10.69, 9.13, 0.000, 0.000, 0.000, 15:50:46.899
78, 55.92, 2.33, 14.75, 16.69, 0.000, 0.000, 0.000, 15:50:46.899
79, 423.58, 8.28, 14.28, 15.76, 0.000, 0.000, 0.000, 15:50:46.921
80, -514.86, 16.07, 0.42, 6.82, 0.000, 0.000, 0.000, 15:50:46.921
81, -312.98, 2.34, 13.13, 16.99, 0.000, 0.000, 0.000, 15:50:46.921
82, 477.72, 0.55, 12.62, 15.73, 0.000, 0.000, 0.000, 15:50:46.922
83, -180.21, 13.71, 4.19, 5.38, 0.000, 0.000, 0.000, 15:50:46.943
84, -588.36, 12.31, 10.11, 12.77, 0.000, 0.000, 0.000, 15:50:46.944
85, 332.95, -1.24, 19.15, 16.75, 0.000, 0.000, 0.000, 15:50:46.944
86, 182.83, 10.56, 7.86, 7.99, 0.000, 0.000, 0.000, 15:50:46.944
87, -667.79, 16.23, 10.54, 5.53, 0.000, 0.000, 0.000, 15:50:46.966
88, 46.82, 2.74, 17.70, 18.54, 0.000, 0.000, 0.000, 15:50:46.966
89, 413.50, 4.66, 9.22, 10.94, 0.000, 0.000, 0.000, 15:50:46.966
90, -512.54, 16.09, 0.99, -0.25, 0.000, 0.000, 0.000, 15:50:46.967
91, -318.18, 6.72, 17.15, 14.61, 0.000, 0.000, 0.000, 15:50:46.967
92, 472.28, 0.36, 17.64, 17.75, 0.000, 0.000, 0.000, 15:50:46.967
93, -169.86, 18.40, 2.13, 1.62, 0.000, 0.000, 0.000, 15:50:46.988
94, -577.91, 4.78, 8.50, 17.01, 0.000, 0.000, 0.000, 15:50:46.988
95, 342.92, 2.49, 17.79, 20.47, 0.000, 0.000, 0.000, 15:50:46.989
96, 184.57, 15.50, 7.99, 12.26, 0.000, 0.000, 0.000, 15:50:46.989
97, -668.14, 10.60, 7.79, 9.48, 0.000, 0.000, 0.000, 15:50:47.011
98, 43.77, 1.09, 19.09, 16.33, 0.000, 0.000, 0.000, 15:50:47.011
99, 426.16, 8.65, 11.01, 14.99, 0.000, 0.000, 0.000, 15:50:47.012
100, -473.03, 18.75, 6.34, 4.67, 0.000, 0.000, 0.000, 15:50:47.012
101, -420.66, 4.73, 13.00, 13.72, 0.000, 0.000, 0.000, 15:50:47.033
102, 460.70, 7.22, 15.61, 21.50, 0.000, 0.000, 0.000, 15:50:47.034
103, -8.87, 7.18, 5.99, 5.90, 0.000, 0.000, 0.000, 15:50:47.034
104, -614.98, 10.79, 6.31, 7.43, 0.000, 0.000, 0.000, 15:50:47.034
105, 226.73, 4.99, 17.65, 20.21, 0.000, 0.000, 0.000, 15:50:47.056
106, 307.64, 7.73, 10.36, 13.13, 0.000, 0.000, 0.000, 15:50:47.056
107, -617.70, 15.72, 4.01, 6.47, 0.000, 0.000, 0.000, 15:50:47.057
108, -101.78, 0.51, 14.43, 13.90, 0.000, 0.000, 0.000, 15:50:47.057
109, 471.47, 2.66, 12.48, 17.60, 0.000, 0.000, 0.000, 15:50:47.057
110, -395.02, 16.80, 2.46, 0.34, 0.000, 0.000, 0.000, 15:50:47.058
111, -452.54, 13.04, 14.79, 13.09, 0.000, 0.000, 0.000, 15:50:47.078
112, 447.81, -1.85, 16.75, 16.17, 0.000, 0.000, 0.000, 15:50:47.078
113, -40.86, 11.96, 7.78, 5.42, 0.000, 0.000, 0.000, 15:50:47.079
114, -623.90, 7.05, 8.95, 7.76, 0.000, 0.000, 0.000, 15:50:47.079
115, 229.88, 4.07, 19.76, 17.29, 0.000, 0.000, 0.000, 15:50:47.101
116, 316.05, 8.02, 12.00, 14.74, 0.000, 0.000, 0.000, 15:50:47.101
117, -621.44, 17.31, 5.60, 8.99, 0.000, 0.000, 0.000, 15:50:47.102
118, -132.26, 3.12, 13.77, 17.85, 0.000, 0.000, 0.000, 15:50:47.102
119, 457.23, 5.28, 14.99, 16.19, 0.000, 0.000, 0.000, 15:50:47.123
120, -367.25, 18.79, 2.55, 5.46, 0.000, 0.000, 0.000, 15:50:47.124
121, -438.06, 1.05, 15.36, 11.40, 0.000, 0.000, 0.000, 15:50:47.124
122, 426.92, 2.56, 16.79, 16.43, 0.000, 0.000, 0.000, 15:50:47.124
123, -31.35, 14.38, 5.31, 7.63, 0.000, 0.000, 0.000, 15:50:47.146
124, -625.32, 8.25, 10.88, 9.98, 0.000, 0.000, 0.000, 15:50:47.146
125, 215.30, 2.40, 16.32, 16.58, 0.000, 0.000, 0.000, 15:50:47.147
126, 305.91, 10.34, 10.60, 9.17, 0.000, 0.000, 0.000, 15:50:47.147
127, -621.22, 14.17, 6.24, 7.73, 0.000, 0.000, 0.000, 15:50:47.147
128, -116.76, 6.66, 15.79, 16.45, 0.000, 0.000, 0.000, 15:50:47.148
129, 472.60, 8.93, 15.70, 19.45, 0.000, 0.000, 0.000, 15:50:47.168
130, -376.06, 13.11, 4.23, 5.01, 0.000, 0.000, 0.000, 15:50:47.169
131, -433.23, 8.92, 11.76, 11.67, 0.000, 0.000, 0.000, 15:50:47.169
132, 439.08, 2.97, 13.03, 16.41, 0.000, 0.000, 0.000, 15:50:47.170
133, -25.84, 14.75, 2.24, 5.94, 0.000, 0.000, 0.000, 15:50:47.192
134, -652.18, 7.24, 7.57, 8.58, 0.000, 0.000, 0.000, 15:50:47.192
135, 191.98, 4.28, 18.34, 12.98, 0.000, 0.000, 0.000, 15:50:47.193
136, 337.49, 9.82, 8.22, 11.17, 0.000, 0.000, 0.000, 15:50:47.193
137, -603.22, 9.85, 6.21, 8.66, 0.000, 0.000, 0.000, 15:50:47.213
138, -101.67, 10.05, 16.08, 12.32, 0.000, 0.000, 0.000, 15:50:47.214
139, 431.00, 3.21, 12.47, 12.91, 0.000, 0.000, 0.000, 15:50:47.214
140, -442.53, 14.14, 2.99, 6.34, 0.000, 0.000, 0.000, 15:50:47.214
141, -304.23, 5.14, 12.56, 14.88, 0.000, 0.000, 0.000, 15:50:47.236
142, 478.24, 3.77, 18.08, 13.87, 0.000, 0.000, 0.000, 15:50:47.237
143, -160.55, 15.94, 3.21, 4.02, 0.000, 0.000, 0.000, 15:50:47.237
144, -587.78, 10.10, 11.64, 12.55, 0.000, 0.000, 0.000, 15:50:47.238
145, 353.12, 4.04, 17.94, 20.31, 0.000, 0.000, 0.000, 15:50:47.238
146, 194.23, 12.17, 6.18, 4.33, 0.000, 0.000, 0.000, 15:50:47.239
147, -671.45, 12.56, 5.31, 8.55, 0.000, 0.000, 0.000, 15:50:47.258
148, 23.79, 3.27, 16.20, 17.89, 0.000, 0.000, 0.000, 15:50:47.259
149, 424.42, 4.45, 13.95, 14.25, 0.000, 0.000, 0.000, 15:50:47.259
150, -493.79, 15.20, 1.32, 4.58, 0.000, 0.000, 0.000, 15:50:47.259
151, -341.05, 2.40, 14.46, 15.50, 0.000, 0.000, 0.000, 15:50:47.281
152, 475.22, 4.70, 16.96, 18.55, 0.000, 0.000, 0.000, 15:50:47.281
153, -160.70, 14.68, 4.91, 6.23, 0.000, 0.000, 0.000, 15:50:47.281
154, -592.45, 4.51, 14.28, 11.87, 0.000, 0.000, 0.000, 15:50:47.282
155, 325.98, 6.99, 21.20, 19.03, 0.000, 0.000, 0.000, 15:50:47.303
156, 178.65, 15.17, 7.84, 11.63, 0.000, 0.000, 0.000, 15:50:47.303
157, -673.73, 7.76, 4.86, 10.79, 0.000, 0.000, 0.000, 15:50:47.304
158, 14.97, 4.88, 15.49, 15.92, 0.000, 0.000, 0.000, 15:50:47.304
159, 407.32, 10.76, 11.56, 14.54, 0.000, 0.000, 0.000, 15:50:47.326
160, -461.66, 13.78, 0.01, 7.01, 0.000, 0.000, 0.000, 15:50:47.326
161, -325.63, 2.35, 16.84, 14.69, 0.000, 0.000, 0.000, 15:50:47.327
162, 481.54, 4.13, 20.48, 14.04, 0.000, 0.000, 0.000, 15:50:47.327
163, -154.80, 13.19, 4.76, 2.35, 0.000, 0.000, 0.000, 15:50:47.327
164, -601.28, 6.99, 11.37, 14.43, 0.000, 0.000, 0.000, 15:50:47.328
165, 332.30, 7.03, 13.74, 15.48, 0.000, 0.000, 0.000, 15:50:47.348
166, 192.65, 8.63, 7.84, 9.72, 0.000, 0.000, 0.000, 15:50:47.349
167, -690.27, 11.00, 6.67, 8.69, 0.000, 0.000, 0.000, 15:50:47.350
168, 28.51, 4.75, 15.45, 17.22, 0.000, 0.000, 0.000, 15:50:47.350
169, 445.86, 8.36, 11.87, 14.30, 0.000, 0.000, 0.000, 15:50:47.371
170, -494.87, 15.47, -2.41, 3.99, 0.000, 0.000, 0.000, 15:50:47.371
171, -323.76, 0.73, 17.30, 15.06, 0.000, 0.000, 0.000, 15:50:47.371
172, 486.72, 4.99, 19.56, 15.91, 0.000, 0.000, 0.000, 15:50:47.371
173, -151.16, 16.64, 6.23, 8.45, 0.000, 0.000, 0.000, 15:50:47.393
174, -586.08, 12.89, 11.39, 10.35, 0.000, 0.000, 0.000, 15:50:47.394
175, 346.43, -0.12, 15.70, 16.56, 0.000, 0.000, 0.000, 15:50:47.394
176, 223.86, 9.07, 8.23, 10.94, 0.000, 0.000, 0.000, 15:50:47.394
177, -627.64, 12.98, 8.22, 10.02, 0.000, 0.000, 0.000, 15:50:47.416
178, 37.26, 0.78, 15.84, 18.40, 0.000, 0.000, 0.000, 15:50:47.416
179, 430.64, 4.47, 11.34, 13.45, 0.000, 0.000, 0.000, 15:50:47.417
180, -522.13, 17.95, 1.38, 7.31, 0.000, 0.000, 0.000, 15:50:47.417
181, -367.00, 2.72, 18.04, 10.87, 0.000, 0.000, 0.000, 15:50:47.417
182, 476.76, 3.70, 17.89, 16.52, 0.000, 0.000, 0.000, 15:50:47.417
183, -160.41, 20.44, 2.18, 6.13, 0.000, 0.000, 0.000, 15:50:47.438
184, -612.33, 3.35, 11.63, 14.96, 0.000, 0.000, 0.000, 15:50:47.438
185, 317.71, 3.14, 14.88, 18.54, 0.000, 0.000, 0.000, 15:50:47.439
186, 184.40, 16.55, 9.67, 7.47, 0.000, 0.000, 0.000, 15:50:47.439
187, -680.62, 13.08, 8.53, 8.37, 0.000, 0.000, 0.000, 15:50:47.461
188, 30.28, 4.29, 14.45, 15.69, 0.000, 0.000, 0.000, 15:50:47.461
189, 439.80, 6.29, 12.00, 12.45, 0.000, 0.000, 0.000, 15:50:47.462
190, -486.69, 16.08, 2.27, 4.24, 0.000, 0.000, 0.000, 15:50:47.462
191, -329.92, 2.74, 15.24, 14.31, 0.000, 0.000, 0.000, 15:50:47.484
192, 483.32, 9.05, 18.57, 11.58, 0.000, 0.000, 0.000, 15:50:47.484
193, -151.12, 10.85, 1.73, 4.02, 0.000, 0.000, 0.000, 15:50:47.485
194, -596.93, 7.92, 11.44, 13.68, 0.000, 0.000, 0.000, 15:50:47.485
195, 316.00, 0.88, 18.20, 22.09, 0.000, 0.000, 0.000, 15:50:47.506
196, 211.50, 11.26, 10.33, 5.78, 0.000, 0.000, 0.000, 15:50:47.506
197, -641.35, 12.97, 5.58, 5.73, 0.000, 0.000, 0.000, 15:50:47.506
198, 32.99, 6.73, 17.17, 15.42, 0.000, 0.000, 0.000, 15:50:47.507
199, 433.50, 8.29, 11.15, 9.55, 0.000, 0.000, 0.000, 15:50:47.507
200, -503.87, 14.90, 4.29, 6.62, 0.000, 0.000, 0.000, 15:50:47.508
0, -324.63, 7.40, 15.40, 17.66, 0.000, 0.000, 0.000, 15:50:47.528
1, 486.75, 2.38, 14.12, 13.88, 0.000, 0.000, 0.000, 15:50:47.529
2, -159.32, 14.02, 0.67, 6.68, 0.000, 0.000, 0.000, 15:50:47.529
3, -594.02, 6.40, 16.11, 11.54, 0.000, 0.000, 0.000, 15:50:47.551
4, 357.73, 4.48, 18.13, 17.04, 0.000, 0.000, 0.000, 15:50:47.551
5, 206.57, 8.39, 5.31, 5.27, 0.000, 0.000, 0.000, 15:50:47.551
6, -667.85, 9.45, 6.58, 6.43, 0.000, 0.000, 0.000, 15:50:47.551
7, 32.62, 4.22, 18.11, 16.24, 0.000, 0.000, 0.000, 15:50:47.552
8, 430.20, 6.82, 12.89, 17.73, 0.000, 0.000, 0.000, 15:50:47.552
9, -486.18, 17.41, 3.34, 7.14, 0.000, 0.000, 0.000, 15:50:47.573
10, -321.29, 1.54, 12.98, 19.99, 0.000, 0.000, 0.000, 15:50:47.576
11, 484.83, 8.04, 16.55, 16.66, 0.000, 0.000, 0.000, 15:50:47.577
12, -148.53, 11.47, 7.09, 7.85, 0.000, 0.000, 0.000, 15:50:47.577
13, -595.98, 8.91, 10.07, 9.88, 0.000, 0.000, 0.000, 15:50:47.596
14, 340.71, 0.68, 16.57, 14.33, 0.000, 0.000, 0.000, 15:50:47.596
15, 201.58, 16.15, 10.10, 10.65, 0.000, 0.000, 0.000, 15:50:47.596
16, -659.54, 13.34, 4.58, 5.49, 0.000, 0.000, 0.000, 15:50:47.597
17, 28.35, 1.68, 15.36, 16.03, 0.000, 0.000, 0.000, 15:50:47.618
18, 447.34, 13.89, 13.96, 14.41, 0.000, 0.000, 0.000, 15:50:47.618
19, -470.00, 10.84, -1.62, 7.81, 0.000, 0.000, 0.000, 15:50:47.619
20, -333.27, 1.95, 14.22, 14.46, 0.000, 0.000, 0.000, 15:50:47.619
21, 509.43, 1.40, 18.93, 15.73, 0.000, 0.000, 0.000, 15:50:47.641
22, -25.29, 15.04, 5.98, 6.67, 0.000, 0.000, 0.000, 15:50:47.641
23, -662.05, 8.17, 12.19, 8.24, 0.000, 0.000, 0.000, 15:50:47.641
24, 181.60, 0.92, 16.41, 17.29, 0.000, 0.000, 0.000, 15:50:47.642
25, 298.55, 6.32, 10.16, 13.80, 0.000, 0.000, 0.000, 15:50:47.642
26, -618.11, 14.94, 4.07, 7.33, 0.000, 0.000, 0.000, 15:50:47.642
27, -145.79, 7.84, 11.55, 18.60, 0.000, 0.000, 0.000, 15:50:47.664
28, 473.79, 0.91, 10.93, 16.80, 0.000, 0.000, 0.000, 15:50:47.664
29, -334.66, 13.89, 2.13, 2.84, 0.000, 0.000, 0.000, 15:50:47.664
30, -433.58, 9.00, 10.07, 11.58, 0.000, 0.000, 0.000, 15:50:47.665
31, 429.23, 1.62, 21.16, 13.56, 0.000, 0.000, 0.000, 15:50:47.686
32, -8.29, 13.32, 7.75, 8.75, 0.000, 0.000, 0.000, 15:50:47.686
33, -632.88, 11.86, 9.39, 8.42, 0.000, 0.000, 0.000, 15:50:47.686
34, 205.97, 5.11, 15.57, 17.95, 0.000, 0.000, 0.000, 15:50:47.686
35, 308.72, 13.39, 9.10, 9.41, 0.000, 0.000, 0.000, 15:50:47.708
36, -616.43, 14.71, 6.74, 6.36, 0.000, 0.000, 0.000, 15:50:47.709
37, -128.37, 0.35, 16.94, 17.43, 0.000, 0.000, 0.000, 15:50:47.709
38, 475.04, 4.52, 15.16, 16.29, 0.000, 0.000, 0.000, 15:50:47.709
39, -364.56, 15.98, 4.36, 7.71, 0.000, 0.000, 0.000, 15:50:47.731
40, -471.20, 8.73, 13.41, 12.76, 0.000, 0.000, 0.000, 15:50:47.731
41, 425.89, 5.01, 16.40, 19.39, 0.000, 0.000, 0.000, 15:50:47.731
42, 5.88, 13.93, 4.38, 10.84, 0.000, 0.000, 0.000, 15:50:47.732
43, -640.75, 9.17, 8.31, 10.72, 0.000, 0.000, 0.000, 15:50:47.732
44, 200.98, 1.59, 17.29, 19.61, 0.000, 0.000, 0.000, 15:50:47.732
45, 306.62, 8.31, 13.28, 10.19, 0.000, 0.000, 0.000, 15:50:47.753
46, -621.93, 8.77, 4.36, 2.39, 0.000, 0.000, 0.000, 15:50:47.754
47, -147.52, 3.96, 15.14, 15.20, 0.000, 0.000, 0.000, 15:50:47.754
48, 458.27, -0.52, 19.26, 13.49, 0.000, 0.000, 0.000, 15:50:47.754
49, -349.46, 14.31, 2.02, 1.18, 0.000, 0.000, 0.000, 15:50:47.776
50, -446.85, 6.36, 11.46, 9.34, 0.000, 0.000, 0.000, 15:50:47.776
51, 419.35, 2.26, 19.63, 16.13, 0.000, 0.000, 0.000, 15:50:47.776
52, -10.59, 14.19, 7.72, 9.36, 0.000, 0.000, 0.000, 15:50:47.776
53, -633.82, 9.33, 7.67, 13.01, 0.000, 0.000, 0.000, 15:50:47.798
54, 203.94, 7.72, 15.87, 19.07, 0.000, 0.000, 0.000, 15:50:47.799
55, 311.85, 1.32, 9.35, 10.07, 0.000, 0.000, 0.000, 15:50:47.799
56, -617.77, 13.04, 7.72, 6.47, 0.000, 0.000, 0.000, 15:50:47.799
57, -134.46, 4.82, 18.74, 14.91, 0.000, 0.000, 0.000, 15:50:47.821
58, 430.08, 6.84, 16.56, 14.50, 0.000, 0.000, 0.000, 15:50:47.821
59, -433.60, 16.11, 4.13, 8.25, 0.000, 0.000, 0.000, 15:50:47.823
60, -315.24, 8.67, 18.16, 20.81, 0.000, 0.000, 0.000, 15:50:47.823
61, 482.91, 4.19, 16.25, 19.22, 0.000, 0.000, 0.000, 15:50:47.824
62, -142.32, 15.73, 3.52, 7.58, 0.000, 0.000, 0.000, 15:50:47.824
63, -594.45, 9.27, 9.07, 9.45, 0.000, 0.000, 0.000, 15:50:47.843
64, 320.54, 2.85, 18.01, 19.15, 0.000, 0.000, 0.000, 15:50:47.844
65, 209.44, 12.51, 7.34, 7.95, 0.000, 0.000, 0.000, 15:50:47.844
66, -666.21, 9.06, 9.94, 6.39, 0.000, 0.000, 0.000, 15:50:47.844
67, 9.45, 2.83, 18.01, 16.38, 0.000, 0.000, 0.000, 15:50:47.866
68, 421.71, 5.53, 11.29, 15.08, 0.000, 0.000, 0.000, 15:50:47.866
69, -475.46, 16.08, 3.76, 3.16, 0.000, 0.000, 0.000, 15:50:47.866
70, -328.02, 4.61, 12.74, 13.81, 0.000, 0.000, 0.000, 15:50:47.866
71, 468.37, 3.81, 16.22, 13.65, 0.000, 0.000, 0.000, 15:50:47.889
72, -163.83, 16.52, 2.65, 3.76, 0.000, 0.000, 0.000, 15:50:47.889
73, -606.13, 3.40, 8.63, 5.94, 0.000, 0.000, 0.000, 15:50:47.890
74, 333.94, 4.64, 13.61, 17.84, 0.000, 0.000, 0.000, 15:50:47.890
75, 217.01, 10.65, 4.05, 8.91, 0.000, 0.000, 0.000, 15:50:47.911
76, -671.78, 13.46, 7.05, 10.40, 0.000, 0.000, 0.000, 15:50:47.911
77, -1.79, -0.89, 15.97, 16.62, 0.000, 0.000, 0.000, 15:50:47.912
78, 441.88, 8.43, 8.65, 14.56, 0.000, 0.000, 0.000, 15:50:47.912
79, -480.48, 14.53, 3.40, 3.51, 0.000, 0.000, 0.000, 15:50:47.912
80, -352.13, 2.30, 14.34, 15.98, 0.000, 0.000, 0.000, 15:50:47.913
81, 465.53, 7.74, 12.78, 13.15, 0.000, 0.000, 0.000, 15:50:47.934
82, -138.04, 10.78, 3.08, 3.16, 0.000, 0.000, 0.000, 15:50:47.934
83, -596.82, 8.69, 13.21, 14.28, 0.000, 0.000, 0.000, 15:50:47.935
84, 326.30, 1.54, 17.73, 16.43, 0.000, 0.000, 0.000, 15:50:47.935
85, 207.83, 9.36, 8.49, 10.25, 0.000, 0.000, 0.000, 15:50:47.956
86, -664.98, 10.28, 10.08, 8.66, 0.000, 0.000, 0.000, 15:50:47.956
87, 9.77, 6.40, 17.18, 19.92, 0.000, 0.000, 0.000, 15:50:47.957
88, 429.10, 10.76, 10.73, 13.93, 0.000, 0.000, 0.000, 15:50:47.957
89, -488.46, 15.70, 5.15, 6.03, 0.000, 0.000, 0.000, 15:50:47.978
90, -347.94, 8.13, 17.00, 15.66, 0.000, 0.000, 0.000, 15:50:47.979
91, 467.90, 4.56, 17.18, 19.97, 0.000, 0.000, 0.000, 15:50:47.979
92, -133.42, 13.42, 2.72, 3.54, 0.000, 0.000, 0.000, 15:50:47.979
93, -596.87, 13.48, 2.42, 8.80, 0.000, 0.000, 0.000, 15:50:48.002
94, 323.49, 0.05, 16.70, 18.78, 0.000, 0.000, 0.000, 15:50:48.002
95, 209.22, 8.36, 7.75, 7.76, 0.000, 0.000, 0.000, 15:50:48.002
96, -667.01, 16.55, 10.45, 5.62, 0.000, 0.000, 0.000, 15:50:48.002
97, 11.25, 1.82, 21.30, 15.63, 0.000, 0.000, 0.000, 15:50:48.003
98, 435.93, 6.27, 12.72, 14.65, 0.000, 0.000, 0.000, 15:50:48.003
99, -478.21, 20.03, 3.07, 3.99, 0.000, 0.000, 0.000, 15:50:48.023
100, -357.93, -0.46, 16.29, 16.64, 0.000, 0.000, 0.000, 15:50:48.024
101, 476.01, 2.94, 10.21, 15.43, 0.000, 0.000, 0.000, 15:50:48.025
102, -132.81, 17.45, 2.42, 7.17, 0.000, 0.000, 0.000, 15:50:48.026
103, -600.87, 9.88, 7.42, 11.89, 0.000, 0.000, 0.000, 15:50:48.047
104, 323.53, 1.42, 20.19, 17.90, 0.000, 0.000, 0.000, 15:50:48.047
105, 214.95, 12.28, 10.29, 9.84, 0.000, 0.000, 0.000, 15:50:48.047
106, -667.98, 13.91, 6.26, 6.07, 0.000, 0.000, 0.000, 15:50:48.047
107, 13.01, 2.43, 16.48, 17.14, 0.000, 0.000, 0.000, 15:50:48.069
108, 431.46, 15.30, 10.68, 15.55, 0.000, 0.000, 0.000, 15:50:48.069
109, -483.05, 12.85, 4.68, 6.61, 0.000, 0.000, 0.000, 15:50:48.070
110, -342.20, 6.71, 14.67, 13.75, 0.000, 0.000, 0.000, 15:50:48.070
111, 462.59, 3.14, 16.20, 11.66, 0.000, 0.000, 0.000, 15:50:48.091
112, -169.44, 8.46, 1.58, 5.12, 0.000, 0.000, 0.000, 15:50:48.091
113, -577.13, 3.98, 14.00, 13.56, 0.000, 0.000, 0.000, 15:50:48.092
114, 329.15, 3.00, 15.61, 16.17, 0.000, 0.000, 0.000, 15:50:48.092
115, 215.07, 10.11, 6.99, 9.39, 0.000, 0.000, 0.000, 15:50:48.092
116, -663.01, 13.06, 6.47, 9.39, 0.000, 0.000, 0.000, 15:50:48.092
117, 32.17, 3.88, 17.52, 17.22, 0.000, 0.000, 0.000, 15:50:48.113
118, 432.37, -0.64, 13.13, 16.06, 0.000, 0.000, 0.000, 15:50:48.114
119, -488.10, 17.33, 7.03, 3.71, 0.000, 0.000, 0.000, 15:50:48.114
120, -336.58, 3.46, 13.24, 18.47, 0.000, 0.000, 0.000, 15:50:48.114
121, 476.78, 3.66, 16.99, 15.89, 0.000, 0.000, 0.000, 15:50:48.136
122, -132.41, 13.87, 4.51, 5.40, 0.000, 0.000, 0.000, 15:50:48.136
123, -598.33, 12.97, 9.71, 15.22, 0.000, 0.000, 0.000, 15:50:48.137
124, 317.27, 1.44, 18.19, 17.55, 0.000, 0.000, 0.000, 15:50:48.137
125, 210.29, 13.43, 8.65, 9.99, 0.000, 0.000, 0.000, 15:50:48.159
126, -665.52, 13.45, 5.18, 9.07, 0.000, 0.000, 0.000, 15:50:48.159
127, 22.31, 0.01, 17.34, 21.28, 0.000, 0.000, 0.000, 15:50:48.159
128, 437.92, 6.91, 12.77, 12.53, 0.000, 0.000, 0.000, 15:50:48.160
129, -475.33, 17.41, 1.92, 5.13, 0.000, 0.000, 0.000, 15:50:48.181
130, -346.23, 6.23, 13.70, 13.24, 0.000, 0.000, 0.000, 15:50:48.181
131, 471.49, 0.74, 13.94, 16.18, 0.000, 0.000, 0.000, 15:50:48.182
132, -147.48, 12.40, 3.00, 6.07, 0.000, 0.000, 0.000, 15:50:48.182
133, -602.02, 9.03, 11.05, 10.66, 0.000, 0.000, 0.000, 15:50:48.182
134, 309.34, 5.82, 17.16, 16.19, 0.000, 0.000, 0.000, 15:50:48.182
135, 203.66, 12.75, 5.96, 6.23, 0.000, 0.000, 0.000, 15:50:48.203
136, -646.31, 9.79, 8.56, 7.78, 0.000, 0.000, 0.000, 15:50:48.204
137, 14.12, 0.85, 16.73, 20.05, 0.000, 0.000, 0.000, 15:50:48.204
138, 432.97, 6.83, 11.78, 11.73, 0.000, 0.000, 0.000, 15:50:48.205
139, -479.03, 15.42, 4.90, 5.59, 0.000, 0.000, 0.000, 15:50:48.226
140, -446.39, 7.38, 12.82, 14.88, 0.000, 0.000, 0.000, 15:50:48.226
141, 448.64, 6.12, 17.99, 17.97, 0.000, 0.000, 0.000, 15:50:48.227
142, 39.61, 11.46, 5.59, 7.52, 0.000, 0.000, 0.000, 15:50:48.227
143, -604.26, 6.81, 11.03, 11.47, 0.000, 0.000, 0.000, 15:50:48.248
144, 209.20, 5.68, 13.50, 17.63, 0.000, 0.000, 0.000, 15:50:48.249
145, 337.61, 4.15, 8.35, 11.22, 0.000, 0.000, 0.000, 15:50:48.250
146, -591.60, 10.85, 5.91, 5.76, 0.000, 0.000, 0.000, 15:50:48.250
147, -148.31, 3.93, 15.57, 14.30, 0.000, 0.000, 0.000, 15:50:48.271
148, 478.90, 6.19, 16.87, 16.44, 0.000, 0.000, 0.000, 15:50:48.272
149, -337.91, 12.32, 7.71, 8.59, 0.000, 0.000, 0.000, 15:50:48.272
150, -462.02, 7.37, 9.50, 13.40, 0.000, 0.000, 0.000, 15:50:48.273
151, 412.51, 1.75, 16.61, 16.64, 0.000, 0.000, 0.000, 15:50:48.273
152, -0.54, 14.43, 8.08, 9.09, 0.000, 0.000, 0.000, 15:50:48.273
153, -644.45, 15.42, 8.09, 9.02, 0.000, 0.000, 0.000, 15:50:48.293
154, 193.14, -1.32, 15.19, 17.26, 0.000, 0.000, 0.000, 15:50:48.294
155, 328.56, 11.40, 12.41, 12.70, 0.000, 0.000, 0.000, 15:50:48.294
156, -598.00, 12.38, 5.05, 8.99, 0.000, 0.000, 0.000, 15:50:48.294
157, -127.36, 5.35, 13.46, 17.00, 0.000, 0.000, 0.000, 15:50:48.316
158, 490.92, 2.90, 14.93, 15.98, 0.000, 0.000, 0.000, 15:50:48.316
159, -317.94, 15.37, 2.92, 5.15, 0.000, 0.000, 0.000, 15:50:48.318
160, -433.87, 11.55, 14.33, 15.21, 0.000, 0.000, 0.000, 15:50:48.318
161, 425.22, -1.89, 17.64, 13.90, 0.000, 0.000, 0.000, 15:50:48.339
162, -2.54, 16.95, 6.73, 2.27, 0.000, 0.000, 0.000, 15:50:48.339
163, -684.70, 5.47, 11.98, 12.70, 0.000, 0.000, 0.000, 15:50:48.339
164, 169.41, 9.48, 16.61, 20.23, 0.000, 0.000, 0.000, 15:50:48.340
165, 317.15, 10.49, 8.33, 11.48, 0.000, 0.000, 0.000, 15:50:48.361
166, -623.35, 13.39, 3.06, 6.37, 0.000, 0.000, 0.000, 15:50:48.362
167, -170.93, 4.46, 13.51, 11.66, 0.000, 0.000, 0.000, 15:50:48.362
168, 450.49, 5.56, 13.07, 13.75, 0.000, 0.000, 0.000, 15:50:48.362
169, -364.77, 13.84, 1.65, 7.07, 0.000, 0.000, 0.000, 15:50:48.362
170, -470.10, 8.51, 13.27, 14.50, 0.000, 0.000, 0.000, 15:50:48.362
171, 423.44, 5.03, 19.05, 15.14, 0.000, 0.000, 0.000, 15:50:48.383
172, 14.81, 10.89, 4.96, 8.22, 0.000, 0.000, 0.000, 15:50:48.383
173, -636.93, 5.21, 8.24, 11.41, 0.000, 0.000, 0.000, 15:50:48.384
174, 181.25, 1.53, 17.17, 18.25, 0.000, 0.000, 0.000, 15:50:48.384
175, 328.57, 10.04, 11.57, 12.17, 0.000, 0.000, 0.000, 15:50:48.406
176, -582.98, 13.85, 4.83, 7.60, 0.000, 0.000, 0.000, 15:50:48.406
177, -135.46, 1.64, 13.96, 14.38, 0.000, 0.000, 0.000, 15:50:48.406
178, 468.27, 6.18, 17.18, 14.31, 0.000, 0.000, 0.000, 15:50:48.406
179, -338.41, 14.56, 1.59, 4.74, 0.000, 0.000, 0.000, 15:50:48.428
180, -449.46, 14.35, 9.96, 9.30, 0.000, 0.000, 0.000, 15:50:48.428
181, 420.30, -4.60, 17.68, 18.42, 0.000, 0.000, 0.000, 15:50:48.429
182, -69.78, 16.22, 4.93, 7.33, 0.000, 0.000, 0.000, 15:50:48.429
183, -568.77, 9.86, 9.65, 13.65, 0.000, 0.000, 0.000, 15:50:48.451
184, 319.29, 2.77, 19.78, 18.34, 0.000, 0.000, 0.000, 15:50:48.451
185, 223.83, 6.29, 7.79, 9.56, 0.000, 0.000, 0.000, 15:50:48.451
186, -642.35, 11.69, 6.18, 8.07, 0.000, 0.000, 0.000, 15:50:48.452
187, -10.01, 0.92, 16.11, 18.85, 0.000, 0.000, 0.000, 15:50:48.452
188, 434.89, 9.56, 11.26, 10.29, 0.000, 0.000, 0.000, 15:50:48.452
189, -472.33, 17.76, -0.49, 1.13, 0.000, 0.000, 0.000, 15:50:48.473
190, -335.31, 7.93, 13.80, 14.27, 0.000, 0.000, 0.000, 15:50:48.474
191, 467.75, 6.10, 15.72, 15.91, 0.000, 0.000, 0.000, 15:50:48.474
192, -134.50, 17.25, 3.75, 5.83, 0.000, 0.000, 0.000, 15:50:48.474
193, -601.17, 6.92, 8.45, 8.82, 0.000, 0.000, 0.000, 15:50:48.497
194, 305.15, 3.86, 16.88, 14.54, 0.000, 0.000, 0.000, 15:50:48.497
195, 231.83, 10.39, 8.35, 5.72, 0.000, 0.000, 0.000, 15:50:48.498
196, -650.59, 11.02, 6.95, 7.69, 0.000, 0.000, 0.000, 15:50:48.499
197, -0.26, 2.54, 17.18, 18.26, 0.000, 0.000, 0.000, 15:50:48.518
198, 445.81, 9.95, 9.84, 14.73, 0.000, 0.000, 0.000, 15:50:48.518
199, -461.46, 10.37, 3.49, 3.44, 0.000, 0.000, 0.000, 15:50:48.519
200, -354.78, 7.12, 15.49, 13.73, 0.000, 0.000, 0.000, 15:50:48.519
0, 482.02, 4.23, 15.00, 14.85, 0.000, 0.000, 0.000, 15:50:48.520
1, -122.86, 13.26, 5.89, 8.01, 0.000, 0.000, 0.000, 15:50:48.555
2, -609.77, 6.92, 15.82, 9.38, 0.000, 0.000, 0.000, 15:50:48.556
3, 324.71, 2.90, 17.23, 16.31, 0.000, 0.000, 0.000, 15:50:48.556
4, 245.54, 8.48, 9.92, 12.20, 0.000, 0.000, 0.000, 15:50:48.556
5, -644.59, 12.22, 7.53, 5.87, 0.000, 0.000, 0.000, 15:50:48.563
6, 4.96, 12.16, 18.74, 15.32, 0.000, 0.000, 0.000, 15:50:48.564
7, 432.17, 4.90, 12.75, 15.62, 0.000, 0.000, 0.000, 15:50:48.565
8, -449.17, 16.99, 4.29, 3.47, 0.000, 0.000, 0.000, 15:50:48.565
9, -339.91, 4.80, 14.68, 12.90, 0.000, 0.000, 0.000, 15:50:48.588
10, 487.33, 3.46, 14.03, 16.43, 0.000, 0.000, 0.000, 15:50:48.588
11, -106.82, 11.52, 1.86, 4.82, 0.000, 0.000, 0.000, 15:50:48.588
12, -605.78, 9.38, 11.10, 12.26, 0.000, 0.000, 0.000, 15:50:48.588
13, 309.74, 2.76, 18.38, 17.07, 0.000, 0.000, 0.000, 15:50:48.589
14, 223.10, 10.41, 8.59, 11.11, 0.000, 0.000, 0.000, 15:50:48.589
15, -658.61, 11.63, 6.83, 6.92, 0.000, 0.000, 0.000, 15:50:48.608
16, -0.33, -1.44, 16.41, 17.56, 0.000, 0.000, 0.000, 15:50:48.609
17, 439.14, 7.52, 10.22, 15.66, 0.000, 0.000, 0.000, 15:50:48.609
18, -474.53, 17.85, 5.94, 4.18, 0.000, 0.000, 0.000, 15:50:48.609
19, -367.90, 5.88, 13.95, 12.06, 0.000, 0.000, 0.000, 15:50:48.631
20, 462.19, 2.97, 18.66, 14.68, 0.000, 0.000, 0.000, 15:50:48.632
21, -133.80, 18.14, 4.69, 10.38, 0.000, 0.000, 0.000, 15:50:48.632
22, -615.13, 10.17, 10.04, 13.83, 0.000, 0.000, 0.000, 15:50:48.632
23, 310.10, 5.51, 19.52, 18.27, 0.000, 0.000, 0.000, 15:50:48.654
24, 219.17, 14.49, 8.41, 11.06, 0.000, 0.000, 0.000, 15:50:48.654
25, -669.99, 7.49, 1.38, 9.63, 0.000, 0.000, 0.000, 15:50:48.654
26, -19.51, 1.16, 16.62, 14.28, 0.000, 0.000, 0.000, 15:50:48.654
27, 428.34, 7.69, 11.09, 10.89, 0.000, 0.000, 0.000, 15:50:48.676
28, -480.50, 17.49, 2.45, 2.90, 0.000, 0.000, 0.000, 15:50:48.676
29, -359.38, 4.14, 19.22, 14.25, 0.000, 0.000, 0.000, 15:50:48.677
30, 465.16, 4.99, 16.04, 19.04, 0.000, 0.000, 0.000, 15:50:48.677
31, -128.46, 13.39, 3.56, 5.13, 0.000, 0.000, 0.000, 15:50:48.678
32, -616.41, 7.19, 5.38, 9.17, 0.000, 0.000, 0.000, 15:50:48.678
33, 297.14, 6.56, 18.49, 20.18, 0.000, 0.000, 0.000, 15:50:48.698
34, 220.46, 5.89, 8.86, 8.83, 0.000, 0.000, 0.000, 15:50:48.699
35, -661.48, 10.70, 7.06, 5.84, 0.000, 0.000, 0.000, 15:50:48.699
36, -17.87, 3.29, 16.49, 15.86, 0.000, 0.000, 0.000, 15:50:48.699
37, 431.61, 8.53, 12.75, 13.94, 0.000, 0.000, 0.000, 15:50:48.721
38, -462.70, 15.06, 2.10, 7.75, 0.000, 0.000, 0.000, 15:50:48.721
39, -377.88, 3.12, 14.51, 14.75, 0.000, 0.000, 0.000, 15:50:48.721
40, 461.30, 3.60, 18.36, 15.81, 0.000, 0.000, 0.000, 15:50:48.722
41, -117.09, 14.17, 3.83, 6.63, 0.000, 0.000, 0.000, 15:50:48.744
42, -612.54, 13.67, 10.69, 12.74, 0.000, 0.000, 0.000, 15:50:48.744
43, 307.72, -3.52, 18.98, 16.52, 0.000, 0.000, 0.000, 15:50:48.766
44, 249.82, 12.86, 7.97, 11.50, 0.000, 0.000, 0.000, 15:50:48.767
45, -652.46, 8.64, 3.87, 7.25, 0.000, 0.000, 0.000, 15:50:48.767
46, -11.97, 2.94, 15.29, 16.00, 0.000, 0.000, 0.000, 15:50:48.767
47, 435.71, 6.77, 11.86, 11.30, 0.000, 0.000, 0.000, 15:50:48.768
48, -473.33, 13.42, 3.99, 4.91, 0.000, 0.000, 0.000, 15:50:48.768
49, -360.98, 3.00, 15.47, 12.85, 0.000, 0.000, 0.000, 15:50:48.788
50, 474.79, 5.32, 19.96, 18.20, 0.000, 0.000, 0.000, 15:50:48.789
51, -117.81, 17.03, 4.55, 5.13, 0.000, 0.000, 0.000, 15:50:48.789
52, -615.18, 12.01, 11.02, 13.95, 0.000, 0.000, 0.000, 15:50:48.790
53, 294.38, 4.09, 13.87, 15.33, 0.000, 0.000, 0.000, 15:50:48.790
54, 248.63, 9.29, 8.99, 11.71, 0.000, 0.000, 0.000, 15:50:48.790
55, -606.45, 10.24, 8.02, 4.33, 0.000, 0.000, 0.000, 15:50:48.811
56, -154.37, 4.69, 10.41, 13.73, 0.000, 0.000, 0.000, 15:50:48.811
57, 466.76, 7.14, 13.93, 14.67, 0.000, 0.000, 0.000, 15:50:48.811
58, -338.13, 15.85, 4.24, 8.32, 0.000, 0.000, 0.000, 15:50:48.811
59, -462.63, 5.91, 9.74, 15.13, 0.000, 0.000, 0.000, 15:50:48.833
60, 409.28, 8.03, 18.41, 17.73, 0.000, 0.000, 0.000, 15:50:48.834
61, 36.85, 11.81, 5.01, 8.54, 0.000, 0.000, 0.000, 15:50:48.834
62, -631.04, 8.88, 5.95, 8.05, 0.000, 0.000, 0.000, 15:50:48.834
63, 172.30, 4.40, 14.21, 15.75, 0.000, 0.000, 0.000, 15:50:48.856
64, 325.25, 9.17, 7.08, 12.66, 0.000, 0.000, 0.000, 15:50:48.856
65, -588.53, 11.84, 2.93, 9.30, 0.000, 0.000, 0.000, 15:50:48.856
66, -146.73, 2.53, 15.95, 13.68, 0.000, 0.000, 0.000, 15:50:48.857
67, 471.45, 6.89, 14.90, 14.75, 0.000, 0.000, 0.000, 15:50:48.857
68, -335.03, 15.12, 6.83, 2.96, 0.000, 0.000, 0.000, 15:50:48.857
69, -478.16, 9.71, 15.26, 17.32, 0.000, 0.000, 0.000, 15:50:48.878
70, 406.78, 0.30, 18.66, 14.56, 0.000, 0.000, 0.000, 15:50:48.879
71, 32.78, 12.36, 5.88, 7.44, 0.000, 0.000, 0.000, 15:50:48.879
72, -647.17, 10.55, 11.20, 10.72, 0.000, 0.000, 0.000, 15:50:48.879
73, 154.16, 7.81, 19.86, 15.14, 0.000, 0.000, 0.000, 15:50:48.901
74, 355.32, 6.60, 10.92, 11.92, 0.000, 0.000, 0.000, 15:50:48.901
75, -580.92, 13.17, 3.94, 3.96, 0.000, 0.000, 0.000, 15:50:48.902
76, -165.86, 7.73, 13.92, 14.13, 0.000, 0.000, 0.000, 15:50:48.902
77, 469.34, 4.73, 15.79, 14.45, 0.000, 0.000, 0.000, 15:50:48.923
78, -320.40, 18.33, 5.07, 5.97, 0.000, 0.000, 0.000, 15:50:48.923
79, -470.82, 3.69, 10.01, 12.41, 0.000, 0.000, 0.000, 15:50:48.924
80, 408.73, 0.22, 20.35, 23.31, 0.000, 0.000, 0.000, 15:50:48.924
81, 16.17, 15.18, 3.32, 6.25, 0.000, 0.000, 0.000, 15:50:48.946
82, -643.73, 11.23, 8.72, 11.45, 0.000, 0.000, 0.000, 15:50:48.947
83, 178.73, -0.37, 17.56, 14.26, 0.000, 0.000, 0.000, 15:50:48.947
84, 330.65, 10.12, 11.96, 17.83, 0.000, 0.000, 0.000, 15:50:48.947
85, -588.51, 14.48, 3.23, 7.71, 0.000, 0.000, 0.000, 15:50:48.948
86, -152.99, 6.94, 16.62, 16.51, 0.000, 0.000, 0.000, 15:50:48.948
87, 473.14, 6.52, 15.54, 14.22, 0.000, 0.000, 0.000, 15:50:48.969
88, -331.28, 11.74, 2.79, 5.12, 0.000, 0.000, 0.000, 15:50:48.969
89, -483.56, 2.35, 13.35, 11.95, 0.000, 0.000, 0.000, 15:50:48.969
90, 409.26, 1.38, 14.12, 15.37, 0.000, 0.000, 0.000, 15:50:48.970
91, 19.83, 12.58, 6.53, 5.30, 0.000, 0.000, 0.000, 15:50:48.991
92, -650.97, 6.42, 6.79, 15.36, 0.000, 0.000, 0.000, 15:50:48.991
93, 183.36, 3.43, 17.03, 17.78, 0.000, 0.000, 0.000, 15:50:48.991
94, 328.49, 10.46, 12.13, 11.89, 0.000, 0.000, 0.000, 15:50:48.991
95, -571.39, 12.82, 5.83, 8.18, 0.000, 0.000, 0.000, 15:50:49.013
96, -51.99, 7.13, 18.07, 15.99, 0.000, 0.000, 0.000, 15:50:49.014
97, 413.97, 2.81, 14.55, 15.86, 0.000, 0.000, 0.000, 15:50:49.014
98, -470.46, 13.70, 1.94, 4.15, 0.000, 0.000, 0.000, 15:50:49.014
99, -396.64, 5.82, 13.91, 14.84, 0.000, 0.000, 0.000, 15:50:49.036
100, 466.60, 10.24, 14.17, 18.87, 0.000, 0.000, 0.000, 15:50:49.036
101, -96.05, 14.49, 5.10, 3.48, 0.000, 0.000, 0.000, 15:50:49.036
102, -612.13, 7.48, 11.98, 10.58, 0.000, 0.000, 0.000, 15:50:49.037
103, 292.85, 3.93, 15.34, 18.33, 0.000, 0.000, 0.000, 15:50:49.037
104, 229.54, 13.24, 6.76, 11.78, 0.000, 0.000, 0.000, 15:50:49.038
105, -645.85, 18.37, 4.93, 6.45, 0.000, 0.000, 0.000, 15:50:49.058
106, -14.93, -2.21, 17.87, 20.25, 0.000, 0.000, 0.000, 15:50:49.058
107, 453.46, 7.54, 17.12, 14.56, 0.000, 0.000, 0.000, 15:50:49.059
108, -442.06, 15.58, 1.06, 1.09, 0.000, 0.000, 0.000, 15:50:49.059
109, -369.77, 6.09, 16.58, 12.12, 0.000, 0.000, 0.000, 15:50:49.081
110, 459.17, 2.48, 19.51, 16.75, 0.000, 0.000, 0.000, 15:50:49.081
111, -134.39, 15.66, 7.01, 6.52, 0.000, 0.000, 0.000, 15:50:49.082
112, -597.08, 7.45, 13.54, 10.06, 0.000, 0.000, 0.000, 15:50:49.082
113, 313.60, 4.35, 16.13, 17.27, 0.000, 0.000, 0.000, 15:50:49.103
114, 240.02, 10.11, 5.33, 4.54, 0.000, 0.000, 0.000, 15:50:49.104
115, -655.83, 5.28, 4.34, 7.74, 0.000, 0.000, 0.000, 15:50:49.104
116, -14.42, 4.32, 17.80, 13.73, 0.000, 0.000, 0.000, 15:50:49.104
117, 451.97, 7.94, 12.45, 15.79, 0.000, 0.000, 0.000, 15:50:49.126
118, -444.56, 17.36, 3.14, 8.21, 0.000, 0.000, 0.000, 15:50:49.126
119, -378.22, 7.47, 17.02, 17.71, 0.000, 0.000, 0.000, 15:50:49.126
120, 464.83, 3.98, 17.44, 18.68, 0.000, 0.000, 0.000, 15:50:49.127
121, -104.26, 16.22, 3.55, 4.59, 0.000, 0.000, 0.000, 15:50:49.127
122, -615.41, 7.13, 11.11, 7.75, 0.000, 0.000, 0.000, 15:50:49.127
123, 286.37, 3.55, 15.82, 13.69, 0.000, 0.000, 0.000, 15:50:49.148
124, 246.69, 10.96, 8.70, 10.56, 0.000, 0.000, 0.000, 15:50:49.149
125, -638.83, 12.05, 8.32, 7.41, 0.000, 0.000, 0.000, 15:50:49.149
126, -25.57, 6.15, 14.46, 16.64, 0.000, 0.000, 0.000, 15:50:49.149
127, 450.80, 4.60, 12.43, 16.50, 0.000, 0.000, 0.000, 15:50:49.171
128, -444.89, 13.61, 4.86, 5.21, 0.000, 0.000, 0.000, 15:50:49.171
129, -395.39, 3.26, 16.08, 11.44, 0.000, 0.000, 0.000, 15:50:49.171
130, 459.33, 2.69, 13.90, 15.95, 0.000, 0.000, 0.000, 15:50:49.171
131, -85.22, 15.18, 1.53, 6.26, 0.000, 0.000, 0.000, 15:50:49.193
132, -606.39, 11.95, 10.19, 11.39, 0.000, 0.000, 0.000, 15:50:49.193
133, 289.80, -2.95, 17.90, 18.58, 0.000, 0.000, 0.000, 15:50:49.194
134, 240.54, 10.78, 7.09, 11.07, 0.000, 0.000, 0.000, 15:50:49.194
135, -647.89, 13.26, 6.42, 9.25, 0.000, 0.000, 0.000, 15:50:49.216
136, -36.58, 3.33, 14.27, 20.55, 0.000, 0.000, 0.000, 15:50:49.216
137, 442.41, 5.60, 17.38, 13.44, 0.000, 0.000, 0.000, 15:50:49.216
138, -446.63, 16.82, 4.70, 6.54, 0.000, 0.000, 0.000, 15:50:49.217
139, -400.14, 4.44, 15.35, 14.92, 0.000, 0.000, 0.000, 15:50:49.217
140, 467.94, 1.86, 15.33, 16.18, 0.000, 0.000, 0.000, 15:50:49.217
141, -98.15, 16.03, 1.92, 5.52, 0.000, 0.000, 0.000, 15:50:49.238
142, -620.03, 6.87, 12.35, 9.49, 0.000, 0.000, 0.000, 15:50:49.238
143, 290.99, 0.41, 16.95, 16.26, 0.000, 0.000, 0.000, 15:50:49.239
144, 240.81, 7.57, 9.98, 8.22, 0.000, 0.000, 0.000, 15:50:49.239
145, -655.10, 12.15, 3.59, 8.32, 0.000, 0.000, 0.000, 15:50:49.261
146, -31.21, -0.16, 16.05, 16.83, 0.000, 0.000, 0.000, 15:50:49.261
147, 443.99, 5.13, 12.86, 11.41, 0.000, 0.000, 0.000, 15:50:49.261
148, -455.03, 17.57, 6.94, 5.34, 0.000, 0.000, 0.000, 15:50:49.262
149, -381.77, 8.23, 14.79, 16.68, 0.000, 0.000, 0.000, 15:50:49.283
150, 465.46, 6.30, 16.45, 16.44, 0.000, 0.000, 0.000, 15:50:49.284
151, -101.33, 14.09, 0.96, 6.92, 0.000, 0.000, 0.000, 15:50:49.284
152, -617.04, 12.09, 7.67, 11.48, 0.000, 0.000, 0.000, 15:50:49.284
153, 278.97, 5.06, 16.46, 19.34, 0.000, 0.000, 0.000, 15:50:49.306
154, 261.02, 11.84, 11.62, 13.19, 0.000, 0.000, 0.000, 15:50:49.306
155, -636.58, 15.35, 4.52, 3.41, 0.000, 0.000, 0.000, 15:50:49.329
156, -23.21, 3.08, 19.16, 19.05, 0.000, 0.000, 0.000, 15:50:49.329
157, 463.15, 4.27, 9.11, 13.42, 0.000, 0.000, 0.000, 15:50:49.329
158, -421.66, 17.22, 2.44, 1.42, 0.000, 0.000, 0.000, 15:50:49.329
159, -354.61, 1.52, 13.88, 16.24, 0.000, 0.000, 0.000, 15:50:49.330
160, 499.95, 7.49, 14.95, 14.77, 0.000, 0.000, 0.000, 15:50:49.330
161, -70.20, 15.48, 3.80, 3.36, 0.000, 0.000, 0.000, 15:50:49.330
162, -611.10, 6.36, 13.18, 12.32, 0.000, 0.000, 0.000, 15:50:49.330
163, 270.98, 0.88, 14.97, 18.39, 0.000, 0.000, 0.000, 15:50:49.352
164, 181.66, 11.16, 9.21, 10.84, 0.000, 0.000, 0.000, 15:50:49.353
165, -660.27, 15.57, 4.92, 8.37, 0.000, 0.000, 0.000, 15:50:49.353
166, -38.29, -1.03, 15.23, 15.47, 0.000, 0.000, 0.000, 15:50:49.354
167, 429.95, 4.08, 15.32, 11.49, 0.000, 0.000, 0.000, 15:50:49.374
168, -452.96, 20.66, 3.47, 5.02, 0.000, 0.000, 0.000, 15:50:49.375
169, -395.92, -0.27, 17.01, 14.55, 0.000, 0.000, 0.000, 15:50:49.375
170, 454.91, 3.55, 12.27, 12.36, 0.000, 0.000, 0.000, 15:50:49.375
171, -100.28, 15.45, 5.09, 9.34, 0.000, 0.000, 0.000, 15:50:49.396
172, -637.92, 8.29, 11.81, 14.43, 0.000, 0.000, 0.000, 15:50:49.396
173, 298.44, 3.83, 17.86, 12.92, 0.000, 0.000, 0.000, 15:50:49.397
174, 250.25, 11.28, 10.56, 11.73, 0.000, 0.000, 0.000, 15:50:49.397
175, -637.95, 11.29, 7.54, 12.38, 0.000, 0.000, 0.000, 15:50:49.397
176, -92.18, 0.94, 16.35, 16.52, 0.000, 0.000, 0.000, 15:50:49.397
177, 493.63, 4.54, 15.08, 18.95, 0.000, 0.000, 0.000, 15:50:49.418
178, -299.43, 11.96, 2.77, 0.20, 0.000, 0.000, 0.000, 15:50:49.419
179, -474.55, 9.55, 11.82, 13.89, 0.000, 0.000, 0.000, 15:50:49.419
180, 404.13, 2.30, 15.93, 17.73, 0.000, 0.000, 0.000, 15:50:49.419
181, 48.80, 15.38, 5.04, 5.77, 0.000, 0.000, 0.000, 15:50:49.441
182, -641.03, 10.83, 9.26, 12.86, 0.000, 0.000, 0.000, 15:50:49.441
183, 161.25, 5.95, 17.74, 14.31, 0.000, 0.000, 0.000, 15:50:49.441
184, 350.72, 12.16, 14.08, 12.88, 0.000, 0.000, 0.000, 15:50:49.441
185, -570.01, 9.68, 5.97, 5.29, 0.000, 0.000, 0.000, 15:50:49.463
186, -187.72, 12.27, 15.42, 13.10, 0.000, 0.000, 0.000, 15:50:49.463
187, 472.74, -0.64, 14.08, 17.56, 0.000, 0.000, 0.000, 15:50:49.463
188, -309.29, 12.67, 0.77, 3.01, 0.000, 0.000, 0.000, 15:50:49.464
189, -498.44, 6.75, 11.06, 15.78, 0.000, 0.000, 0.000, 15:50:49.486
190, 397.59, -0.30, 17.30, 19.27, 0.000, 0.000, 0.000, 15:50:49.486
191, 63.65, 13.36, 7.37, 12.67, 0.000, 0.000, 0.000, 15:50:49.486
192, -631.81, 14.05, 8.89, 9.81, 0.000, 0.000, 0.000, 15:50:49.486
193, 153.22, 6.42, 17.54, 17.47, 0.000, 0.000, 0.000, 15:50:49.487
194, 345.83, 7.16, 15.49, 11.96, 0.000, 0.000, 0.000, 15:50:49.487
195, -560.32, 15.34, 8.26, 8.98, 0.000, 0.000, 0.000, 15:50:49.509
196, -170.29, -4.09, 11.57, 14.19, 0.000, 0.000, 0.000, 15:50:49.509
197, 484.63, 2.49, 14.11, 12.73, 0.000, 0.000, 0.000, 15:50:49.509
198, -295.77, 15.89, 0.56, 1.52, 0.000, 0.000, 0.000, 15:50:49.510
199, -489.23, 6.30, 11.58, 13.47, 0.000, 0.000, 0.000, 15:50:49.531
200, 400.87, 2.99, 19.14, 15.49, 0.000, 0.000, 0.000, 15:50:49.531
0, 51.80, 11.01, 8.38, 5.95, 0.000, 0.000, 0.000, 15:50:49.531
1, -643.88, 14.35, 12.77, 9.91, 0.000, 0.000, 0.000, 15:50:49.532
2, 168.56, 7.49, 14.48, 15.29, 0.000, 0.000, 0.000, 15:50:49.532
3, 360.78, 10.70, 9.59, 14.76, 0.000, 0.000, 0.000, 15:50:49.553
4, -567.99, 9.22, 9.51, 8.08, 0.000, 0.000, 0.000, 15:50:49.553
5, -178.11, 4.85, 13.58, 12.70, 0.000, 0.000, 0.000, 15:50:49.554
6, 468.10, 5.76, 16.66, 15.79, 0.000, 0.000, 0.000, 15:50:49.554
7, -287.65, 12.79, 0.60, 4.73, 0.000, 0.000, 0.000, 15:50:49.576
8, -473.50, 8.14, 11.26, 13.75, 0.000, 0.000, 0.000, 15:50:49.576
9, 404.94, 5.62, 13.66, 19.16, 0.000, 0.000, 0.000, 15:50:49.576
10, 58.52, 9.78, 8.16, 7.18, 0.000, 0.000, 0.000, 15:50:49.577
11, -639.13, 11.92, 10.68, 12.54, 0.000, 0.000, 0.000, 15:50:49.598
12, 176.82, 5.35, 16.26, 18.00, 0.000, 0.000, 0.000, 15:50:49.598
13, 355.20, 2.91, 9.99, 15.49, 0.000, 0.000, 0.000, 15:50:49.598
14, -580.23, 15.20, 4.79, 7.29, 0.000, 0.000, 0.000, 15:50:49.599
15, -165.45, 5.69, 16.15, 14.72, 0.000, 0.000, 0.000, 15:50:49.621
16, 465.63, 5.95, 15.13, 12.79, 0.000, 0.000, 0.000, 15:50:49.621
17, -380.27, 13.50, 6.27, 3.67, 0.000, 0.000, 0.000, 15:50:49.622
18, -374.88, 5.28, 16.74, 13.78, 0.000, 0.000, 0.000, 15:50:49.622
19, 462.32, 7.82, 17.17, 14.34, 0.000, 0.000, 0.000, 15:50:49.622
20, -107.69, 14.00, 0.01, 6.58, 0.000, 0.000, 0.000, 15:50:49.622
21, -627.88, 13.59, 7.89, 11.91, 0.000, 0.000, 0.000, 15:50:49.643
22, 279.42, 0.33, 16.31, 18.06, 0.000, 0.000, 0.000, 15:50:49.644
23, 254.15, 10.89, 10.49, 8.69, 0.000, 0.000, 0.000, 15:50:49.644
24, -659.19, 13.37, 5.76, 7.52, 0.000, 0.000, 0.000, 15:50:49.644
25, -76.38, -0.37, 17.90, 15.93, 0.000, 0.000, 0.000, 15:50:49.666
26, 442.97, 4.74, 15.15, 14.97, 0.000, 0.000, 0.000, 15:50:49.666
27, -444.87, 16.02, 3.48, 5.04, 0.000, 0.000, 0.000, 15:50:49.666
28, -409.53, 6.97, 13.58, 17.17, 0.000, 0.000, 0.000, 15:50:49.666
29, 454.75, 4.68, 18.09, 16.27, 0.000, 0.000, 0.000, 15:50:49.688
30, -93.45, 17.03, 3.75, 2.83, 0.000, 0.000, 0.000, 15:50:49.688
31, -638.18, 4.24, 8.32, 9.09, 0.000, 0.000, 0.000, 15:50:49.689
32, 276.25, 3.86, 15.34, 16.67, 0.000, 0.000, 0.000, 15:50:49.689
33, 253.01, 12.27, 8.50, 9.97, 0.000, 0.000, 0.000, 15:50:49.711
34, -659.07, 11.62, 7.13, 5.85, 0.000, 0.000, 0.000, 15:50:49.711
35, -70.24, 4.64, 15.79, 16.13, 0.000, 0.000, 0.000, 15:50:49.711
36, 443.94, 8.50, 12.33, 15.60, 0.000, 0.000, 0.000, 15:50:49.712
37, -431.03, 15.56, 2.32, 1.74, 0.000, 0.000, 0.000, 15:50:49.712
38, -389.53, 7.89, 13.52, 14.62, 0.000, 0.000, 0.000, 15:50:49.712
39, 455.46, 6.81, 16.31, 16.95, 0.000, 0.000, 0.000, 15:50:49.733
40, -79.12, 6.01, 3.35, 6.52, 0.000, 0.000, 0.000, 15:50:49.733
41, -634.21, 8.53, 11.14, 14.41, 0.000, 0.000, 0.000, 15:50:49.734
42, 265.53, 3.55, 19.45, 14.08, 0.000, 0.000, 0.000, 15:50:49.734
43, 266.11, 12.67, 9.36, 9.13, 0.000, 0.000, 0.000, 15:50:49.756
44, -648.97, 11.84, 7.23, 6.21, 0.000, 0.000, 0.000, 15:50:49.756
45, -55.83, 0.91, 20.89, 18.47, 0.000, 0.000, 0.000, 15:50:49.757
46, 445.79, 3.32, 10.39, 12.75, 0.000, 0.000, 0.000, 15:50:49.757
47, -417.49, 15.52, 3.23, 4.86, 0.000, 0.000, 0.000, 15:50:49.778
48, -398.77, 9.00, 12.74, 13.85, 0.000, 0.000, 0.000, 15:50:49.778
49, 439.68, -3.82, 18.52, 16.84, 0.000, 0.000, 0.000, 15:50:49.779
50, -90.83, 12.91, -0.60, 5.14, 0.000, 0.000, 0.000, 15:50:49.779
51, -622.93, 8.18, 11.70, 13.69, 0.000, 0.000, 0.000, 15:50:49.801
52, 280.57, 6.72, 17.41, 18.97, 0.000, 0.000, 0.000, 15:50:49.802
53, 272.21, 9.96, 7.34, 8.70, 0.000, 0.000, 0.000, 15:50:49.802
54, -637.45, 16.48, 4.36, 3.82, 0.000, 0.000, 0.000, 15:50:49.802
55, -42.19, 5.12, 14.28, 21.15, 0.000, 0.000, 0.000, 15:50:49.802
56, 455.06, 1.29, 11.84, 15.62, 0.000, 0.000, 0.000, 15:50:49.802
57, -427.26, 17.19, -3.04, 5.14, 0.000, 0.000, 0.000, 15:50:49.823
58, -405.86, 3.99, 14.60, 17.28, 0.000, 0.000, 0.000, 15:50:49.824
59, 448.64, 3.32, 16.45, 16.54, 0.000, 0.000, 0.000, 15:50:49.824
60, -69.72, 13.13, 6.03, 5.75, 0.000, 0.000, 0.000, 15:50:49.824
61, -651.76, 9.58, 14.23, 8.22, 0.000, 0.000, 0.000, 15:50:49.845
62, 284.50, -0.92, 21.25, 18.01, 0.000, 0.000, 0.000, 15:50:49.846
63, 265.06, 9.85, 8.45, 10.56, 0.000, 0.000, 0.000, 15:50:49.846
64, -644.48, 13.89, 6.19, 7.01, 0.000, 0.000, 0.000, 15:50:49.846
65, -69.12, -0.07, 17.47, 14.12, 0.000, 0.000, 0.000, 15:50:49.868
66, 460.94, 12.10, 10.43, 12.37, 0.000, 0.000, 0.000, 15:50:49.869
67, -416.12, 8.26, 3.48, 3.30, 0.000, 0.000, 0.000, 15:50:49.869
68, -401.92, 6.91, 14.15, 16.68, 0.000, 0.000, 0.000, 15:50:49.869
69, 453.63, 6.39, 13.89, 12.99, 0.000, 0.000, 0.000, 15:50:49.891
70, -75.45, 13.50, 2.01, 3.05, 0.000, 0.000, 0.000, 15:50:49.891
71, -631.07, 6.40, 11.38, 13.11, 0.000, 0.000, 0.000, 15:50:49.891
72, 272.79, 4.48, 19.50, 16.63, 0.000, 0.000, 0.000, 15:50:49.895
73, 265.76, 9.56, 7.86, 13.25, 0.000, 0.000, 0.000, 15:50:49.895
74, -648.46, 15.14, 9.11, 9.14, 0.000, 0.000, 0.000, 15:50:49.895
75, -74.07, 6.27, 16.26, 18.59, 0.000, 0.000, 0.000, 15:50:49.914
76, 454.70, 3.49, 14.89, 11.09, 0.000, 0.000, 0.000, 15:50:49.914
77, -409.72, 18.39, 1.80, 4.87, 0.000, 0.000, 0.000, 15:50:49.914
78, -404.27, 2.54, 18.16, 16.84, 0.000, 0.000, 0.000, 15:50:49.914
79, 432.17, 2.45, 16.68, 18.62, 0.000, 0.000, 0.000, 15:50:49.936
80, -61.85, 11.98, 4.82, 8.02, 0.000, 0.000, 0.000, 15:50:49.936
81, -611.25, 8.16, 12.34, 15.35, 0.000, 0.000, 0.000, 15:50:49.936
82, 270.68, 2.24, 18.70, 14.26, 0.000, 0.000, 0.000, 15:50:49.937
83, 271.45, 5.27, 7.72, 12.04, 0.000, 0.000, 0.000, 15:50:49.958
84, -640.12, 21.89, 3.89, 6.24, 0.000, 0.000, 0.000, 15:50:49.958
85, -70.64, -3.96, 15.49, 17.87, 0.000, 0.000, 0.000, 15:50:49.959
86, 461.55, 4.24, 10.33, 10.41, 0.000, 0.000, 0.000, 15:50:49.959
87, -345.81, 13.97, 4.58, 3.55, 0.000, 0.000, 0.000, 15:50:49.981
88, -505.33, 4.44, 10.35, 15.59, 0.000, 0.000, 0.000, 15:50:49.981
89, 386.39, 2.72, 15.30, 17.11, 0.000, 0.000, 0.000, 15:50:49.981
90, 64.44, 14.39, 8.97, 5.81, 0.000, 0.000, 0.000, 15:50:49.982
91, -651.28, 12.91, 6.48, 5.25, 0.000, 0.000, 0.000, 15:50:49.982
92, 136.06, 2.83, 14.32, 18.59, 0.000, 0.000, 0.000, 15:50:49.982
93, 355.17, 9.13, 14.65, 14.24, 0.000, 0.000, 0.000, 15:50:50.003
94, -571.95, 10.53, 4.80, 6.91, 0.000, 0.000, 0.000, 15:50:50.003
95, -211.27, 6.35, 12.38, 19.57, 0.000, 0.000, 0.000, 15:50:50.004
96, 466.19, 8.46, 14.73, 13.08, 0.000, 0.000, 0.000, 15:50:50.004
97, -271.14, 15.77, 4.50, 7.37, 0.000, 0.000, 0.000, 15:50:50.026
98, -490.61, 4.20, 13.45, 11.30, 0.000, 0.000, 0.000, 15:50:50.026
99, 389.69, 3.30, 18.85, 15.70, 0.000, 0.000, 0.000, 15:50:50.026
100, 69.34, 15.09, 4.96, 8.78, 0.000, 0.000, 0.000, 15:50:50.026
101, -645.97, 8.65, 6.02, 11.88, 0.000, 0.000, 0.000, 15:50:50.049
102, 143.42, 6.60, 18.37, 16.52, 0.000, 0.000, 0.000, 15:50:50.049
103, 368.19, 4.48, 12.93, 10.99, 0.000, 0.000, 0.000, 15:50:50.049
104, -570.60, 14.73, 2.22, 8.41, 0.000, 0.000, 0.000, 15:50:50.049
105, -207.70, 7.26, 16.69, 17.49, 0.000, 0.000, 0.000, 15:50:50.071
106, 465.74, 3.22, 15.93, 16.10, 0.000, 0.000, 0.000, 15:50:50.072
107, -296.62, 12.54, 4.62, 6.43, 0.000, 0.000, 0.000, 15:50:50.072
108, -523.11, 11.78, 10.90, 8.74, 0.000, 0.000, 0.000, 15:50:50.072
109, 406.26, 3.04, 20.69, 16.94, 0.000, 0.000, 0.000, 15:50:50.073
110, 85.35, 13.43, 7.66, 7.83, 0.000, 0.000, 0.000, 15:50:50.073
111, -632.96, 11.93, 7.21, 7.81, 0.000, 0.000, 0.000, 15:50:50.094
112, 145.92, 0.58, 16.63, 15.66, 0.000, 0.000, 0.000, 15:50:50.094
113, 363.64, 11.47, 12.89, 13.13, 0.000, 0.000, 0.000, 15:50:50.094
114, -564.64, 10.19, 2.77, 4.52, 0.000, 0.000, 0.000, 15:50:50.094
115, -204.77, 3.34, 16.67, 13.93, 0.000, 0.000, 0.000, 15:50:50.116
116, 475.23, 4.29, 15.38, 15.30, 0.000, 0.000, 0.000, 15:50:50.116
117, -290.69, 20.09, 4.50, 4.94, 0.000, 0.000, 0.000, 15:50:50.116
118, -504.34, 4.92, 10.59, 13.60, 0.000, 0.000, 0.000, 15:50:50.117
119, 387.94, 2.64, 16.80, 14.10, 0.000, 0.000, 0.000, 15:50:50.138
120, 77.50, 20.31, 10.08, 8.37, 0.000, 0.000, 0.000, 15:50:50.138
121, -653.23, 6.99, 8.56, 11.47, 0.000, 0.000, 0.000, 15:50:50.139
122, 130.98, 1.49, 12.75, 18.06, 0.000, 0.000, 0.000, 15:50:50.139
123, 366.61, 5.88, 9.17, 9.13, 0.000, 0.000, 0.000, 15:50:50.161
124, -573.91, 14.22, 1.90, 4.83, 0.000, 0.000, 0.000, 15:50:50.161
125, -205.20, 3.24, 11.42, 13.33, 0.000, 0.000, 0.000, 15:50:50.161
126, 476.04, 6.32, 14.51, 17.36, 0.000, 0.000, 0.000, 15:50:50.162
127, -289.02, 17.50, 3.77, 5.57, 0.000, 0.000, 0.000, 15:50:50.162
128, -507.34, 7.38, 11.91, 12.47, 0.000, 0.000, 0.000, 15:50:50.162
129, 403.12, 5.20, 14.93, 17.99, 0.000, 0.000, 0.000, 15:50:50.184
130, 84.13, 10.02, 9.83, 4.39, 0.000, 0.000, 0.000, 15:50:50.184
131, -643.49, 7.58, 8.85, 8.63, 0.000, 0.000, 0.000, 15:50:50.184
132, 133.47, 5.83, 15.05, 12.66, 0.000, 0.000, 0.000, 15:50:50.184
133, 362.77, 8.61, 12.85, 14.64, 0.000, 0.000, 0.000, 15:50:50.206
134, -564.64, 16.43, 5.31, 8.65, 0.000, 0.000, 0.000, 15:50:50.206
135, -202.68, 6.09, 15.93, 13.86, 0.000, 0.000, 0.000, 15:50:50.206
136, 472.10, 5.01, 15.11, 17.40, 0.000, 0.000, 0.000, 15:50:50.207
137, -356.88, 18.72, 4.25, 3.01, 0.000, 0.000, 0.000, 15:50:50.228
138, -402.04, 6.49, 12.47, 15.03, 0.000, 0.000, 0.000, 15:50:50.228
139, 450.36, -2.46, 16.18, 17.80, 0.000, 0.000, 0.000, 15:50:50.229
140, -52.92, 13.46, 1.97, 5.90, 0.000, 0.000, 0.000, 15:50:50.229
141, -647.14, 8.52, 8.54, 9.26, 0.000, 0.000, 0.000, 15:50:50.251
142, 257.49, 2.68, 16.51, 16.35, 0.000, 0.000, 0.000, 15:50:50.251
143, 279.79, 9.82, 8.67, 12.64, 0.000, 0.000, 0.000, 15:50:50.252
144, -631.20, 13.63, 2.16, 8.78, 0.000, 0.000, 0.000, 15:50:50.252
145, -77.16, -0.80, 17.68, 18.15, 0.000, 0.000, 0.000, 15:50:50.252
146, 455.01, 4.61, 17.47, 14.78, 0.000, 0.000, 0.000, 15:50:50.252
147, -417.17, 19.19, 4.05, 5.82, 0.000, 0.000, 0.000, 15:50:50.273
148, -419.69, 3.67, 16.94, 19.23, 0.000, 0.000, 0.000, 15:50:50.273
149, 440.80, 6.73, 17.94, 17.76, 0.000, 0.000, 0.000, 15:50:50.274
150, -61.02, 14.94, 9.76, 3.82, 0.000, 0.000, 0.000, 15:50:50.274
151, -635.19, 8.76, 9.30, 9.12, 0.000, 0.000, 0.000, 15:50:50.296
152, 254.58, 4.04, 15.84, 17.86, 0.000, 0.000, 0.000, 15:50:50.296
153, 281.18, 10.95, 6.57, 10.16, 0.000, 0.000, 0.000, 15:50:50.296
154, -641.84, 14.94, 7.90, 8.06, 0.000, 0.000, 0.000, 15:50:50.296
155, -71.47, 6.90, 19.82, 13.78, 0.000, 0.000, 0.000, 15:50:50.318
156, 460.96, 13.06, 14.24, 10.65, 0.000, 0.000, 0.000, 15:50:50.318
157, -412.20, 9.89, 1.99, 4.62, 0.000, 0.000, 0.000, 15:50:50.319
158, -422.22, -1.39, 12.54, 16.77, 0.000, 0.000, 0.000, 15:50:50.319
159, 450.55, 4.55, 15.70, 17.14, 0.000, 0.000, 0.000, 15:50:50.341
160, -45.12, 11.65, 7.14, 10.36, 0.000, 0.000, 0.000, 15:50:50.341
161, -641.90, 8.46, 12.32, 10.64, 0.000, 0.000, 0.000, 15:50:50.342
162, 262.41, 3.78, 17.83, 22.98, 0.000, 0.000, 0.000, 15:50:50.342
163, 284.15, 8.79, 6.25, 7.31, 0.000, 0.000, 0.000, 15:50:50.342
164, -643.16, 14.72, 6.49, 6.91, 0.000, 0.000, 0.000, 15:50:50.342
165, -43.82, 7.13, 15.22, 17.12, 0.000, 0.000, 0.000, 15:50:50.364
166, 505.08, 1.03, 10.06, 16.38, 0.000, 0.000, 0.000, 15:50:50.364
167, -379.93, 16.35, 1.05, 7.26, 0.000, 0.000, 0.000, 15:50:50.364
168, -404.61, 2.76, 9.96, 15.62, 0.000, 0.000, 0.000, 15:50:50.364
169, 436.00, 4.67, 17.85, 13.20, 0.000, 0.000, 0.000, 15:50:50.386
170, -80.69, 15.31, 5.01, 5.28, 0.000, 0.000, 0.000, 15:50:50.386
171, -659.40, 10.37, 9.29, 9.96, 0.000, 0.000, 0.000, 15:50:50.386
172, 244.13, 1.39, 19.60, 20.28, 0.000, 0.000, 0.000, 15:50:50.386
173, 258.60, 11.51, 12.50, 7.35, 0.000, 0.000, 0.000, 15:50:50.408
174, -662.22, 20.36, 6.71, 6.98, 0.000, 0.000, 0.000, 15:50:50.409
175, -89.60, -2.52, 16.22, 19.58, 0.000, 0.000, 0.000, 15:50:50.409
176, 450.13, 3.98, 13.04, 14.31, 0.000, 0.000, 0.000, 15:50:50.409
177, -415.15, 17.39, 3.34, 8.69, 0.000, 0.000, 0.000, 15:50:50.431
178, -418.75, 4.21, 17.64, 18.07, 0.000, 0.000, 0.000, 15:50:50.431
179, 448.27, 2.52, 16.64, 18.85, 0.000, 0.000, 0.000, 15:50:50.431
180, -43.91, 10.81, 4.59, 8.44, 0.000, 0.000, 0.000, 15:50:50.432
181, -632.19, 8.07, 10.42, 8.07, 0.000, 0.000, 0.000, 15:50:50.432
182, 263.66, 0.42, 17.84, 16.81, 0.000, 0.000, 0.000, 15:50:50.432
183, 284.83, 9.62, 8.29, 8.06, 0.000, 0.000, 0.000, 15:50:50.453
184, -637.59, 12.62, 4.26, 6.47, 0.000, 0.000, 0.000, 15:50:50.454
185, -60.85, 3.64, 17.08, 17.89, 0.000, 0.000, 0.000, 15:50:50.454
186, 466.96, 3.59, 12.72, 17.42, 0.000, 0.000, 0.000, 15:50:50.454
187, -409.43, 18.06, 3.92, 2.46, 0.000, 0.000, 0.000, 15:50:50.476
188, -416.11, 5.11, 12.34, 13.45, 0.000, 0.000, 0.000, 15:50:50.476
189, 452.90, 4.73, 13.28, 15.59, 0.000, 0.000, 0.000, 15:50:50.476
190, -58.41, 15.65, 6.62, 6.37, 0.000, 0.000, 0.000, 15:50:50.476
191, -634.40, 7.20, 10.82, 12.41, 0.000, 0.000, 0.000, 15:50:50.498
192, 284.91, 8.77, 14.55, 17.50, 0.000, 0.000, 0.000, 15:50:50.498
193, 292.23, 3.10, 11.75, 9.71, 0.000, 0.000, 0.000, 15:50:50.499
194, -629.00, 12.39, 4.71, 7.98, 0.000, 0.000, 0.000, 15:50:50.499
195, -85.53, 2.81, 15.37, 13.97, 0.000, 0.000, 0.000, 15:50:50.521
196, 460.08, 9.93, 16.16, 11.69, 0.000, 0.000, 0.000, 15:50:50.521
197, -403.61, 12.40, 0.92, 6.41, 0.000, 0.000, 0.000, 15:50:50.521
198, -431.98, 8.49, 10.25, 12.26, 0.000, 0.000, 0.000, 15:50:50.521
199, 469.77, 3.97, 14.99, 17.16, 0.000, 0.000, 0.000, 15:50:50.522
200, -21.13, 15.09, -0.00, 8.74, 0.000, 0.000, 0.000, 15:50:50.522
0, -632.70, 9.71, 13.76, 8.63, 0.000, 0.000, 0.000, 15:50:50.543
1, 252.20, -1.32, 13.98, 16.66, 0.000, 0.000, 0.000, 15:50:50.544
2, 305.25, 10.08, 7.98, 9.40, 0.000, 0.000, 0.000, 15:50:50.544
3, -627.38, 17.85, 3.70, 5.68, 0.000, 0.000, 0.000, 15:50:50.566
4, -191.68, 3.92, 15.04, 18.92, 0.000, 0.000, 0.000, 15:50:50.566
5, 509.86, 3.61, 19.47, 18.31, 0.000, 0.000, 0.000, 15:50:50.569
6, -241.20, 11.70, 6.10, 7.71, 0.000, 0.000, 0.000, 15:50:50.569
7, -475.68, 9.42, 10.83, 16.28, 0.000, 0.000, 0.000, 15:50:50.571
8, 399.08, 4.04, 18.48, 16.63, 0.000, 0.000, 0.000, 15:50:50.572
9, 104.99, 16.72, 4.60, 13.45, 0.000, 0.000, 0.000, 15:50:50.588
10, -640.50, 8.60, 5.17, 6.58, 0.000, 0.000, 0.000, 15:50:50.589
11, 130.62, 4.30, 16.90, 15.04, 0.000, 0.000, 0.000, 15:50:50.589
12, 388.12, 4.74, 15.83, 12.73, 0.000, 0.000, 0.000, 15:50:50.589
13, -552.67, 13.53, 8.55, 5.52, 0.000, 0.000, 0.000, 15:50:50.611
14, -217.19, 3.30, 15.59, 13.57, 0.000, 0.000, 0.000, 15:50:50.611
15, 460.89, 2.09, 17.48, 15.97, 0.000, 0.000, 0.000, 15:50:50.611
16, -267.27, 16.27, 5.12, 8.28, 0.000, 0.000, 0.000, 15:50:50.611
17, -492.93, 12.31, 11.10, 9.50, 0.000, 0.000, 0.000, 15:50:50.633
18, 372.02, 7.82, 15.04, 15.27, 0.000, 0.000, 0.000, 15:50:50.633
19, 84.55, 7.81, 6.17, 10.36, 0.000, 0.000, 0.000, 15:50:50.634
20, -645.40, 15.31, 2.98, 8.75, 0.000, 0.000, 0.000, 15:50:50.634
21, 141.29, 0.47, 16.52, 13.42, 0.000, 0.000, 0.000, 15:50:50.656
22, 389.54, 8.49, 10.12, 13.12, 0.000, 0.000, 0.000, 15:50:50.656
23, -554.82, 16.25, 5.94, 4.63, 0.000, 0.000, 0.000, 15:50:50.656
24, -227.83, 3.59, 13.17, 16.22, 0.000, 0.000, 0.000, 15:50:50.657
25, 471.27, 1.82, 17.31, 18.42, 0.000, 0.000, 0.000, 15:50:50.657
26, -281.30, 15.14, 0.04, 7.72, 0.000, 0.000, 0.000, 15:50:50.657
27, -530.04, 10.45, 11.75, 10.68, 0.000, 0.000, 0.000, 15:50:50.678
28, 365.99, -3.05, 18.91, 17.48, 0.000, 0.000, 0.000, 15:50:50.678
29, 80.71, 14.71, 7.61, 11.98, 0.000, 0.000, 0.000, 15:50:50.679
30, -666.40, 11.07, 9.96, 8.53, 0.000, 0.000, 0.000, 15:50:50.679
31, 112.91, 5.59, 17.85, 15.45, 0.000, 0.000, 0.000, 15:50:50.701
32, 370.65, 4.75, 14.48, 13.38, 0.000, 0.000, 0.000, 15:50:50.701
33, -564.59, 14.61, 4.13, 8.49, 0.000, 0.000, 0.000, 15:50:50.701
34, -232.84, 9.09, 14.27, 13.50, 0.000, 0.000, 0.000, 15:50:50.702
35, 459.09, 3.35, 13.66, 15.14, 0.000, 0.000, 0.000, 15:50:50.723
36, -294.63, 14.07, 0.39, 3.68, 0.000, 0.000, 0.000, 15:50:50.723
37, -517.90, 4.14, 10.80, 15.89, 0.000, 0.000, 0.000, 15:50:50.724
38, 373.49, 1.58, 20.12, 20.14, 0.000, 0.000, 0.000, 15:50:50.724
39, 88.18, 10.47, 7.06, 5.78, 0.000, 0.000, 0.000, 15:50:50.746
40, -653.44, 7.34, 9.16, 6.23, 0.000, 0.000, 0.000, 15:50:50.746
41, 110.62, 3.36, 14.34, 14.80, 0.000, 0.000, 0.000, 15:50:50.746
42, 366.54, 9.01, 14.15, 15.04, 0.000, 0.000, 0.000, 15:50:50.746
43, -565.01, 12.51, 5.25, 6.41, 0.000, 0.000, 0.000, 15:50:50.747
44, -232.69, 4.10, 14.27, 14.19, 0.000, 0.000, 0.000, 15:50:50.747
45, 476.38, 4.62, 19.52, 13.12, 0.000, 0.000, 0.000, 15:50:50.768
46, -271.14, 14.97, 1.78, 7.73, 0.000, 0.000, 0.000, 15:50:50.768
47, -529.80, 8.78, 7.41, 13.16, 0.000, 0.000, 0.000, 15:50:50.769
48, 370.98, 4.01, 16.24, 16.53, 0.000, 0.000, 0.000, 15:50:50.769
49, 84.35, 14.22, 12.11, 7.81, 0.000, 0.000, 0.000, 15:50:50.791
50, -638.61, 11.02, 6.96, 6.41, 0.000, 0.000, 0.000, 15:50:50.791
51, 117.39, 0.36, 15.55, 18.64, 0.000, 0.000, 0.000, 15:50:50.791
52, 376.45, 8.21, 12.87, 13.99, 0.000, 0.000, 0.000, 15:50:50.792
53, -548.61, 14.02, 3.70, 9.06, 0.000, 0.000, 0.000, 15:50:50.813
54, -218.99, 11.08, 12.75, 14.48, 0.000, 0.000, 0.000, 15:50:50.814
55, 472.48, -1.02, 12.75, 18.44, 0.000, 0.000, 0.000, 15:50:50.814
56, -272.99, 18.43, 4.68, 4.03, 0.000, 0.000, 0.000, 15:50:50.814
57, -517.58, 8.31, 11.42, 13.06, 0.000, 0.000, 0.000, 15:50:50.836
58, 372.84, 1.66, 20.06, 16.39, 0.000, 0.000, 0.000, 15:50:50.836
59, 96.26, 8.80, 8.20, 9.26, 0.000, 0.000, 0.000, 15:50:50.837
60, -641.93, 14.65, 7.84, 8.53, 0.000, 0.000, 0.000, 15:50:50.837
61, 115.04, 4.21, 15.17, 18.05, 0.000, 0.000, 0.000, 15:50:50.837
62, 326.89, 9.44, 9.16, 11.03, 0.000, 0.000, 0.000, 15:50:50.837
63, -599.98, 17.35, 5.55, 4.44, 0.000, 0.000, 0.000, 15:50:50.859
64, -103.67, 3.57, 15.13, 18.44, 0.000, 0.000, 0.000, 15:50:50.859
65, 465.83, 1.45, 13.77, 12.66, 0.000, 0.000, 0.000, 15:50:50.859
66, -358.22, 15.77, 1.42, 5.45, 0.000, 0.000, 0.000, 15:50:50.859
67, -412.07, 2.70, 14.47, 15.03, 0.000, 0.000, 0.000, 15:50:50.881
68, 429.49, 1.02, 15.07, 17.03, 0.000, 0.000, 0.000, 15:50:50.881
69, -53.00, 15.61, 6.33, 6.31, 0.000, 0.000, 0.000, 15:50:50.881
70, -631.02, 9.98, 11.27, 9.21, 0.000, 0.000, 0.000, 15:50:50.881
71, 243.79, 2.35, 18.40, 13.39, 0.000, 0.000, 0.000, 15:50:50.903
72, 273.98, 15.19, 3.42, 12.86, 0.000, 0.000, 0.000, 15:50:50.904
73, -639.52, 6.25, 4.44, 4.61, 0.000, 0.000, 0.000, 15:50:50.904
74, -96.05, 0.25, 16.35, 18.84, 0.000, 0.000, 0.000, 15:50:50.904
75, 449.78, 2.80, 14.70, 12.58, 0.000, 0.000, 0.000, 15:50:50.926
76, -409.49, 16.56, 1.62, 4.88, 0.000, 0.000, 0.000, 15:50:50.926
77, -423.32, 5.27, 13.60, 15.40, 0.000, 0.000, 0.000, 15:50:50.926
78, 447.33, 6.44, 15.92, 14.71, 0.000, 0.000, 0.000, 15:50:50.926
79, -41.87, 14.52, 5.46, 3.32, 0.000, 0.000, 0.000, 15:50:50.927
80, -643.58, 10.30, 11.72, 13.21, 0.000, 0.000, 0.000, 15:50:50.927
81, 245.18, 6.41, 15.95, 19.54, 0.000, 0.000, 0.000, 15:50:50.948
82, 290.20, 7.60, 7.26, 6.33, 0.000, 0.000, 0.000, 15:50:50.949
83, -632.71, 16.35, 6.00, 7.18, 0.000, 0.000, 0.000, 15:50:50.949
84, -99.19, 4.35, 17.18, 16.79, 0.000, 0.000, 0.000, 15:50:50.949
85, 465.07, 6.40, 12.10, 13.24, 0.000, 0.000, 0.000, 15:50:50.971
86, -403.06, 14.14, 2.50, 3.70, 0.000, 0.000, 0.000, 15:50:50.971
87, -451.73, 8.04, 17.14, 15.08, 0.000, 0.000, 0.000, 15:50:50.971
88, 474.34, 5.42, 19.53, 17.18, 0.000, 0.000, 0.000, 15:50:50.971
89, -9.26, 15.53, 8.58, 6.93, 0.000, 0.000, 0.000, 15:50:50.993
90, -632.36, 10.86, 6.28, 10.71, 0.000, 0.000, 0.000, 15:50:50.993
91, 248.02, -3.81, 15.69, 21.79, 0.000, 0.000, 0.000, 15:50:50.994
92, 286.01, 11.40, 12.26, 8.69, 0.000, 0.000, 0.000, 15:50:50.994
93, -638.55, 14.13, 2.45, 8.67, 0.000, 0.000, 0.000, 15:50:51.016
94, -94.37, 4.28, 13.63, 13.28, 0.000, 0.000, 0.000, 15:50:51.016
95, 463.14, 1.22, 12.76, 16.68, 0.000, 0.000, 0.000, 15:50:51.017
96, -386.82, 13.88, 3.99, 5.01, 0.000, 0.000, 0.000, 15:50:51.017
97, -434.69, 8.60, 15.20, 12.57, 0.000, 0.000, 0.000, 15:50:51.018
98, 445.72, 5.42, 17.56, 15.68, 0.000, 0.000, 0.000, 15:50:51.018
99, -30.03, 13.41, 2.84, 7.82, 0.000, 0.000, 0.000, 15:50:51.038
100, -641.71, 8.69, 10.01, 11.77, 0.000, 0.000, 0.000, 15:50:51.039
101, 237.18, 1.78, 21.28, 19.61, 0.000, 0.000, 0.000, 15:50:51.039
102, 284.92, 11.12, 9.13, 9.67, 0.000, 0.000, 0.000, 15:50:51.039
103, -632.04, 16.82, 1.14, 5.00, 0.000, 0.000, 0.000, 15:50:51.061
104, -88.33, 2.68, 18.20, 17.19, 0.000, 0.000, 0.000, 15:50:51.061
105, 460.60, 8.21, 16.55, 12.26, 0.000, 0.000, 0.000, 15:50:51.061
106, -397.66, 21.11, 4.67, 5.35, 0.000, 0.000, 0.000, 15:50:51.061
107, -421.32, 5.26, 15.29, 17.10, 0.000, 0.000, 0.000, 15:50:51.084
108, 444.19, 7.62, 14.54, 16.48, 0.000, 0.000, 0.000, 15:50:51.084
109, 34.07, 5.38, 9.83, 7.55, 0.000, 0.000, 0.000, 15:50:51.085
110, -665.14, 10.40, 6.30, 7.87, 0.000, 0.000, 0.000, 15:50:51.086
111, 125.03, -0.86, 17.24, 16.73, 0.000, 0.000, 0.000, 15:50:51.106
112, 370.14, 6.45, 7.94, 13.63, 0.000, 0.000, 0.000, 15:50:51.106
113, -551.34, 13.03, 9.55, 4.77, 0.000, 0.000, 0.000, 15:50:51.106
114, -232.43, 5.88, 11.96, 15.91, 0.000, 0.000, 0.000, 15:50:51.106
115, 468.70, 2.54, 15.87, 15.14, 0.000, 0.000, 0.000, 15:50:51.107
116, -269.71, 13.50, 3.92, 5.92, 0.000, 0.000, 0.000, 15:50:51.107
117, -520.89, 11.69, 11.81, 9.79, 0.000, 0.000, 0.000, 15:50:51.128
118, 387.26, -3.10, 16.66, 17.71, 0.000, 0.000, 0.000, 15:50:51.129
119, 117.65, 12.67, 4.98, 3.71, 0.000, 0.000, 0.000, 15:50:51.129
120, -651.20, 12.64, 5.74, 11.17, 0.000, 0.000, 0.000, 15:50:51.129
121, 114.85, 6.04, 16.12, 17.02, 0.000, 0.000, 0.000, 15:50:51.151
122, 382.84, 7.28, 12.73, 13.39, 0.000, 0.000, 0.000, 15:50:51.151
123, -540.68, 19.48, 3.44, 3.49, 0.000, 0.000, 0.000, 15:50:51.151
124, -234.33, 4.92, 15.11, 16.58, 0.000, 0.000, 0.000, 15:50:51.151
125, 472.03, 5.16, 15.30, 17.85, 0.000, 0.000, 0.000, 15:50:51.173
126, -265.86, 16.35, 4.26, 7.54, 0.000, 0.000, 0.000, 15:50:51.173
127, -517.51, 1.65, 14.20, 16.70, 0.000, 0.000, 0.000, 15:50:51.174
128, 366.05, 4.09, 18.22, 17.07, 0.000, 0.000, 0.000, 15:50:51.174
129, 104.90, 15.64, 6.64, 5.56, 0.000, 0.000, 0.000, 15:50:51.196
130, -652.50, 15.86, 6.34, 7.45, 0.000, 0.000, 0.000, 15:50:51.196
131, 107.43, 2.02, 11.41, 21.40, 0.000, 0.000, 0.000, 15:50:51.196
132, 375.76, 5.45, 15.06, 14.05, 0.000, 0.000, 0.000, 15:50:51.196
133, -557.70, 14.38, 3.64, 3.35, 0.000, 0.000, 0.000, 15:50:51.197
134, -249.95, 3.40, 15.37, 15.83, 0.000, 0.000, 0.000, 15:50:51.197
135, 484.81, 9.19, 16.58, 18.71, 0.000, 0.000, 0.000, 15:50:51.218
136, -246.26, 8.90, 2.71, 4.69, 0.000, 0.000, 0.000, 15:50:51.218
137, -543.05, 5.32, 9.28, 13.69, 0.000, 0.000, 0.000, 15:50:51.219
138, 376.48, 2.98, 16.70, 17.89, 0.000, 0.000, 0.000, 15:50:51.219
139, 124.71, 11.99, 9.21, 8.99, 0.000, 0.000, 0.000, 15:50:51.248
140, -650.85, 12.16, 4.53, 8.19, 0.000, 0.000, 0.000, 15:50:51.248
141, 102.69, 3.96, 18.38, 14.62, 0.000, 0.000, 0.000, 15:50:51.248
142, 386.40, 11.06, 13.89, 15.93, 0.000, 0.000, 0.000, 15:50:51.248
143, -549.45, 14.83, 4.04, 5.86, 0.000, 0.000, 0.000, 15:50:51.263
144, -248.58, 10.15, 12.52, 10.34, 0.000, 0.000, 0.000, 15:50:51.264
145, 478.73, -3.72, 16.68, 12.81, 0.000, 0.000, 0.000, 15:50:51.264
146, -256.25, 12.78, -0.07, 4.10, 0.000, 0.000, 0.000, 15:50:51.264
147, -517.88, 5.97, 11.69, 10.23, 0.000, 0.000, 0.000, 15:50:51.286
148, 384.43, 3.99, 18.59, 21.24, 0.000, 0.000, 0.000, 15:50:51.286
149, 139.67, 8.97, 7.32, 7.63, 0.000, 0.000, 0.000, 15:50:51.287
150, -615.61, 15.13, 10.11, 9.53, 0.000, 0.000, 0.000, 15:50:51.287
151, 140.27, 2.63, 15.91, 19.42, 0.000, 0.000, 0.000, 15:50:51.287
152, 408.43, 1.53, 10.39, 13.31, 0.000, 0.000, 0.000, 15:50:51.287
153, -551.43, 16.24, 5.72, 2.69, 0.000, 0.000, 0.000, 15:50:51.308
154, -264.14, 3.99, 14.60, 15.52, 0.000, 0.000, 0.000, 15:50:51.309
155, 450.06, 4.61, 18.24, 18.15, 0.000, 0.000, 0.000, 15:50:51.309
156, -282.31, 15.35, 2.12, 4.54, 0.000, 0.000, 0.000, 15:50:51.309
157, -564.16, 7.41, 9.27, 9.15, 0.000, 0.000, 0.000, 15:50:51.331
158, 339.36, -0.72, 19.65, 17.12, 0.000, 0.000, 0.000, 15:50:51.332
159, 83.76, 12.80, 5.60, 10.95, 0.000, 0.000, 0.000, 15:50:51.332
160, -640.89, 9.96, 6.14, 9.73, 0.000, 0.000, 0.000, 15:50:51.332
161, 103.94, 1.45, 17.93, 12.83, 0.000, 0.000, 0.000, 15:50:51.353
162, 379.36, 9.72, 16.81, 13.17, 0.000, 0.000, 0.000, 15:50:51.353
163, -530.32, 11.96, 5.33, 7.27, 0.000, 0.000, 0.000, 15:50:51.354
164, -243.77, 0.88, 16.95, 14.21, 0.000, 0.000, 0.000, 15:50:51.354
165, 474.73, 1.98, 18.49, 14.82, 0.000, 0.000, 0.000, 15:50:51.376
166, -259.74, 15.91, 1.37, 4.13, 0.000, 0.000, 0.000, 15:50:51.376
167, -511.38, 5.48, 11.26, 11.54, 0.000, 0.000, 0.000, 15:50:51.376
168, 384.47, 4.56, 17.79, 18.56, 0.000, 0.000, 0.000, 15:50:51.376
169, 120.93, 14.59, 7.75, 10.05, 0.000, 0.000, 0.000, 15:50:51.377
170, -644.78, 11.22, 6.92, 9.25, 0.000, 0.000, 0.000, 15:50:51.377
171, 107.62, 5.47, 13.73, 15.46, 0.000, 0.000, 0.000, 15:50:51.399
172, 389.27, 4.27, 11.96, 16.20, 0.000, 0.000, 0.000, 15:50:51.399
173, -541.64, 17.35, 1.67, 8.72, 0.000, 0.000, 0.000, 15:50:51.399
174, -173.25, 1.72, 11.62, 15.45, 0.000, 0.000, 0.000, 15:50:51.400
175, 444.40, 6.49, 14.67, 12.38, 0.000, 0.000, 0.000, 15:50:51.421
176, -388.09, 14.35, 4.84, 4.88, 0.000, 0.000, 0.000, 15:50:51.421
177, -441.74, 5.69, 14.92, 16.43, 0.000, 0.000, 0.000, 15:50:51.422
178, 437.08, 2.32, 15.29, 15.34, 0.000, 0.000, 0.000, 15:50:51.422
179, -13.32, 18.18, 6.42, 8.02, 0.000, 0.000, 0.000, 15:50:51.443
180, -631.08, 13.73, 9.54, 10.07, 0.000, 0.000, 0.000, 15:50:51.443
181, 253.52, -0.36, 16.81, 19.41, 0.000, 0.000, 0.000, 15:50:51.444
182, 300.50, 12.19, 10.24, 12.30, 0.000, 0.000, 0.000, 15:50:51.444
183, -619.73, 12.48, 7.80, 6.23, 0.000, 0.000, 0.000, 15:50:51.466
184, -98.11, 8.03, 19.10, 15.87, 0.000, 0.000, 0.000, 15:50:51.466
185, 465.26, 5.85, 14.50, 13.58, 0.000, 0.000, 0.000, 15:50:51.466
186, -369.89, 17.05, -1.70, 4.58, 0.000, 0.000, 0.000, 15:50:51.467
187, -445.93, 3.31, 14.12, 17.20, 0.000, 0.000, 0.000, 15:50:51.467
188, 450.44, 3.24, 17.68, 16.25, 0.000, 0.000, 0.000, 15:50:51.467
189, -33.05, 14.55, 5.11, 5.73, 0.000, 0.000, 0.000, 15:50:51.489
190, -619.96, 7.91, 12.73, 7.85, 0.000, 0.000, 0.000, 15:50:51.489
191, 276.79, -2.76, 17.30, 18.12, 0.000, 0.000, 0.000, 15:50:51.490
192, 297.97, 8.49, 9.68, 10.04, 0.000, 0.000, 0.000, 15:50:51.490
193, -634.67, 15.88, 4.51, 5.81, 0.000, 0.000, 0.000, 15:50:51.511
194, -97.94, 3.04, 14.53, 19.45, 0.000, 0.000, 0.000, 15:50:51.511
195, 497.57, 8.28, 12.75, 14.49, 0.000, 0.000, 0.000, 15:50:51.511
196, -374.90, 16.50, 1.91, 2.35, 0.000, 0.000, 0.000, 15:50:51.511
197, -432.13, 1.45, 13.61, 16.49, 0.000, 0.000, 0.000, 15:50:51.533
198, 469.90, 9.67, 17.79, 17.63, 0.000, 0.000, 0.000, 15:50:51.533
199, 2.23, 6.71, 4.31, 5.56, 0.000, 0.000, 0.000, 15:50:51.534
200, -639.81, 8.74, 8.09, 7.76, 0.000, 0.000, 0.000, 15:50:51.534
0, 224.50, 2.09, 16.78, 19.74, 0.000, 0.000, 0.000, 15:50:51.534
1, 280.93, 7.75, 10.38, 12.29, 0.000, 0.000, 0.000, 15:50:51.556
2, -645.78, 9.93, 6.82, 5.54, 0.000, 0.000, 0.000, 15:50:51.556
3, -41.43, 7.36, 17.20, 12.82, 0.000, 0.000, 0.000, 15:50:51.557
4, 487.24, 5.61, 8.74, 12.78, 0.000, 0.000, 0.000, 15:50:51.557
5, -422.33, 13.11, -1.06, 6.46, 0.000, 0.000, 0.000, 15:50:51.578
6, -458.28, 10.80, 12.32, 16.19, 0.000, 0.000, 0.000, 15:50:51.579
7, 426.33, -3.63, 16.10, 16.31, 0.000, 0.000, 0.000, 15:50:51.579
8, 90.01, 11.62, 6.82, 11.51, 0.000, 0.000, 0.000, 15:50:51.579
9, -689.20, 11.07, 9.22, 11.26, 0.000, 0.000, 0.000, 15:50:51.601
10, 39.49, 7.66, 17.42, 17.48, 0.000, 0.000, 0.000, 15:50:51.601
11, 375.99, 12.64, 13.28, 10.16, 0.000, 0.000, 0.000, 15:50:51.601
12, -583.18, 17.22, 9.17, 4.50, 0.000, 0.000, 0.000, 15:50:51.602
13, -266.51, 2.98, 16.95, 15.96, 0.000, 0.000, 0.000, 15:50:51.602
14, 532.35, 5.31, 15.24, 15.59, 0.000, 0.000, 0.000, 15:50:51.602
15, -224.96, 17.99, 4.57, 7.31, 0.000, 0.000, 0.000, 15:50:51.623
16, -538.07, 4.80, 9.37, 9.42, 0.000, 0.000, 0.000, 15:50:51.624
17, 368.13, 6.74, 17.73, 19.28, 0.000, 0.000, 0.000, 15:50:51.624
18, 116.15, 11.59, 10.19, 10.12, 0.000, 0.000, 0.000, 15:50:51.624
19, -683.24, 14.79, 6.03, 5.16, 0.000, 0.000, 0.000, 15:50:51.646
20, 53.79, 1.39, 17.86, 18.86, 0.000, 0.000, 0.000, 15:50:51.646
21, 373.97, 9.02, 14.34, 13.89, 0.000, 0.000, 0.000, 15:50:51.646
22, -558.81, 13.59, 5.60, 4.90, 0.000, 0.000, 0.000, 15:50:51.646
23, -295.71, 5.36, 11.43, 14.83, 0.000, 0.000, 0.000, 15:50:51.668
24, 444.55, 8.40, 16.32, 16.83, 0.000, 0.000, 0.000, 15:50:51.668
25, -293.61, 13.07, 3.29, 7.15, 0.000, 0.000, 0.000, 15:50:51.669
26, -516.73, 10.32, 6.40, 10.04, 0.000, 0.000, 0.000, 15:50:51.669
27, 342.76, 0.81, 19.35, 15.76, 0.000, 0.000, 0.000, 15:50:51.692
28, 165.11, 14.50, 6.40, 5.26, 0.000, 0.000, 0.000, 15:50:51.692
29, -593.24, 9.11, 11.44, 8.42, 0.000, 0.000, 0.000, 15:50:51.692
30, 118.44, 3.52, 15.99, 16.58, 0.000, 0.000, 0.000, 15:50:51.692
31, 377.81, 9.29, 12.44, 18.88, 0.000, 0.000, 0.000, 15:50:51.693
32, -513.22, 13.24, 4.75, 8.47, 0.000, 0.000, 0.000, 15:50:51.693
33, -225.85, 8.45, 10.29, 14.65, 0.000, 0.000, 0.000, 15:50:51.714
34, 475.95, 1.18, 13.36, 17.94, 0.000, 0.000, 0.000, 15:50:51.714
35, -207.08, 14.40, 4.85, 8.02, 0.000, 0.000, 0.000, 15:50:51.714
36, -547.30, 10.32, 10.86, 13.56, 0.000, 0.000, 0.000, 15:50:51.715
37, 286.39, 2.83, 19.10, 17.60, 0.000, 0.000, 0.000, 15:50:51.736
38, 12.19, 7.04, 5.29, 8.69, 0.000, 0.000, 0.000, 15:50:51.736
39, -617.04, 10.88, 5.60, 5.23, 0.000, 0.000, 0.000, 15:50:51.737
40, 99.51, -2.79, 16.08, 14.77, 0.000, 0.000, 0.000, 15:50:51.737
41, 308.72, 8.94, 13.24, 9.85, 0.000, 0.000, 0.000, 15:50:51.758
42, -606.34, 18.80, 3.49, 6.35, 0.000, 0.000, 0.000, 15:50:51.758
43, -315.15, 4.18, 19.17, 16.66, 0.000, 0.000, 0.000, 15:50:51.759
44, 603.10, 3.12, 15.66, 14.25, 0.000, 0.000, 0.000, 15:50:51.759
45, -142.56, 11.90, 4.05, 5.69, 0.000, 0.000, 0.000, 15:50:51.781
46, -555.48, 11.25, 9.94, 6.69, 0.000, 0.000, 0.000, 15:50:51.782
47, 317.52, 2.55, 13.74, 18.97, 0.000, 0.000, 0.000, 15:50:51.782
48, 270.83, 13.29, 5.68, 9.78, 0.000, 0.000, 0.000, 15:50:51.782
49, -539.82, 13.53, 10.61, 11.53, 0.000, 0.000, 0.000, 15:50:51.783
50, 124.29, 1.55, 16.58, 15.81, 0.000, 0.000, 0.000, 15:50:51.783
51, 344.22, 9.10, 18.57, 14.06, 0.000, 0.000, 0.000, 15:50:51.803
52, -574.57, 13.55, -0.65, 8.84, 0.000, 0.000, 0.000, 15:50:51.803
53, -272.14, 5.65, 16.61, 16.32, 0.000, 0.000, 0.000, 15:50:51.804
54, 461.87, 5.03, 15.85, 17.04, 0.000, 0.000, 0.000, 15:50:51.804
55, -295.53, 11.71, 1.75, 7.34, 0.000, 0.000, 0.000, 15:50:51.826
56, -699.93, 9.69, 10.30, 9.94, 0.000, 0.000, 0.000, 15:50:51.826
57, 234.63, 1.41, 20.34, 18.99, 0.000, 0.000, 0.000, 15:50:51.826
58, 173.05, 10.12, 8.68, 8.76, 0.000, 0.000, 0.000, 15:50:51.827
59, -507.25, 11.85, 8.10, 8.13, 0.000, 0.000, 0.000, 15:50:51.848
60, 78.51, 8.95, 12.77, 7.50, 0.000, 0.000, 0.000, 15:50:51.849
61, 376.65, 1.23, 10.83, 13.77, 0.000, 0.000, 0.000, 15:50:51.849
62, -543.58, 13.56, 2.45, 6.41, 0.000, 0.000, 0.000, 15:50:51.849
63, -227.43, 5.01, 9.21, 16.65, 0.000, 0.000, 0.000, 15:50:51.871
64, 541.15, 3.34, 15.85, 17.04, 0.000, 0.000, 0.000, 15:50:51.871
65, -166.27, 15.56, 3.53, 5.83, 0.000, 0.000, 0.000, 15:50:51.872
66, -513.32, 10.70, 11.88, 11.41, 0.000, 0.000, 0.000, 15:50:51.872
67, 374.60, 1.18, 15.09, 14.25, 0.000, 0.000, 0.000, 15:50:51.872
68, 122.43, 12.48, 4.10, 8.46, 0.000, 0.000, 0.000, 15:50:51.873
69, -687.50, 14.61, 3.28, 7.24, 0.000, 0.000, 0.000, 15:50:51.893
70, 105.87, -3.77, 20.70, 13.96, 0.000, 0.000, 0.000, 15:50:51.893
71, 373.80, 1.87, 13.16, 12.44, 0.000, 0.000, 0.000, 15:50:51.894
72, -564.21, 15.84, 1.51, 5.38, 0.000, 0.000, 0.000, 15:50:51.894
73, -432.71, 3.90, 15.97, 12.44, 0.000, 0.000, 0.000, 15:50:51.916
74, 387.68, 4.22, 17.24, 16.13, 0.000, 0.000, 0.000, 15:50:51.916
75, -99.51, 17.10, 1.07, 4.20, 0.000, 0.000, 0.000, 15:50:51.916
76, -538.88, 10.46, 13.60, 10.98, 0.000, 0.000, 0.000, 15:50:51.916
77, 309.24, 3.67, 20.49, 17.19, 0.000, 0.000, 0.000, 15:50:51.939
78, 226.83, 14.16, 8.24, 8.06, 0.000, 0.000, 0.000, 15:50:51.939
79, -686.22, 6.22, 7.89, 8.81, 0.000, 0.000, 0.000, 15:50:51.940
80, 120.55, 5.04, 15.27, 15.51, 0.000, 0.000, 0.000, 15:50:51.940
81, 479.13, 7.43, 9.80, 12.52, 0.000, 0.000, 0.000, 15:50:51.961
82, -448.29, 16.40, 5.21, 5.16, 0.000, 0.000, 0.000, 15:50:51.961
83, -231.39, 4.44, 13.19, 16.33, 0.000, 0.000, 0.000, 15:50:51.961
84, 400.11, 5.82, 15.31, 16.96, 0.000, 0.000, 0.000, 15:50:51.962
85, -285.28, 15.86, 4.83, 8.33, 0.000, 0.000, 0.000, 15:50:51.962
86, -566.65, 7.71, 14.03, 15.71, 0.000, 0.000, 0.000, 15:50:51.963
87, 229.65, 9.10, 18.60, 19.67, 0.000, 0.000, 0.000, 15:50:51.983
88, 188.83, 9.62, 10.05, 12.03, 0.000, 0.000, 0.000, 15:50:51.983
89, -578.43, 13.36, 10.44, 9.37, 0.000, 0.000, 0.000, 15:50:51.984
90, 121.85, 2.75, 14.85, 17.10, 0.000, 0.000, 0.000, 15:50:51.984
91, 339.60, 7.73, 15.90, 13.59, 0.000, 0.000, 0.000, 15:50:52.006
92, 339.02, 12.53, 3.26, 11.03, 0.000, 0.000, 0.000, 15:50:52.006
93, 686.94, 4.29, 12.56, 16.15, 0.000, 0.000, 0.000, 15:50:52.006
94, 1555.44, 1.82, 13.38, 12.19, 0.000, 0.000, 0.000, 15:50:52.007
95, 844.29, 12.16, 5.89, 5.80, 0.000, 0.000, 0.000, 15:50:52.028
96, 462.61, 10.38, 12.21, 9.85, 0.000, 0.000, 0.000, 15:50:52.028
97, 1286.90, 0.09, 17.62, 21.91, 0.000, 0.000, 0.000, 15:50:52.029
98, 1058.91, 13.55, 8.31, 9.17, 0.000, 0.000, 0.000, 15:50:52.029
99, 324.02, 10.19, 9.54, 8.77, 0.000, 0.000, 0.000, 15:50:52.051
100, 1129.17, 4.37, 18.36, 14.93, 0.000, 0.000, 0.000, 15:50:52.051
101, 1388.55, 3.05, 11.21, 15.66, 0.000, 0.000, 0.000, 15:50:52.051
102, 422.34, 15.55, 5.13, 4.38, 0.000, 0.000, 0.000, 15:50:52.052
103, 645.09, 4.54, 15.81, 10.95, 0.000, 0.000, 0.000, 15:50:52.052
104, 1436.91, 2.15, 16.02, 18.26, 0.000, 0.000, 0.000, 15:50:52.052
105, 830.19, 16.64, 4.64, 3.36, 0.000, 0.000, 0.000, 15:50:52.073
106, 506.73, 6.58, 10.29, 9.78, 0.000, 0.000, 0.000, 15:50:52.074
107, 1262.07, 4.58, 17.85, 22.16, 0.000, 0.000, 0.000, 15:50:52.074
108, 1142.02, 12.29, 6.60, 10.60, 0.000, 0.000, 0.000, 15:50:52.074
109, 375.30, 13.63, 10.61, 8.67, 0.000, 0.000, 0.000, 15:50:52.096
110, 1074.80, 3.20, 15.81, 17.79, 0.000, 0.000, 0.000, 15:50:52.097
111, 1411.72, 8.98, 12.99, 11.84, 0.000, 0.000, 0.000, 15:50:52.098
112, 455.78, 14.59, 1.46, 7.00, 0.000, 0.000, 0.000, 15:50:52.098
113, 642.50, 6.42, 13.19, 11.35, 0.000, 0.000, 0.000, 15:50:52.118
114, 1400.82, 9.60, 12.15, 16.33, 0.000, 0.000, 0.000, 15:50:52.119
115, 674.62, 11.21, 2.13, 4.52, 0.000, 0.000, 0.000, 15:50:52.119
116, 308.18, 5.50, 14.03, 10.75, 0.000, 0.000, 0.000, 15:50:52.120
117, 422.22, 1.10, 18.01, 16.92, 0.000, 0.000, 0.000, 15:50:52.141
118, 169.22, 11.71, 7.74, 8.46, 0.000, 0.000, 0.000, 15:50:52.141
119, -643.27, 14.00, 5.02, 10.82, 0.000, 0.000, 0.000, 15:50:52.142
120, 154.10, 5.29, 15.66, 18.61, 0.000, 0.000, 0.000, 15:50:52.142
121, 456.95, 8.75, 9.48, 12.04, 0.000, 0.000, 0.000, 15:50:52.142
122, -515.86, 16.47, 3.10, 4.72, 0.000, 0.000, 0.000, 15:50:52.142
123, -274.04, 11.55, 14.53, 12.10, 0.000, 0.000, 0.000, 15:50:52.163
124, 533.66, -0.77, 15.30, 17.15, 0.000, 0.000, 0.000, 15:50:52.164
125, -262.95, 10.73, 5.91, 3.61, 0.000, 0.000, 0.000, 15:50:52.164
126, -605.79, 8.12, 8.86, 12.52, 0.000, 0.000, 0.000, 15:50:52.164
127, 367.66, 3.51, 15.87, 17.84, 0.000, 0.000, 0.000, 15:50:52.186
128, 170.99, 11.18, 6.59, 4.38, 0.000, 0.000, 0.000, 15:50:52.186
129, -660.77, 12.78, 5.90, 6.51, 0.000, 0.000, 0.000, 15:50:52.186
130, -2.64, 3.05, 16.31, 15.29, 0.000, 0.000, 0.000, 15:50:52.186
131, 330.16, 7.52, 10.01, 14.09, 0.000, 0.000, 0.000, 15:50:52.208
132, -491.94, 19.41, 3.36, 9.76, 0.000, 0.000, 0.000, 15:50:52.208
133, -257.16, 0.14, 17.40, 21.35, 0.000, 0.000, 0.000, 15:50:52.209
134, 488.87, 5.87, 17.25, 16.02, 0.000, 0.000, 0.000, 15:50:52.209
135, -281.18, 14.61, 4.59, 3.57, 0.000, 0.000, 0.000, 15:50:52.231
136, -516.37, 7.36, 15.93, 11.59, 0.000, 0.000, 0.000, 15:50:52.231
137, 410.27, 4.05, 14.59, 19.55, 0.000, 0.000, 0.000, 15:50:52.231
138, 85.53, 9.43, 9.40, 8.22, 0.000, 0.000, 0.000, 15:50:52.232
139, -626.59, 6.11, 9.70, 5.51, 0.000, 0.000, 0.000, 15:50:52.232
140, 157.71, 1.43, 19.36, 14.94, 0.000, 0.000, 0.000, 15:50:52.232
141, 308.07, 8.40, 9.78, 9.45, 0.000, 0.000, 0.000, 15:50:52.253
142, -511.33, 12.38, 1.43, 4.18, 0.000, 0.000, 0.000, 15:50:52.253
143, -47.39, 5.08, 13.32, 16.38, 0.000, 0.000, 0.000, 15:50:52.254
144, 444.72, 4.96, 13.44, 17.36, 0.000, 0.000, 0.000, 15:50:52.254
145, -291.40, 12.64, 6.83, 3.06, 0.000, 0.000, 0.000, 15:50:52.276
146, -499.80, 6.03, 14.31, 14.80, 0.000, 0.000, 0.000, 15:50:52.276
147, 395.47, 5.76, 15.52, 16.21, 0.000, 0.000, 0.000, 15:50:52.276
148, -2.17, 13.08, 3.96, 6.47, 0.000, 0.000, 0.000, 15:50:52.276
149, -664.26, 11.85, 5.16, 8.27, 0.000, 0.000, 0.000, 15:50:52.298
150, 227.73, 6.25, 15.15, 16.87, 0.000, 0.000, 0.000, 15:50:52.298
151, 320.88, 7.30, 12.64, 10.54, 0.000, 0.000, 0.000, 15:50:52.299
152, 209.63, 13.59, 5.56, 9.15, 0.000, 0.000, 0.000, 15:50:52.299
153, 717.86, 1.11, 17.67, 17.65, 0.000, 0.000, 0.000, 15:50:52.321
154, 1465.20, 9.44, 15.95, 16.88, 0.000, 0.000, 0.000, 15:50:52.321
155, 703.47, 18.05, 5.20, 6.85, 0.000, 0.000, 0.000, 15:50:52.321
156, 585.82, 7.37, 15.08, 11.92, 0.000, 0.000, 0.000, 15:50:52.322
157, 1407.63, -1.39, 14.64, 18.85, 0.000, 0.000, 0.000, 15:50:52.322
158, 998.00, 16.18, 4.59, 9.42, 0.000, 0.000, 0.000, 15:50:52.322
159, 351.77, 11.26, 12.67, 11.32, 0.000, 0.000, 0.000, 15:50:52.344
160, 1161.99, 0.86, 18.85, 17.74, 0.000, 0.000, 0.000, 15:50:52.344
161, 1239.43, 8.72, 10.38, 10.08, 0.000, 0.000, 0.000, 15:50:52.344
162, 396.47, 13.94, 6.08, 5.90, 0.000, 0.000, 0.000, 15:50:52.345
163, 880.75, 4.42, 14.85, 17.16, 0.000, 0.000, 0.000, 15:50:52.366
164, 1409.47, 3.28, 16.03, 14.78, 0.000, 0.000, 0.000, 15:50:52.366
165, 673.72, 20.55, 0.68, 2.87, 0.000, 0.000, 0.000, 15:50:52.366
166, 563.57, 5.17, 12.64, 14.78, 0.000, 0.000, 0.000, 15:50:52.366
167, 1380.67, 0.71, 16.48, 16.85, 0.000, 0.000, 0.000, 15:50:52.388
168, 923.19, 15.51, 2.99, 6.99, 0.000, 0.000, 0.000, 15:50:52.389
169, 329.57, 1.72, 8.02, 11.76, 0.000, 0.000, 0.000, 15:50:52.389
170, 1278.97, 2.30, 20.65, 17.30, 0.000, 0.000, 0.000, 15:50:52.389
171, 1317.33, 7.89, 10.24, 11.68, 0.000, 0.000, 0.000, 15:50:52.411
172, 359.63, 15.98, 4.38, 8.59, 0.000, 0.000, 0.000, 15:50:52.411
173, 767.35, 0.53, 15.90, 18.26, 0.000, 0.000, 0.000, 15:50:52.412
174, 1524.65, 11.04, 12.58, 15.93, 0.000, 0.000, 0.000, 15:50:52.412
175, 663.54, 17.93, 3.67, 8.00, 0.000, 0.000, 0.000, 15:50:52.412
176, 518.18, 2.49, 12.08, 16.49, 0.000, 0.000, 0.000, 15:50:52.412
177, 1478.60, 1.19, 16.30, 14.75, 0.000, 0.000, 0.000, 15:50:52.433
178, 919.35, 11.87, 3.76, 5.80, 0.000, 0.000, 0.000, 15:50:52.433
179, 309.66, 11.52, 11.86, 7.62, 0.000, 0.000, 0.000, 15:50:52.434
180, 1225.53, 4.35, 19.45, 16.06, 0.000, 0.000, 0.000, 15:50:52.434
181, 1344.11, 12.27, 8.17, 10.90, 0.000, 0.000, 0.000, 15:50:52.456
182, 1308.48, 15.26, 6.53, 8.55, 0.000, 0.000, 0.000, 15:50:52.456
183, 1788.34, 5.14, 15.52, 16.34, 0.000, 0.000, 0.000, 15:50:52.456
184, 2408.12, 3.99, 12.96, 13.41, 0.000, 0.000, 0.000, 15:50:52.456
185, 1558.01, 12.64, 2.49, 3.33, 0.000, 0.000, 0.000, 15:50:52.479
186, 1508.92, 7.19, 9.02, 11.99, 0.000, 0.000, 0.000, 15:50:52.479
187, 2457.11, -0.85, 19.77, 14.73, 0.000, 0.000, 0.000, 15:50:52.479
188, 2090.42, 12.36, 4.94, 7.62, 0.000, 0.000, 0.000, 15:50:52.480
189, 1266.44, 12.40, 8.58, 10.44, 0.000, 0.000, 0.000, 15:50:52.501
190, 2089.07, 7.84, 14.68, 19.50, 0.000, 0.000, 0.000, 15:50:52.501
191, 2367.57, 6.94, 13.42, 13.16, 0.000, 0.000, 0.000, 15:50:52.501
192, 1436.06, 11.75, 6.44, 7.08, 0.000, 0.000, 0.000, 15:50:52.502
193, 1698.68, 4.07, 17.63, 14.51, 0.000, 0.000, 0.000, 15:50:52.502
194, 2449.08, 7.51, 18.27, 17.06, 0.000, 0.000, 0.000, 15:50:52.502
195, 1767.86, 14.91, 4.74, 8.28, 0.000, 0.000, 0.000, 15:50:52.523
196, 1454.67, 10.96, 8.33, 10.28, 0.000, 0.000, 0.000, 15:50:52.524
197, 2367.10, 4.21, 19.39, 17.78, 0.000, 0.000, 0.000, 15:50:52.524
198, 2086.59, 12.08, 8.10, 11.63, 0.000, 0.000, 0.000, 15:50:52.524
199, 1298.41, 13.01, 6.20, 7.32, 0.000, 0.000, 0.000, 15:50:52.546
200, 1937.61, -1.85, 16.48, 13.57, 0.000, 0.000, 0.000, 15:50:52.546
0, 459.07, 7.08, 14.17, 14.71, 0.000, 0.000, 0.000, 15:50:52.546
1, 428.88, 14.09, 5.84, 5.86, 0.000, 0.000, 0.000, 15:50:52.547
2, 638.24, 6.44, 16.09, 14.12, 0.000, 0.000, 0.000, 15:50:52.547
3, 1556.97, 9.49, 14.37, 15.60, 0.000, 0.000, 0.000, 15:50:52.568
4, 717.72, 11.04, 1.68, 1.55, 0.000, 0.000, 0.000, 15:50:52.568
5, 506.82, 7.92, 9.13, 11.81, 0.000, 0.000, 0.000, 15:50:52.569
6, 1289.41, 1.07, 15.30, 17.12, 0.000, 0.000, 0.000, 15:50:52.569
7, 1053.90, 12.55, 5.92, 7.82, 0.000, 0.000, 0.000, 15:50:52.591
8, 379.13, 11.51, 4.38, 8.21, 0.000, 0.000, 0.000, 15:50:52.591
9, 1082.43, 2.88, 16.86, 15.86, 0.000, 0.000, 0.000, 15:50:52.591
10, 1396.28, 4.74, 14.31, 15.10, 0.000, 0.000, 0.000, 15:50:52.591
11, 460.29, 11.52, 7.90, 7.55, 0.000, 0.000, 0.000, 15:50:52.613
12, 697.19, 12.38, 12.54, 14.95, 0.000, 0.000, 0.000, 15:50:52.613
13, 1390.97, -0.82, 16.74, 17.65, 0.000, 0.000, 0.000, 15:50:52.614
14, 627.21, 12.06, 4.12, 5.69, 0.000, 0.000, 0.000, 15:50:52.614
15, 385.49, 5.53, 8.21, 9.50, 0.000, 0.000, 0.000, 15:50:52.636
16, 1338.27, 2.59, 17.79, 16.71, 0.000, 0.000, 0.000, 15:50:52.636
17, 1217.13, 9.59, 8.84, 6.44, 0.000, 0.000, 0.000, 15:50:52.636
18, 271.13, 13.31, 4.81, 6.54, 0.000, 0.000, 0.000, 15:50:52.636
19, 1050.07, 0.47, 14.43, 17.34, 0.000, 0.000, 0.000, 15:50:52.637
20, 1375.15, 6.93, 14.38, 14.29, 0.000, 0.000, 0.000, 15:50:52.637
21, 1352.23, 16.16, 0.82, 5.74, 0.000, 0.000, 0.000, 15:50:52.658
22, 1796.95, 4.08, 15.88, 16.88, 0.000, 0.000, 0.000, 15:50:52.659
23, 2520.00, 1.39, 15.85, 17.04, 0.000, 0.000, 0.000, 15:50:52.659
24, 1680.59, 15.04, 6.98, 5.71, 0.000, 0.000, 0.000, 15:50:52.659
25, 1395.43, 9.08, 11.71, 9.54, 0.000, 0.000, 0.000, 15:50:52.681
26, 2321.61, 3.70, 14.99, 19.50, 0.000, 0.000, 0.000, 15:50:52.681
27, 2096.64, 9.16, 6.92, 9.23, 0.000, 0.000, 0.000, 15:50:52.681
28, 1279.83, 14.54, 8.98, 10.93, 0.000, 0.000, 0.000, 15:50:52.681
29, 2021.79, 4.30, 16.93, 17.26, 0.000, 0.000, 0.000, 15:50:52.703
30, 2392.08, 11.94, 13.97, 9.79, 0.000, 0.000, 0.000, 15:50:52.703
31, 1486.26, 9.46, 6.14, 6.26, 0.000, 0.000, 0.000, 15:50:52.704
32, 1687.22, 4.01, 14.10, 16.07, 0.000, 0.000, 0.000, 15:50:52.704
33, 2353.55, 7.30, 15.47, 13.02, 0.000, 0.000, 0.000, 15:50:52.726
34, 1538.36, 15.03, 4.22, 5.77, 0.000, 0.000, 0.000, 15:50:52.726
35, 1573.22, 5.32, 11.63, 15.79, 0.000, 0.000, 0.000, 15:50:52.726
36, 2364.28, -0.71, 15.52, 15.83, 0.000, 0.000, 0.000, 15:50:52.727
37, 1997.78, 19.67, 4.11, 5.87, 0.000, 0.000, 0.000, 15:50:52.727
38, 1361.73, 10.68, 6.40, 12.04, 0.000, 0.000, 0.000, 15:50:52.727
39, 2089.88, 6.65, 18.78, 17.49, 0.000, 0.000, 0.000, 15:50:52.748
40, 2242.81, 7.58, 13.23, 8.84, 0.000, 0.000, 0.000, 15:50:52.748
41, 1405.69, 16.69, 4.18, 4.64, 0.000, 0.000, 0.000, 15:50:52.749
42, 1821.46, 4.55, 13.43, 17.91, 0.000, 0.000, 0.000, 15:50:52.749
43, 2468.04, 3.98, 16.11, 16.06, 0.000, 0.000, 0.000, 15:50:52.771
44, 1583.55, 14.17, 0.01, 3.01, 0.000, 0.000, 0.000, 15:50:52.771
45, 1504.93, 7.32, 13.32, 14.42, 0.000, 0.000, 0.000, 15:50:52.771
46, 2436.50, 4.46, 18.63, 12.65, 0.000, 0.000, 0.000, 15:50:52.771
47, 1900.73, 12.07, 1.42, 6.30, 0.000, 0.000, 0.000, 15:50:52.793
48, 1230.16, 13.59, 8.44, 6.76, 0.000, 0.000, 0.000, 15:50:52.793
49, 1276.25, 0.10, 21.85, 18.98, 0.000, 0.000, 0.000, 15:50:52.794
50, 1419.33, 10.91, 10.42, 10.24, 0.000, 0.000, 0.000, 15:50:52.794
51, 1366.99, 9.39, 3.05, 3.26, 0.000, 0.000, 0.000, 15:50:52.816
52, 1754.65, 1.95, 16.42, 16.86, 0.000, 0.000, 0.000, 15:50:52.816
53, 2398.26, 3.60, 14.39, 11.59, 0.000, 0.000, 0.000, 15:50:52.816
54, 1629.28, 18.63, 3.95, 8.68, 0.000, 0.000, 0.000, 15:50:52.816
55, 1403.32, 2.71, 13.91, 14.89, 0.000, 0.000, 0.000, 15:50:52.817
56, 2283.25, 5.74, 16.36, 15.28, 0.000, 0.000, 0.000, 15:50:52.817
57, 2086.24, 18.28, 4.50, 5.75, 0.000, 0.000, 0.000, 15:50:52.838
58, 1268.59, 6.93, 14.73, 9.92, 0.000, 0.000, 0.000, 15:50:52.838
59, 2159.02, 0.58, 19.63, 19.43, 0.000, 0.000, 0.000, 15:50:52.839
60, 2343.31, 11.49, 10.93, 11.21, 0.000, 0.000, 0.000, 15:50:52.839
61, 2305.12, 15.78, 0.03, 4.89, 0.000, 0.000, 0.000, 15:50:52.861
62, 2835.64, 1.43, 14.73, 19.01, 0.000, 0.000, 0.000, 15:50:52.861
63, 3467.77, 7.35, 15.43, 16.16, 0.000, 0.000, 0.000, 15:50:52.862
64, 2539.95, 15.07, -0.08, 6.71, 0.000, 0.000, 0.000, 15:50:52.862
65, 2426.98, 6.90, 13.34, 11.44, 0.000, 0.000, 0.000, 15:50:52.883
66, 2437.59, 8.33, 13.19, 16.31, 0.000, 0.000, 0.000, 15:50:52.883
67, 2048.23, 7.95, 7.62, 6.97, 0.000, 0.000, 0.000, 15:50:52.884
68, 1280.57, 8.95, 9.80, 10.01, 0.000, 0.000, 0.000, 15:50:52.884
69, 2124.73, -1.84, 18.25, 17.28, 0.000, 0.000, 0.000, 15:50:52.906
70, 2273.82, 10.23, 9.68, 10.25, 0.000, 0.000, 0.000, 15:50:52.906
71, 1370.88, 15.79, 5.55, 7.20, 0.000, 0.000, 0.000, 15:50:52.906
72, 1761.51, 3.00, 16.52, 17.90, 0.000, 0.000, 0.000, 15:50:52.906
73, 2438.12, 5.67, 14.20, 16.46, 0.000, 0.000, 0.000, 15:50:52.907
74, 1672.49, 13.00, 2.63, 7.00, 0.000, 0.000, 0.000, 15:50:52.907
75, 1404.96, 9.01, 11.05, 11.84, 0.000, 0.000, 0.000, 15:50:52.928
76, 2325.30, 0.81, 16.67, 20.58, 0.000, 0.000, 0.000, 15:50:52.929
77, 2030.63, 13.72, 6.83, 8.52, 0.000, 0.000, 0.000, 15:50:52.929
78, 1319.37, 10.83, 8.35, 8.25, 0.000, 0.000, 0.000, 15:50:52.929
79, 1899.59, 3.82, 14.99, 17.46, 0.000, 0.000, 0.000, 15:50:52.951
80, 2476.94, 4.34, 12.57, 12.12, 0.000, 0.000, 0.000, 15:50:52.951
81, 1564.03, 14.61, 6.91, 8.61, 0.000, 0.000, 0.000, 15:50:52.951
82, 1738.21, 7.44, 12.28, 17.68, 0.000, 0.000, 0.000, 15:50:52.952
83, 2414.63, 0.16, 16.10, 16.70, 0.000, 0.000, 0.000, 15:50:52.973
84, 1696.07, 20.40, 5.23, 9.60, 0.000, 0.000, 0.000, 15:50:52.974
85, 1368.29, 3.14, 11.26, 14.12, 0.000, 0.000, 0.000, 15:50:52.974
86, 1376.39, 1.16, 16.80, 16.58, 0.000, 0.000, 0.000, 15:50:52.974
87, 1120.95, 13.80, 7.84, 9.04, 0.000, 0.000, 0.000, 15:50:52.996
88, 264.81, 11.27, 8.13, 7.74, 0.000, 0.000, 0.000, 15:50:52.996
89, 1055.56, 0.18, 18.28, 15.62, 0.000, 0.000, 0.000, 15:50:52.996
90, 1337.08, 6.13, 11.46, 13.11, 0.000, 0.000, 0.000, 15:50:52.996
91, 437.63, 16.70, 1.87, 3.38, 0.000, 0.000, 0.000, 15:50:52.997
92, 763.59, 8.23, 12.07, 10.88, 0.000, 0.000, 0.000, 15:50:52.997
93, 1447.58, 6.35, 16.49, 14.65, 0.000, 0.000, 0.000, 15:50:53.018
94, 802.21, 11.96, 3.67, 7.55, 0.000, 0.000, 0.000, 15:50:53.018
95, 466.24, 8.90, 8.41, 8.40, 0.000, 0.000, 0.000, 15:50:53.041
96, 1306.42, 3.19, 22.41, 19.37, 0.000, 0.000, 0.000, 15:50:53.041
97, 1110.73, 10.99, 6.36, 6.64, 0.000, 0.000, 0.000, 15:50:53.041
98, 371.38, 11.54, 7.96, 7.86, 0.000, 0.000, 0.000, 15:50:53.041
99, 1048.68, 5.03, 18.31, 16.94, 0.000, 0.000, 0.000, 15:50:53.042
100, 1429.26, 5.24, 15.74, 13.04, 0.000, 0.000, 0.000, 15:50:53.042
101, 466.75, 15.10, 5.46, 5.95, 0.000, 0.000, 0.000, 15:50:53.063
102, 691.54, 8.91, 15.91, 14.44, 0.000, 0.000, 0.000, 15:50:53.063
103, 1376.26, -1.12, 16.15, 16.08, 0.000, 0.000, 0.000, 15:50:53.064
104, 667.67, 14.56, 2.87, 9.49, 0.000, 0.000, 0.000, 15:50:53.064
105, 497.55, 7.29, 8.44, 10.38, 0.000, 0.000, 0.000, 15:50:53.086
106, 1332.11, 3.94, 16.72, 17.82, 0.000, 0.000, 0.000, 15:50:53.086
107, 1087.98, 10.89, 6.38, 12.80, 0.000, 0.000, 0.000, 15:50:53.086
108, 376.76, 12.75, 4.89, 7.40, 0.000, 0.000, 0.000, 15:50:53.086
109, 1098.19, 3.33, 15.99, 14.51, 0.000, 0.000, 0.000, 15:50:53.087
110, 1375.75, 7.43, 16.29, 13.63, 0.000, 0.000, 0.000, 15:50:53.087
111, 482.15, 17.00, 4.65, 8.46, 0.000, 0.000, 0.000, 15:50:53.108
112, 752.64, 4.36, 14.26, 14.19, 0.000, 0.000, 0.000, 15:50:53.109
113, 1552.23, -1.24, 18.64, 13.47, 0.000, 0.000, 0.000, 15:50:53.109
114, 761.24, 13.14, -0.33, 4.42, 0.000, 0.000, 0.000, 15:50:53.109
115, 321.36, 6.99, 14.11, 16.12, 0.000, 0.000, 0.000, 15:50:53.131
116, 343.27, 1.87, 18.45, 15.59, 0.000, 0.000, 0.000, 15:50:53.131
117, 30.94, 16.38, 6.59, 11.26, 0.000, 0.000, 0.000, 15:50:53.131
118, -643.30, 8.18, 8.23, 9.13, 0.000, 0.000, 0.000, 15:50:53.131
119, 223.29, 3.08, 18.93, 18.59, 0.000, 0.000, 0.000, 15:50:53.153
120, 270.30, 14.29, 9.74, 7.36, 0.000, 0.000, 0.000, 15:50:53.154
121, 235.73, 8.33, 4.31, 5.22, 0.000, 0.000, 0.000, 15:50:53.154
122, 890.67, 2.42, 17.61, 14.42, 0.000, 0.000, 0.000, 15:50:53.154
123, 1559.24, 5.16, 13.11, 14.71, 0.000, 0.000, 0.000, 15:50:53.176
124, 1548.23, 15.10, 1.13, 4.16, 0.000, 0.000, 0.000, 15:50:53.177
125, 1445.17, 7.29, 11.97, 12.63, 0.000, 0.000, 0.000, 15:50:53.177
126, 1469.89, 2.21, 16.30, 16.77, 0.000, 0.000, 0.000, 15:50:53.177
127, 968.64, 10.02, 4.85, 5.90, 0.000, 0.000, 0.000, 15:50:53.177
128, 388.53, 11.16, 9.08, 14.02, 0.000, 0.000, 0.000, 15:50:53.177
129, 1242.45, 7.27, 20.77, 18.20, 0.000, 0.000, 0.000, 15:50:53.198
130, 1357.28, 6.30, 6.38, 12.87, 0.000, 0.000, 0.000, 15:50:53.198
131, 1328.96, 15.50, 0.62, 5.15, 0.000, 0.000, 0.000, 15:50:53.199
132, 1722.74, 2.79, 16.27, 16.99, 0.000, 0.000, 0.000, 15:50:53.199
133, 2429.62, 5.87, 10.59, 16.21, 0.000, 0.000, 0.000, 15:50:53.221
134, 1683.27, 14.06, 3.01, 7.30, 0.000, 0.000, 0.000, 15:50:53.221
135, 1490.42, 5.94, 11.13, 11.42, 0.000, 0.000, 0.000, 15:50:53.221
136, 2345.03, 2.33, 18.38, 15.65, 0.000, 0.000, 0.000, 15:50:53.222
137, 1870.96, 14.69, 7.08, 5.64, 0.000, 0.000, 0.000, 15:50:53.243
138, 1275.77, 17.05, 7.46, 5.17, 0.000, 0.000, 0.000, 15:50:53.244
139, 2243.27, -5.40, 21.19, 15.75, 0.000, 0.000, 0.000, 15:50:53.244
140, 2373.64, 6.68, 11.40, 10.26, 0.000, 0.000, 0.000, 15:50:53.245
141, 2363.18, 13.08, 5.58, 7.58, 0.000, 0.000, 0.000, 15:50:53.266
142, 2743.13, 3.09, 16.63, 17.53, 0.000, 0.000, 0.000, 15:50:53.266
143, 3369.45, 4.46, 16.06, 15.60, 0.000, 0.000, 0.000, 15:50:53.266
144, 2600.03, 19.63, 1.29, 8.62, 0.000, 0.000, 0.000, 15:50:53.267
145, 2592.00, 5.62, 13.43, 9.82, 0.000, 0.000, 0.000, 15:50:53.267
146, 3432.67, 6.46, 16.08, 17.72, 0.000, 0.000, 0.000, 15:50:53.267
147, 2916.59, 17.73, 4.95, 7.93, 0.000, 0.000, 0.000, 15:50:53.288
148, 2184.46, 7.51, 9.73, 14.08, 0.000, 0.000, 0.000, 15:50:53.289
149, 3126.98, 3.54, 19.49, 16.04, 0.000, 0.000, 0.000, 15:50:53.289
150, 3302.76, 7.80, 11.03, 12.55, 0.000, 0.000, 0.000, 15:50:53.289
151, 2366.02, 13.01, 4.97, 7.16, 0.000, 0.000, 0.000, 15:50:53.311
152, 2708.46, 2.40, 10.01, 16.87, 0.000, 0.000, 0.000, 15:50:53.311
153, 3403.62, 7.32, 12.67, 14.42, 0.000, 0.000, 0.000, 15:50:53.312
154, 2582.63, 16.76, 1.20, 1.52, 0.000, 0.000, 0.000, 15:50:53.312
155, 2511.27, 9.63, 11.44, 13.43, 0.000, 0.000, 0.000, 15:50:53.334
156, 3386.71, 10.09, 17.08, 16.44, 0.000, 0.000, 0.000, 15:50:53.334
157, 2946.14, 9.26, 3.38, 8.28, 0.000, 0.000, 0.000, 15:50:53.334
158, 2254.57, 7.80, 11.18, 9.58, 0.000, 0.000, 0.000, 15:50:53.334
159, 3135.36, 2.21, 19.27, 21.23, 0.000, 0.000, 0.000, 15:50:53.356
160, 3243.87, 4.22, 11.76, 11.71, 0.000, 0.000, 0.000, 15:50:53.356
161, 2325.12, 11.27, 4.55, 7.12, 0.000, 0.000, 0.000, 15:50:53.356
162, 2821.54, 5.81, 16.16, 18.14, 0.000, 0.000, 0.000, 15:50:53.357
163, 3428.67, 8.03, 12.95, 15.45, 0.000, 0.000, 0.000, 15:50:53.357
164, 2617.34, 14.97, 4.92, 4.68, 0.000, 0.000, 0.000, 15:50:53.357
165, 2465.12, 8.14, 13.10, 10.13, 0.000, 0.000, 0.000, 15:50:53.378
166, 3371.35, 0.44, 17.47, 16.24, 0.000, 0.000, 0.000, 15:50:53.378
167, 3016.13, 10.93, 1.08, 5.39, 0.000, 0.000, 0.000, 15:50:53.379
168, 2279.13, 10.82, 8.18, 7.13, 0.000, 0.000, 0.000, 15:50:53.379
169, 3015.65, 5.81, 17.23, 17.03, 0.000, 0.000, 0.000, 15:50:53.401
170, 3364.68, 5.54, 10.65, 14.83, 0.000, 0.000, 0.000, 15:50:53.401
171, 2441.09, 16.15, 1.06, 6.43, 0.000, 0.000, 0.000, 15:50:53.401
172, 2669.68, 4.30, 13.36, 10.14, 0.000, 0.000, 0.000, 15:50:53.401
173, 3426.53, 4.93, 17.04, 14.45, 0.000, 0.000, 0.000, 15:50:53.423
174, 2736.02, 14.84, 3.94, 6.51, 0.000, 0.000, 0.000, 15:50:53.424
175, 2389.44, 5.74, 13.62, 13.53, 0.000, 0.000, 0.000, 15:50:53.424
176, 3276.38, 3.35, 20.99, 19.25, 0.000, 0.000, 0.000, 15:50:53.424
177, 3081.56, 13.07, 6.98, 8.82, 0.000, 0.000, 0.000, 15:50:53.446
178, 2308.08, 15.27, 10.18, 4.82, 0.000, 0.000, 0.000, 15:50:53.446
179, 3014.88, 5.54, 15.85, 19.74, 0.000, 0.000, 0.000, 15:50:53.446
180, 3347.39, 6.86, 14.40, 16.64, 0.000, 0.000, 0.000, 15:50:53.446
181, 2441.29, 15.17, 1.82, 9.48, 0.000, 0.000, 0.000, 15:50:53.447
182, 2687.98, 0.09, 16.53, 14.82, 0.000, 0.000, 0.000, 15:50:53.447
183, 3415.96, 5.72, 14.76, 11.04, 0.000, 0.000, 0.000, 15:50:53.468
184, 2744.76, 13.93, 4.86, 5.70, 0.000, 0.000, 0.000, 15:50:53.468
185, 2406.49, 5.76, 6.84, 11.32, 0.000, 0.000, 0.000, 15:50:53.469
186, 3294.29, 2.62, 17.42, 22.42, 0.000, 0.000, 0.000, 15:50:53.469
187, 3099.03, 13.95, 7.68, 10.46, 0.000, 0.000, 0.000, 15:50:53.491
188, 2279.11, 11.54, 6.00, 8.34, 0.000, 0.000, 0.000, 15:50:53.491
189, 3016.83, 5.84, 19.35, 18.33, 0.000, 0.000, 0.000, 15:50:53.491
190, 3362.18, 2.58, 9.60, 14.13, 0.000, 0.000, 0.000, 15:50:53.491
191, 2434.55, 17.34, 3.79, 4.30, 0.000, 0.000, 0.000, 15:50:53.513
192, 2656.17, 10.70, 13.80, 11.14, 0.000, 0.000, 0.000, 15:50:53.513
193, 3409.60, -1.13, 16.78, 16.11, 0.000, 0.000, 0.000, 15:50:53.514
194, 2754.37, 19.38, 9.34, 6.52, 0.000, 0.000, 0.000, 15:50:53.514
195, 2379.32, 13.94, 9.79, 9.01, 0.000, 0.000, 0.000, 15:50:53.536
196, 3275.30, 6.57, 19.39, 20.59, 0.000, 0.000, 0.000, 15:50:53.536
197, 3113.47, 8.70, 10.03, 9.95, 0.000, 0.000, 0.000, 15:50:53.536
198, 2303.16, 12.74, 5.39, 9.74, 0.000, 0.000, 0.000, 15:50:53.537
199, 3001.97, 3.20, 12.17, 17.88, 0.000, 0.000, 0.000, 15:50:53.538
200, 3350.03, 7.52, 10.37, 14.48, 0.000, 0.000, 0.000, 15:50:53.538
0, -513.10, 16.33, 5.59, 5.66, 0.000, 0.000, 0.000, 15:50:53.558
1, -284.54, 5.20, 12.84, 11.37, 0.000, 0.000, 0.000, 15:50:53.559
2, 458.55, 5.11, 14.74, 15.78, 0.000, 0.000, 0.000, 15:50:53.559
3, -234.73, 11.92, 3.71, 2.81, 0.000, 0.000, 0.000, 15:50:53.581
4, -532.20, 5.98, 9.32, 8.79, 0.000, 0.000, 0.000, 15:50:53.581
5, 340.03, -0.36, 16.26, 15.70, 0.000, 0.000, 0.000, 15:50:53.581
6, 134.82, 15.87, 9.92, 8.24, 0.000, 0.000, 0.000, 15:50:53.581
7, -646.41, 12.31, 8.54, 9.08, 0.000, 0.000, 0.000, 15:50:53.582
8, 128.87, 0.59, 18.83, 16.90, 0.000, 0.000, 0.000, 15:50:53.582
9, 289.82, 14.36, 12.21, 10.75, 0.000, 0.000, 0.000, 15:50:53.603
10, -614.37, 9.40, 7.39, 5.09, 0.000, 0.000, 0.000, 15:50:53.603
11, -169.73, 1.05, 14.58, 17.85, 0.000, 0.000, 0.000, 15:50:53.604
12, 436.66, 5.11, 8.97, 14.32, 0.000, 0.000, 0.000, 15:50:53.604
13, -348.69, 17.72, 3.50, 6.60, 0.000, 0.000, 0.000, 15:50:53.626
14, -459.24, 5.82, 13.88, 14.30, 0.000, 0.000, 0.000, 15:50:53.626
15, 423.06, 4.76, 17.51, 18.80, 0.000, 0.000, 0.000, 15:50:53.626
16, 22.51, 14.58, 9.75, 5.49, 0.000, 0.000, 0.000, 15:50:53.626
17, -665.32, 11.42, 9.22, 8.66, 0.000, 0.000, 0.000, 15:50:53.648
18, 184.71, 5.31, 16.15, 18.15, 0.000, 0.000, 0.000, 15:50:53.648
19, 316.97, 1.43, 15.51, 14.63, 0.000, 0.000, 0.000, 15:50:53.649
20, -615.91, 16.65, 2.29, 3.31, 0.000, 0.000, 0.000, 15:50:53.649
21, -147.59, 3.52, 12.93, 15.66, 0.000, 0.000, 0.000, 15:50:53.671
22, 471.88, 1.74, 12.18, 13.13, 0.000, 0.000, 0.000, 15:50:53.671
23, -348.94, 16.35, 2.17, 2.90, 0.000, 0.000, 0.000, 15:50:53.671
24, -476.58, 8.38, 12.38, 12.20, 0.000, 0.000, 0.000, 15:50:53.671
25, 411.48, 1.90, 16.38, 18.31, 0.000, 0.000, 0.000, 15:50:53.672
26, 23.11, 7.86, 5.64, 8.32, 0.000, 0.000, 0.000, 15:50:53.672
27, -669.81, 11.95, 8.81, 9.60, 0.000, 0.000, 0.000, 15:50:53.693
28, 187.00, -2.28, 17.61, 19.25, 0.000, 0.000, 0.000, 15:50:53.693
29, 345.29, 8.81, 11.78, 12.59, 0.000, 0.000, 0.000, 15:50:53.694
30, -620.46, 15.12, 7.78, 10.93, 0.000, 0.000, 0.000, 15:50:53.694
31, -149.21, 2.22, 18.49, 17.47, 0.000, 0.000, 0.000, 15:50:53.716
32, 488.76, 4.45, 10.28, 15.66, 0.000, 0.000, 0.000, 15:50:53.716
33, -347.07, 15.46, 0.19, 4.74, 0.000, 0.000, 0.000, 15:50:53.716
34, -490.53, 6.82, 12.95, 13.92, 0.000, 0.000, 0.000, 15:50:53.716
35, 431.08, 5.10, 16.29, 16.15, 0.000, 0.000, 0.000, 15:50:53.738
36, 22.88, 18.95, 3.98, 5.13, 0.000, 0.000, 0.000, 15:50:53.739
37, -663.39, 3.96, 11.01, 14.05, 0.000, 0.000, 0.000, 15:50:53.739
38, 200.37, 0.60, 14.91, 18.05, 0.000, 0.000, 0.000, 15:50:53.739
39, 321.47, 6.12, 8.88, 12.73, 0.000, 0.000, 0.000, 15:50:53.761
40, -617.70, 16.15, 5.48, 4.90, 0.000, 0.000, 0.000, 15:50:53.762
41, -157.13, 1.24, 16.54, 15.50, 0.000, 0.000, 0.000, 15:50:53.762
42, 462.71, 5.71, 15.81, 14.05, 0.000, 0.000, 0.000, 15:50:53.762
43, -353.47, 15.23, 3.69, 6.84, 0.000, 0.000, 0.000, 15:50:53.762
44, -459.25, 9.72, 13.87, 12.79, 0.000, 0.000, 0.000, 15:50:53.763
45, 431.11, 5.02, 15.55, 16.31, 0.000, 0.000, 0.000, 15:50:53.783
46, 14.68, 11.79, 8.35, 6.87, 0.000, 0.000, 0.000, 15:50:53.783
47, -669.12, 11.50, 8.86, 12.28, 0.000, 0.000, 0.000, 15:50:53.784
48, 200.10, -1.15, 18.36, 15.54, 0.000, 0.000, 0.000, 15:50:53.784
49, 316.63, 11.19, 9.12, 11.73, 0.000, 0.000, 0.000, 15:50:53.806
50, -613.07, 13.72, 2.95, 5.44, 0.000, 0.000, 0.000, 15:50:53.806
51, -144.75, 3.85, 18.29, 21.96, 0.000, 0.000, 0.000, 15:50:53.806
52, 462.75, 4.54, 15.60, 15.89, 0.000, 0.000, 0.000, 15:50:53.806
53, -382.51, 14.71, 5.44, 4.41, 0.000, 0.000, 0.000, 15:50:53.828
54, -430.46, 7.34, 11.55, 13.56, 0.000, 0.000, 0.000, 15:50:53.828
55, 445.21, -1.40, 14.54, 13.95, 0.000, 0.000, 0.000, 15:50:53.829
56, 27.67, 8.62, 7.60, 5.08, 0.000, 0.000, 0.000, 15:50:53.829
57, -658.25, 8.32, 8.16, 13.40, 0.000, 0.000, 0.000, 15:50:53.851
58, 192.46, 3.34, 20.30, 18.25, 0.000, 0.000, 0.000, 15:50:53.851
59, 328.21, 9.57, 8.33, 7.22, 0.000, 0.000, 0.000, 15:50:53.851
60, -605.73, 14.59, 2.26, 3.74, 0.000, 0.000, 0.000, 15:50:53.851
61, -152.91, 1.85, 16.78, 12.71, 0.000, 0.000, 0.000, 15:50:53.852
62, 479.16, 8.66, 13.97, 13.82, 0.000, 0.000, 0.000, 15:50:53.852
63, -342.05, 20.47, 1.07, 7.45, 0.000, 0.000, 0.000, 15:50:53.873
64, -489.60, 6.74, 13.22, 15.64, 0.000, 0.000, 0.000, 15:50:53.873
65, 393.78, 4.16, 21.61, 16.81, 0.000, 0.000, 0.000, 15:50:53.874
66, 140.82, 11.29, 8.99, 11.10, 0.000, 0.000, 0.000, 15:50:53.874
67, -668.54, 11.36, 8.07, 11.79, 0.000, 0.000, 0.000, 15:50:53.896
68, 35.02, 0.72, 14.07, 15.22, 0.000, 0.000, 0.000, 15:50:53.896
69, 387.26, 7.27, 9.02, 13.74, 0.000, 0.000, 0.000, 15:50:53.896
70, -525.45, 15.20, 8.15, 8.11, 0.000, 0.000, 0.000, 15:50:53.896
71, -304.62, 7.96, 14.25, 10.81, 0.000, 0.000, 0.000, 15:50:53.918
72, 443.62, 6.45, 15.03, 15.49, 0.000, 0.000, 0.000, 15:50:53.918
73, -226.30, 11.17, 6.50, 8.95, 0.000, 0.000, 0.000, 15:50:53.919
74, -523.81, 7.67, 9.37, 9.67, 0.000, 0.000, 0.000, 15:50:53.919
75, 354.45, 1.94, 19.72, 15.23, 0.000, 0.000, 0.000, 15:50:53.941
76, 164.23, 14.21, 8.42, 11.53, 0.000, 0.000, 0.000, 15:50:53.942
77, -650.07, 9.81, 7.38, 8.63, 0.000, 0.000, 0.000, 15:50:53.942
78, 52.84, 4.93, 15.30, 12.12, 0.000, 0.000, 0.000, 15:50:53.942
79, 392.35, 10.45, 14.31, 11.59, 0.000, 0.000, 0.000, 15:50:53.942
80, -512.77, 15.71, -2.00, 4.80, 0.000, 0.000, 0.000, 15:50:53.943
81, -295.62, 5.85, 15.30, 18.52, 0.000, 0.000, 0.000, 15:50:53.963
82, 495.84, 1.98, 22.41, 15.54, 0.000, 0.000, 0.000, 15:50:53.964
83, -190.44, 15.01, 5.88, 3.81, 0.000, 0.000, 0.000, 15:50:53.964
84, -558.69, 7.12, 10.49, 12.09, 0.000, 0.000, 0.000, 15:50:53.965
85, 341.47, 3.39, 16.37, 19.47, 0.000, 0.000, 0.000, 15:50:53.986
86, 160.58, 11.32, 5.30, 8.95, 0.000, 0.000, 0.000, 15:50:53.986
87, -654.98, 13.91, 3.06, 9.55, 0.000, 0.000, 0.000, 15:50:53.986
88, 54.23, 2.68, 16.59, 18.43, 0.000, 0.000, 0.000, 15:50:53.987
89, 413.43, 5.33, 12.49, 15.14, 0.000, 0.000, 0.000, 15:50:54.008
90, -512.07, 20.22, 5.10, 9.44, 0.000, 0.000, 0.000, 15:50:54.009
91, -289.53, 1.55, 14.40, 14.56, 0.000, 0.000, 0.000, 15:50:54.009
92, 468.55, 2.45, 16.24, 17.11, 0.000, 0.000, 0.000, 15:50:54.009
93, -193.36, 14.20, 1.54, 7.25, 0.000, 0.000, 0.000, 15:50:54.031
94, -560.98, 7.25, 7.25, 10.03, 0.000, 0.000, 0.000, 15:50:54.031
95, 348.26, -1.80, 19.51, 17.43, 0.000, 0.000, 0.000, 15:50:54.031
96, 176.39, 10.15, 5.88, 9.25, 0.000, 0.000, 0.000, 15:50:54.031
97, -633.69, 11.33, 8.64, 11.94, 0.000, 0.000, 0.000, 15:50:54.032
98, 65.34, 2.96, 13.68, 16.77, 0.000, 0.000, 0.000, 15:50:54.032
99, 407.14, 10.55, 14.96, 12.83, 0.000, 0.000, 0.000, 15:50:54.053
100, -517.11, 11.64, 8.15, 4.59, 0.000, 0.000, 0.000, 15:50:54.053
101, -310.40, 5.22, 11.37, 12.99, 0.000, 0.000, 0.000, 15:50:54.054
102, 481.97, 2.82, 15.09, 11.51, 0.000, 0.000, 0.000, 15:50:54.054
103, -191.80, 17.28, 5.49, 7.83, 0.000, 0.000, 0.000, 15:50:54.076
104, -561.39, 8.11, 9.77, 12.49, 0.000, 0.000, 0.000, 15:50:54.076
105, 329.06, 7.11, 22.15, 18.82, 0.000, 0.000, 0.000, 15:50:54.076
106, 165.36, 14.48, 6.78, 5.75, 0.000, 0.000, 0.000, 15:50:54.076
107, -648.68, 11.96, 12.47, 10.73, 0.000, 0.000, 0.000, 15:50:54.098
108, 119.43, 8.26, 18.46, 14.39, 0.000, 0.000, 0.000, 15:50:54.098
109, 315.95, 1.18, 8.29, 13.94, 0.000, 0.000, 0.000, 15:50:54.099
110, -613.19, 14.09, 2.27, 5.42, 0.000, 0.000, 0.000, 15:50:54.099
111, -155.53, 5.30, 16.25, 16.89, 0.000, 0.000, 0.000, 15:50:54.121
112, 488.43, 6.82, 15.00, 12.52, 0.000, 0.000, 0.000, 15:50:54.121
113, -343.54, 12.17, 4.30, 4.44, 0.000, 0.000, 0.000, 15:50:54.122
114, -484.07, 5.88, 14.60, 14.11, 0.000, 0.000, 0.000, 15:50:54.122
115, 424.29, 6.95, 15.11, 16.37, 0.000, 0.000, 0.000, 15:50:54.122
116, 22.46, 13.64, 4.77, 7.84, 0.000, 0.000, 0.000, 15:50:54.122
117, -656.67, 11.04, 8.68, 11.04, 0.000, 0.000, 0.000, 15:50:54.143
118, 190.49, -1.04, 17.03, 16.60, 0.000, 0.000, 0.000, 15:50:54.143
119, 330.01, 10.53, 7.30, 12.22, 0.000, 0.000, 0.000, 15:50:54.144
120, -602.29, 14.31, 8.74, 5.92, 0.000, 0.000, 0.000, 15:50:54.144
121, -150.76, 3.71, 17.20, 14.71, 0.000, 0.000, 0.000, 15:50:54.166
122, 497.45, 1.33, 15.79, 18.65, 0.000, 0.000, 0.000, 15:50:54.166
123, -255.39, 15.41, -0.77, 7.99, 0.000, 0.000, 0.000, 15:50:54.166
124, -550.80, 9.15, 4.94, 9.33, 0.000, 0.000, 0.000, 15:50:54.166
125, 336.38, 3.70, 16.55, 16.06, 0.000, 0.000, 0.000, 15:50:54.188
126, 166.75, 17.58, 8.01, 8.81, 0.000, 0.000, 0.000, 15:50:54.189
127, -633.78, 8.80, 9.59, 5.86, 0.000, 0.000, 0.000, 15:50:54.189
128, 85.99, 6.25, 13.05, 14.48, 0.000, 0.000, 0.000, 15:50:54.189
129, 442.00, 5.39, 11.58, 9.99, 0.000, 0.000, 0.000, 15:50:54.211
130, -503.57, 15.49, 6.83, 9.17, 0.000, 0.000, 0.000, 15:50:54.211
131, -285.36, 4.97, 14.95, 12.67, 0.000, 0.000, 0.000, 15:50:54.211
132, 459.72, 1.70, 16.44, 19.10, 0.000, 0.000, 0.000, 15:50:54.211
133, -217.82, 11.43, 2.11, 1.88, 0.000, 0.000, 0.000, 15:50:54.212
134, -577.96, 7.98, 8.82, 12.35, 0.000, 0.000, 0.000, 15:50:54.212
135, 309.44, 3.55, 20.67, 19.47, 0.000, 0.000, 0.000, 15:50:54.233
136, 132.89, 13.81, 9.28, 7.44, 0.000, 0.000, 0.000, 15:50:54.234
137, -673.27, 12.23, 10.92, 11.93, 0.000, 0.000, 0.000, 15:50:54.234
138, 42.09, 0.60, 13.04, 16.18, 0.000, 0.000, 0.000, 15:50:54.234
139, 390.14, 9.01, 12.18, 13.12, 0.000, 0.000, 0.000, 15:50:54.256
140, -518.20, 15.47, 3.88, 9.79, 0.000, 0.000, 0.000, 15:50:54.256
141, -289.88, 7.94, 14.28, 12.28, 0.000, 0.000, 0.000, 15:50:54.256
142, 456.75, 3.52, 16.15, 17.35, 0.000, 0.000, 0.000, 15:50:54.256
143, -205.58, 12.54, 0.92, 3.80, 0.000, 0.000, 0.000, 15:50:54.278
144, -524.70, 15.08, 13.30, 12.62, 0.000, 0.000, 0.000, 15:50:54.278
145, 353.98, -2.47, 15.79, 18.82, 0.000, 0.000, 0.000, 15:50:54.279
146, 158.68, 8.55, 5.28, 7.63, 0.000, 0.000, 0.000, 15:50:54.279
147, -634.93, 10.19, 10.37, 6.24, 0.000, 0.000, 0.000, 15:50:54.301
148, 68.52, 3.55, 19.54, 16.00, 0.000, 0.000, 0.000, 15:50:54.301
149, 407.21, 5.33, 13.91, 19.39, 0.000, 0.000, 0.000, 15:50:54.301
150, -503.15, 17.10, 3.14, 5.72, 0.000, 0.000, 0.000, 15:50:54.301
151, -292.36, 4.70, 10.89, 13.47, 0.000, 0.000, 0.000, 15:50:54.302
152, 473.96, 7.09, 16.96, 17.98, 0.000, 0.000, 0.000, 15:50:54.302
153, -189.15, 15.32, 1.00, 7.93, 0.000, 0.000, 0.000, 15:50:54.323
154, -558.94, 5.12, 11.01, 10.48, 0.000, 0.000, 0.000, 15:50:54.324
155, 318.23, 3.72, 19.97, 13.36, 0.000, 0.000, 0.000, 15:50:54.324
156, 163.75, 10.92, 9.98, 9.66, 0.000, 0.000, 0.000, 15:50:54.324
157, -631.53, 11.30, 8.49, 9.28, 0.000, 0.000, 0.000, 15:50:54.346
158, 64.30, -1.03, 15.64, 18.32, 0.000, 0.000, 0.000, 15:50:54.346
159, 422.31, 6.34, 13.16, 13.63, 0.000, 0.000, 0.000, 15:50:54.346
160, -504.43, 13.51, 5.85, 3.97, 0.000, 0.000, 0.000, 15:50:54.347
161, -300.88, 4.76, 20.06, 15.20, 0.000, 0.000, 0.000, 15:50:54.368
162, 476.60, 7.94, 15.79, 15.21, 0.000, 0.000, 0.000, 15:50:54.368
163, -190.04, 9.56, 5.42, 6.90, 0.000, 0.000, 0.000, 15:50:54.369
164, -563.84, 6.52, 11.98, 12.73, 0.000, 0.000, 0.000, 15:50:54.369
165, 337.16, 0.10, 14.71, 16.66, 0.000, 0.000, 0.000, 15:50:54.391
166, 175.43, 13.73, 5.87, 6.24, 0.000, 0.000, 0.000, 15:50:54.391
167, -644.61, 12.58, 6.32, 8.36, 0.000, 0.000, 0.000, 15:50:54.392
168, 38.96, 6.43, 14.95, 12.75, 0.000, 0.000, 0.000, 15:50:54.392
169, 418.36, 10.10, 13.85, 18.45, 0.000, 0.000, 0.000, 15:50:54.392
170, -476.68, 14.34, 4.65, 3.75, 0.000, 0.000, 0.000, 15:50:54.392
171, -283.50, 9.42, 13.10, 14.18, 0.000, 0.000, 0.000, 15:50:54.413
172, 477.44, -0.92, 18.33, 18.32, 0.000, 0.000, 0.000, 15:50:54.413
173, -193.03, 14.29, 1.55, 9.25, 0.000, 0.000, 0.000, 15:50:54.414
174, -574.10, 8.57, 5.64, 8.72, 0.000, 0.000, 0.000, 15:50:54.414
175, 327.59, 5.44, 16.97, 16.65, 0.000, 0.000, 0.000, 15:50:54.436
176, 197.89, 9.65, 5.02, 9.57, 0.000, 0.000, 0.000, 15:50:54.436
177, -627.35, 14.46, 8.44, 6.35, 0.000, 0.000, 0.000, 15:50:54.436
178, 55.28, 6.05, 18.87, 15.76, 0.000, 0.000, 0.000, 15:50:54.436
179, 424.85, 7.90, 10.94, 11.83, 0.000, 0.000, 0.000, 15:50:54.458
180, -497.47, 19.07, 4.67, 8.64, 0.000, 0.000, 0.000, 15:50:54.458
181, -303.76, -0.17, 10.79, 15.37, 0.000, 0.000, 0.000, 15:50:54.459
182, 479.67, 0.63, 13.71, 18.15, 0.000, 0.000, 0.000, 15:50:54.459
183, -173.92, 14.81, 4.09, 5.04, 0.000, 0.000, 0.000, 15:50:54.481
184, -554.20, 11.10, 10.16, 10.68, 0.000, 0.000, 0.000, 15:50:54.481
185, 327.83, 2.91, 19.28, 18.97, 0.000, 0.000, 0.000, 15:50:54.481
186, 173.74, 9.83, 9.10, 10.49, 0.000, 0.000, 0.000, 15:50:54.481
187, -646.39, 9.71, 6.31, 6.94, 0.000, 0.000, 0.000, 15:50:54.482
188, 42.68, 3.94, 20.30, 13.36, 0.000, 0.000, 0.000, 15:50:54.482
189, 381.69, 10.26, 13.60, 15.84, 0.000, 0.000, 0.000, 15:50:54.503
190, -515.93, 16.17, 2.45, 3.69, 0.000, 0.000, 0.000, 15:50:54.504
191, -291.98, 3.92, 13.10, 11.39, 0.000, 0.000, 0.000, 15:50:54.504
192, 464.18, 1.77, 20.57, 18.01, 0.000, 0.000, 0.000, 15:50:54.504
193, -205.33, 16.08, 3.12, 6.40, 0.000, 0.000, 0.000, 15:50:54.526
194, -564.52, 8.63, 11.94, 11.88, 0.000, 0.000, 0.000, 15:50:54.526
195, 310.62, 2.20, 18.34, 15.20, 0.000, 0.000, 0.000, 15:50:54.526
196, 140.75, 6.47, 9.08, 4.82, 0.000, 0.000, 0.000, 15:50:54.526
197, -643.98, 11.33, 7.30, 8.54, 0.000, 0.000, 0.000, 15:50:54.549
198, 46.58, 11.52, 15.06, 20.25, 0.000, 0.000, 0.000, 15:50:54.549
199, 395.20, 2.66, 10.25, 17.80, 0.000, 0.000, 0.000, 15:50:54.552
200, -517.58, 19.10, 0.22, 4.90, 0.000, 0.000, 0.000, 15:50:54.552
0, -310.94, 6.77, 12.21, 15.05, 0.000, 0.000, 0.000, 15:50:54.552
1, 475.58, 1.97, 17.91, 17.85, 0.000, 0.000, 0.000, 15:50:54.571
2, -195.55, 13.26, 7.12, 6.42, 0.000, 0.000, 0.000, 15:50:54.571
3, -566.11, 7.88, 9.72, 10.21, 0.000, 0.000, 0.000, 15:50:54.572
4, 315.13, 3.48, 14.16, 17.92, 0.000, 0.000, 0.000, 15:50:54.572
5, 167.75, 9.73, 9.49, 8.14, 0.000, 0.000, 0.000, 15:50:54.594
6, -648.00, 14.72, 7.72, 8.25, 0.000, 0.000, 0.000, 15:50:54.594
7, 54.08, -0.82, 15.07, 16.84, 0.000, 0.000, 0.000, 15:50:54.595
8, 411.67, 4.12, 9.23, 16.74, 0.000, 0.000, 0.000, 15:50:54.595
9, -511.11, 17.84, 4.97, 3.97, 0.000, 0.000, 0.000, 15:50:54.629
10, -311.23, 8.61, 11.22, 12.26, 0.000, 0.000, 0.000, 15:50:54.629
11, 469.12, -1.81, 16.32, 13.01, 0.000, 0.000, 0.000, 15:50:54.629
12, -200.13, 11.64, 5.77, 6.77, 0.000, 0.000, 0.000, 15:50:54.629
13, -565.35, 6.42, 12.04, 13.10, 0.000, 0.000, 0.000, 15:50:54.629
14, 329.18, 3.92, 17.57, 20.78, 0.000, 0.000, 0.000, 15:50:54.629
15, 162.75, 17.21, 9.48, 12.46, 0.000, 0.000, 0.000, 15:50:54.639
16, -655.91, 8.54, 7.53, 8.04, 0.000, 0.000, 0.000, 15:50:54.640
17, 47.71, 3.86, 15.83, 13.15, 0.000, 0.000, 0.000, 15:50:54.640
18, 404.97, 7.43, 14.36, 13.51, 0.000, 0.000, 0.000, 15:50:54.640
19, -503.31, 13.50, 3.85, 5.19, 0.000, 0.000, 0.000, 15:50:54.663
20, -309.18, 4.37, 12.37, 12.27, 0.000, 0.000, 0.000, 15:50:54.663
21, 453.43, 5.31, 16.88, 17.04, 0.000, 0.000, 0.000, 15:50:54.663
22, -196.03, 17.42, 9.84, 6.39, 0.000, 0.000, 0.000, 15:50:54.663
23, -551.61, 6.54, 13.73, 12.87, 0.000, 0.000, 0.000, 15:50:54.684
24, 324.57, 6.33, 15.71, 13.32, 0.000, 0.000, 0.000, 15:50:54.684
25, 196.17, 5.69, 4.97, 8.74, 0.000, 0.000, 0.000, 15:50:54.684
26, -651.06, 12.81, 6.25, 7.26, 0.000, 0.000, 0.000, 15:50:54.684
27, 42.87, 3.45, 16.34, 15.86, 0.000, 0.000, 0.000, 15:50:54.706
28, 405.11, 4.93, 15.25, 16.79, 0.000, 0.000, 0.000, 15:50:54.706
29, -503.94, 15.02, 2.95, 5.54, 0.000, 0.000, 0.000, 15:50:54.707
30, -288.62, 2.71, 13.27, 14.81, 0.000, 0.000, 0.000, 15:50:54.707
31, 471.57, 4.49, 19.02, 17.44, 0.000, 0.000, 0.000, 15:50:54.707
32, -190.79, 15.94, 2.60, 8.25, 0.000, 0.000, 0.000, 15:50:54.707
33, -555.46, 9.06, 7.73, 13.65, 0.000, 0.000, 0.000, 15:50:54.728
34, 329.77, 4.43, 16.94, 18.47, 0.000, 0.000, 0.000, 15:50:54.729
35, 168.04, 8.34, 5.97, 9.71, 0.000, 0.000, 0.000, 15:50:54.729
36, -649.01, 13.48, 7.39, 9.66, 0.000, 0.000, 0.000, 15:50:54.729
37, 45.28, 2.63, 15.12, 13.65, 0.000, 0.000, 0.000, 15:50:54.751
38, 407.73, 3.87, 15.06, 15.65, 0.000, 0.000, 0.000, 15:50:54.751
39, -498.87, 14.57, 6.62, 7.51, 0.000, 0.000, 0.000, 15:50:54.751
40, -295.09, 7.23, 16.85, 14.83, 0.000, 0.000, 0.000, 15:50:54.752
41, 467.75, 6.08, 13.68, 17.53, 0.000, 0.000, 0.000, 15:50:54.773
42, -293.03, 20.44, 4.00, 1.94, 0.000, 0.000, 0.000, 15:50:54.773
43, -477.90, -0.65, 12.29, 11.44, 0.000, 0.000, 0.000, 15:50:54.774
44, 425.99, 3.28, 16.82, 18.37, 0.000, 0.000, 0.000, 15:50:54.774
45, 50.75, 11.54, 6.89, 4.76, 0.000, 0.000, 0.000, 15:50:54.796
46, -664.22, 9.73, 11.81, 6.10, 0.000, 0.000, 0.000, 15:50:54.796
47, 179.43, -0.38, 15.17, 15.63, 0.000, 0.000, 0.000, 15:50:54.797
48, 343.79, 8.61, 9.17, 8.35, 0.000, 0.000, 0.000, 15:50:54.797
49, -596.22, 11.45, 5.76, 6.94, 0.000, 0.000, 0.000, 15:50:54.797
50, -173.72, 4.32, 20.63, 15.41, 0.000, 0.000, 0.000, 15:50:54.797
51, 478.99, 5.29, 13.30, 17.88, 0.000, 0.000, 0.000, 15:50:54.818
52, -326.73, 16.98, 2.52, 5.88, 0.000, 0.000, 0.000, 15:50:54.818
53, -486.20, 9.17, 12.06, 13.29, 0.000, 0.000, 0.000, 15:50:54.819
54, 413.23, 4.37, 13.02, 16.41, 0.000, 0.000, 0.000, 15:50:54.819
55, 36.87, 13.67, 4.43, 9.27, 0.000, 0.000, 0.000, 15:50:54.841
56, -671.11, 8.86, 9.53, 11.22, 0.000, 0.000, 0.000, 15:50:54.841
57, 206.32, 1.08, 14.18, 15.26, 0.000, 0.000, 0.000, 15:50:54.841
58, 337.14, 9.83, 12.70, 7.97, 0.000, 0.000, 0.000, 15:50:54.842
59, -624.37, 16.32, 5.16, 9.42, 0.000, 0.000, 0.000, 15:50:54.863
60, -160.12, 7.84, 16.49, 16.67, 0.000, 0.000, 0.000, 15:50:54.863
61, 498.25, -0.60, 15.28, 17.15, 0.000, 0.000, 0.000, 15:50:54.864
62, -325.90, 12.22, 4.49, 3.44, 0.000, 0.000, 0.000, 15:50:54.864
63, -478.01, 6.76, 11.89, 13.34, 0.000, 0.000, 0.000, 15:50:54.886
64, 419.39, 8.15, 18.87, 16.60, 0.000, 0.000, 0.000, 15:50:54.887
65, 25.21, 15.75, 5.31, 5.58, 0.000, 0.000, 0.000, 15:50:54.887
66, -662.14, 9.32, 8.06, 7.65, 0.000, 0.000, 0.000, 15:50:54.887
67, 198.61, -1.59, 12.37, 16.43, 0.000, 0.000, 0.000, 15:50:54.887
68, 329.17, 9.44, 8.68, 11.87, 0.000, 0.000, 0.000, 15:50:54.887
69, -606.15, 16.50, 0.53, 5.08, 0.000, 0.000, 0.000, 15:50:54.908
70, -152.70, 0.84, 17.66, 13.75, 0.000, 0.000, 0.000, 15:50:54.909
71, 472.93, 6.95, 8.63, 13.89, 0.000, 0.000, 0.000, 15:50:54.909
72, -347.85, 16.54, -0.13, 4.17, 0.000, 0.000, 0.000, 15:50:54.909
73, -501.63, 7.15, 13.27, 16.70, 0.000, 0.000, 0.000, 15:50:54.932
74, 403.27, 4.71, 18.38, 18.92, 0.000, 0.000, 0.000, 15:50:54.932
75, 66.04, 16.90, 7.58, 5.45, 0.000, 0.000, 0.000, 15:50:54.932
76, -662.60, 7.84, 9.05, 9.95, 0.000, 0.000, 0.000, 15:50:54.932
77, 200.83, 3.56, 15.06, 19.24, 0.000, 0.000, 0.000, 15:50:54.953
78, 353.35, 10.35, 11.01, 9.79, 0.000, 0.000, 0.000, 15:50:54.953
79, -608.92, 8.83, 6.48, 7.57, 0.000, 0.000, 0.000, 15:50:54.954
80, -159.98, 3.73, 18.87, 15.08, 0.000, 0.000, 0.000, 15:50:54.954
81, 495.46, 4.47, 15.51, 18.46, 0.000, 0.000, 0.000, 15:50:54.979
82, -344.44, 19.24, 0.47, 5.91, 0.000, 0.000, 0.000, 15:50:54.979
83, -485.53, 1.60, 12.13, 10.16, 0.000, 0.000, 0.000, 15:50:54.979
84, 432.45, 7.12, 17.56, 20.08, 0.000, 0.000, 0.000, 15:50:54.980
85, 47.95, 8.80, 5.23, 8.07, 0.000, 0.000, 0.000, 15:50:54.980
86, -658.40, 7.47, 9.41, 8.41, 0.000, 0.000, 0.000, 15:50:54.980
87, 192.22, 3.61, 19.69, 19.68, 0.000, 0.000, 0.000, 15:50:54.999
88, 340.14, 3.79, 12.18, 11.11, 0.000, 0.000, 0.000, 15:50:54.999
89, -602.43, 16.89, -1.04, 6.55, 0.000, 0.000, 0.000, 15:50:54.999
90, -178.39, 4.25, 16.81, 18.94, 0.000, 0.000, 0.000, 15:50:54.999
91, 466.70, 7.37, 11.89, 13.94, 0.000, 0.000, 0.000, 15:50:55.021
92, -311.98, 17.68, 6.40, 5.96, 0.000, 0.000, 0.000, 15:50:55.021
93, -476.29, 8.82, 15.49, 13.06, 0.000, 0.000, 0.000, 15:50:55.021
94, 419.23, 5.70, 17.23, 14.83, 0.000, 0.000, 0.000, 15:50:55.022
95, 13.70, 13.22, 2.68, 5.25, 0.000, 0.000, 0.000, 15:50:55.043
96, -662.12, 13.38, 8.44, 9.33, 0.000, 0.000, 0.000, 15:50:55.044
97, 184.05, -2.93, 16.22, 16.29, 0.000, 0.000, 0.000, 15:50:55.044
98, 353.87, 8.95, 12.98, 9.37, 0.000, 0.000, 0.000, 15:50:55.044
99, -581.13, 14.98, 3.37, 8.84, 0.000, 0.000, 0.000, 15:50:55.066
100, -279.72, 5.34, 14.54, 15.58, 0.000, 0.000, 0.000, 15:50:55.066
101, 493.44, 1.05, 12.55, 20.97, 0.000, 0.000, 0.000, 15:50:55.089
102, -169.22, 13.60, 3.61, 7.90, 0.000, 0.000, 0.000, 15:50:55.089
103, -530.56, 5.61, 8.98, 12.34, 0.000, 0.000, 0.000, 15:50:55.089
104, 339.37, 4.50, 21.13, 18.55, 0.000, 0.000, 0.000, 15:50:55.090
105, 166.52, 4.95, 10.53, 7.52, 0.000, 0.000, 0.000, 15:50:55.090
106, -651.05, 9.15, 5.04, 10.02, 0.000, 0.000, 0.000, 15:50:55.090
107, 54.15, 4.51, 14.82, 13.93, 0.000, 0.000, 0.000, 15:50:55.111
108, 414.63, 7.65, 15.87, 13.91, 0.000, 0.000, 0.000, 15:50:55.111
109, -501.89, 14.38, 2.68, 7.97, 0.000, 0.000, 0.000, 15:50:55.112
110, -299.51, 2.75, 16.58, 12.39, 0.000, 0.000, 0.000, 15:50:55.112
111, 451.64, 1.42, 20.95, 14.16, 0.000, 0.000, 0.000, 15:50:55.113
112, -202.47, 14.59, 3.95, 5.31, 0.000, 0.000, 0.000, 15:50:55.113
113, -567.64, 9.83, 7.88, 8.72, 0.000, 0.000, 0.000, 15:50:55.134
114, 306.56, 5.71, 15.76, 16.89, 0.000, 0.000, 0.000, 15:50:55.134
115, 165.69, 14.42, 11.83, 8.71, 0.000, 0.000, 0.000, 15:50:55.134
116, -640.78, 8.38, 8.51, 9.67, 0.000, 0.000, 0.000, 15:50:55.135
117, -13.99, 2.53, 14.35, 16.04, 0.000, 0.000, 0.000, 15:50:55.156
118, 393.44, 6.59, 13.37, 15.53, 0.000, 0.000, 0.000, 15:50:55.156
119, -399.29, 11.29, 2.51, 5.08, 0.000, 0.000, 0.000, 15:50:55.157
120, -224.04, 7.68, 12.00, 10.30, 0.000, 0.000, 0.000, 15:50:55.157
121, 509.48, 4.47, 19.06, 16.86, 0.000, 0.000, 0.000, 15:50:55.157
122, -182.76, 14.34, 6.54, 10.02, 0.000, 0.000, 0.000, 15:50:55.157
123, -562.43, 9.74, 10.55, 12.66, 0.000, 0.000, 0.000, 15:50:55.179
124, 305.70, 4.28, 13.24, 18.42, 0.000, 0.000, 0.000, 15:50:55.179
125, 90.17, 12.25, 7.01, 7.10, 0.000, 0.000, 0.000, 15:50:55.179
126, -672.16, 13.08, 9.70, 8.09, 0.000, 0.000, 0.000, 15:50:55.179
127, 157.68, 5.28, 16.89, 17.71, 0.000, 0.000, 0.000, 15:50:55.201
128, 297.77, 12.50, 10.83, 11.55, 0.000, 0.000, 0.000, 15:50:55.201
129, -629.50, 13.19, 2.06, 7.95, 0.000, 0.000, 0.000, 15:50:55.201
130, -188.15, 1.54, 14.30, 17.55, 0.000, 0.000, 0.000, 15:50:55.202
131, 456.76, 6.92, 16.48, 15.77, 0.000, 0.000, 0.000, 15:50:55.224
132, -327.83, 22.11, 2.36, 4.12, 0.000, 0.000, 0.000, 15:50:55.224
133, -492.08, -1.29, 18.11, 15.07, 0.000, 0.000, 0.000, 15:50:55.224
134, 420.28, 2.33, 15.64, 16.74, 0.000, 0.000, 0.000, 15:50:55.224
135, 38.95, 14.21, 3.42, 7.00, 0.000, 0.000, 0.000, 15:50:55.246
136, -665.90, 8.83, 10.21, 8.33, 0.000, 0.000, 0.000, 15:50:55.247
137, 191.66, 0.21, 16.35, 15.44, 0.000, 0.000, 0.000, 15:50:55.247
138, 354.89, 10.71, 12.26, 11.52, 0.000, 0.000, 0.000, 15:50:55.247
139, -581.38, 17.03, 2.91, 6.76, 0.000, 0.000, 0.000, 15:50:55.247
140, -209.66, 3.58, 13.44, 17.87, 0.000, 0.000, 0.000, 15:50:55.248
141, 484.09, 6.97, 13.61, 17.61, 0.000, 0.000, 0.000, 15:50:55.268
142, -220.52, 13.56, 0.19, 3.88, 0.000, 0.000, 0.000, 15:50:55.269
143, -526.97, 7.10, 12.33, 10.58, 0.000, 0.000, 0.000, 15:50:55.269
144, 335.82, 2.62, 18.97, 16.23, 0.000, 0.000, 0.000, 15:50:55.269
145, 156.07, 12.06, 9.82, 10.08, 0.000, 0.000, 0.000, 15:50:55.291
146, -639.54, 13.21, 6.46, 10.74, 0.000, 0.000, 0.000, 15:50:55.291
147, 108.57, -0.13, 13.89, 14.62, 0.000, 0.000, 0.000, 15:50:55.292
148, 337.15, 7.75, 12.03, 9.74, 0.000, 0.000, 0.000, 15:50:55.292
149, -593.43, 13.79, 0.71, 9.03, 0.000, 0.000, 0.000, 15:50:55.314
150, -168.30, 7.54, 17.93, 20.23, 0.000, 0.000, 0.000, 15:50:55.314
151, 488.66, -1.82, 19.44, 14.51, 0.000, 0.000, 0.000, 15:50:55.314
152, -315.51, 16.13, 3.37, 2.84, 0.000, 0.000, 0.000, 15:50:55.314
153, -488.07, 4.57, 11.66, 17.84, 0.000, 0.000, 0.000, 15:50:55.336
154, 425.33, 6.06, 20.58, 18.48, 0.000, 0.000, 0.000, 15:50:55.336
155, 61.38, 12.56, 10.03, 7.44, 0.000, 0.000, 0.000, 15:50:55.336
156, -669.82, 9.32, 8.05, 9.65, 0.000, 0.000, 0.000, 15:50:55.336
157, 185.76, -1.93, 16.19, 13.20, 0.000, 0.000, 0.000, 15:50:55.337
158, 431.77, 9.68, 12.07, 12.40, 0.000, 0.000, 0.000, 15:50:55.337
159, -512.34, 21.83, 1.60, 5.85, 0.000, 0.000, 0.000, 15:50:55.358
160, -308.65, 5.67, 12.72, 13.29, 0.000, 0.000, 0.000, 15:50:55.358
161, 442.34, 5.52, 16.84, 18.05, 0.000, 0.000, 0.000, 15:50:55.359
162, -199.28, 12.07, 7.62, 4.27, 0.000, 0.000, 0.000, 15:50:55.359
163, -566.59, 8.70, 12.38, 14.94, 0.000, 0.000, 0.000, 15:50:55.381
164, 319.11, 3.74, 15.84, 21.34, 0.000, 0.000, 0.000, 15:50:55.381
165, 179.20, 10.91, 10.15, 6.57, 0.000, 0.000, 0.000, 15:50:55.381
166, -626.51, 14.11, 7.82, 10.90, 0.000, 0.000, 0.000, 15:50:55.381
167, 54.15, 2.01, 14.08, 16.56, 0.000, 0.000, 0.000, 15:50:55.403
168, 411.72, 12.17, 13.92, 14.50, 0.000, 0.000, 0.000, 15:50:55.404
169, -489.75, 9.78, 4.02, 7.91, 0.000, 0.000, 0.000, 15:50:55.404
170, -293.20, 8.30, 11.11, 10.88, 0.000, 0.000, 0.000, 15:50:55.404
171, 464.71, 2.77, 12.48, 12.87, 0.000, 0.000, 0.000, 15:50:55.426
172, -193.50, 12.80, 1.81, 6.62, 0.000, 0.000, 0.000, 15:50:55.426
173, -532.01, 6.77, 7.23, 11.75, 0.000, 0.000, 0.000, 15:50:55.427
174, 334.68, 2.04, 18.97, 19.04, 0.000, 0.000, 0.000, 15:50:55.427
175, 195.14, 15.57, 9.62, 7.48, 0.000, 0.000, 0.000, 15:50:55.427
176, -610.18, 10.64, 6.11, 10.34, 0.000, 0.000, 0.000, 15:50:55.427
177, 61.69, 4.07, 17.61, 17.55, 0.000, 0.000, 0.000, 15:50:55.448
178, 368.11, 6.05, 15.28, 10.80, 0.000, 0.000, 0.000, 15:50:55.449
179, -568.63, 14.18, 6.15, 2.82, 0.000, 0.000, 0.000, 15:50:55.449
180, -162.67, 2.99, 15.92, 16.25, 0.000, 0.000, 0.000, 15:50:55.449
181, 484.22, 4.06, 11.54, 14.57, 0.000, 0.000, 0.000, 15:50:55.471
182, -325.15, 15.88, 1.95, 7.70, 0.000, 0.000, 0.000, 15:50:55.471
183, -497.67, 5.19, 13.09, 11.05, 0.000, 0.000, 0.000, 15:50:55.472
184, 413.44, 3.78, 13.40, 14.70, 0.000, 0.000, 0.000, 15:50:55.472
185, 48.47, 12.51, 6.44, 9.39, 0.000, 0.000, 0.000, 15:50:55.493
186, -675.05, 15.56, 8.71, 11.98, 0.000, 0.000, 0.000, 15:50:55.494
187, 164.85, -3.72, 15.83, 15.97, 0.000, 0.000, 0.000, 15:50:55.494
188, 338.05, 9.53, 14.46, 11.29, 0.000, 0.000, 0.000, 15:50:55.494
189, -602.72, 14.54, 1.99, 5.18, 0.000, 0.000, 0.000, 15:50:55.516
190, -185.85, 1.84, 18.29, 15.40, 0.000, 0.000, 0.000, 15:50:55.516
191, 474.41, 3.42, 18.37, 12.15, 0.000, 0.000, 0.000, 15:50:55.517
