%OpenBCI Raw EEG Data
%
%Sample Rate = 200.0 Hz
%First Column = SampleIndex
%Last Column = Timestamp 
%Other Columns = EEG data in microvolts followed by Accel Data (in G) interleaved with Aux Data
0, 312.66, 1.88, 15.76, 15.73, 0.000, 0.000, 0.000, 15:43:34.219
1, 166.33, 11.63, 6.57, 9.11, 0.000, 0.000, 0.000, 15:43:34.222
2, -521.47, 12.34, 10.02, 11.11, 0.000, 0.000, 0.000, 15:43:34.223
3, 63.36, 8.81, 17.08, 15.75, 0.000, 0.000, 0.000, 15:43:34.238
4, 354.05, 0.40, 6.35, 12.88, 0.000, 0.000, 0.000, 15:43:34.239
5, -398.14, 11.62, 7.07, 7.53, 0.000, 0.000, 0.000, 15:43:34.239
6, -219.33, -0.92, 14.80, 17.37, 0.000, 0.000, 0.000, 15:43:34.240
7, 392.81, 10.78, 13.10, 13.85, 0.000, 0.000, 0.000, 15:43:34.261
8, -119.60, 11.01, 3.82, 8.33, 0.000, 0.000, 0.000, 15:43:34.262
9, -456.37, 6.03, 16.26, 15.46, 0.000, 0.000, 0.000, 15:43:34.262
10, 294.42, 2.60, 13.57, 14.39, 0.000, 0.000, 0.000, 15:43:34.263
11, 152.67, 9.62, 8.12, 6.48, 0.000, 0.000, 0.000, 15:43:34.282
12, -516.76, 19.90, 8.46, 5.88, 0.000, 0.000, 0.000, 15:43:34.283
13, 50.24, -2.44, 17.13, 16.68, 0.000, 0.000, 0.000, 15:43:34.284
14, 331.71, 6.75, 9.07, 10.47, 0.000, 0.000, 0.000, 15:43:34.284
15, -405.07, 15.65, 9.64, 3.89, 0.000, 0.000, 0.000, 15:43:34.309
16, -234.47, 1.96, 18.48, 18.62, 0.000, 0.000, 0.000, 15:43:34.310
17, 399.08, 7.69, 12.64, 15.14, 0.000, 0.000, 0.000, 15:43:34.311
18, -125.13, 18.65, 3.54, 7.73, 0.000, 0.000, 0.000, 15:43:34.311
19, -468.90, 6.23, 14.13, 18.77, 0.000, 0.000, 0.000, 15:43:34.311
20, 280.77, 5.23, 13.11, 18.68, 0.000, 0.000, 0.000, 15:43:34.312
21, 145.68, 19.20, 7.29, 6.20, 0.000, 0.000, 0.000, 15:43:34.329
22, -537.47, 6.06, 13.92, 10.80, 0.000, 0.000, 0.000, 15:43:34.330
23, 41.18, 4.53, 15.94, 18.96, 0.000, 0.000, 0.000, 15:43:34.331
24, 333.84, 7.11, 7.71, 6.75, 0.000, 0.000, 0.000, 15:43:34.331
25, -419.99, 15.98, 4.48, 1.15, 0.000, 0.000, 0.000, 15:43:34.350
26, -232.98, -2.48, 16.72, 16.44, 0.000, 0.000, 0.000, 15:43:34.350
27, 390.59, 11.14, 11.84, 16.76, 0.000, 0.000, 0.000, 15:43:34.350
28, -130.60, 16.98, 3.94, 4.32, 0.000, 0.000, 0.000, 15:43:34.351
29, -468.58, 6.62, 15.38, 13.41, 0.000, 0.000, 0.000, 15:43:34.372
30, 293.80, 9.37, 11.56, 16.49, 0.000, 0.000, 0.000, 15:43:34.373
31, 152.57, 9.25, 9.33, 8.36, 0.000, 0.000, 0.000, 15:43:34.373
32, -536.23, 7.85, 9.86, 11.12, 0.000, 0.000, 0.000, 15:43:34.373
33, 45.46, 1.90, 14.67, 22.03, 0.000, 0.000, 0.000, 15:43:34.395
34, 323.79, 10.51, 8.33, 13.90, 0.000, 0.000, 0.000, 15:43:34.396
35, -404.45, 16.23, 4.74, 6.17, 0.000, 0.000, 0.000, 15:43:34.396
36, -216.77, 3.79, 16.52, 14.54, 0.000, 0.000, 0.000, 15:43:34.397
37, 398.56, 4.31, 12.03, 10.19, 0.000, 0.000, 0.000, 15:43:34.397
38, -125.37, 14.06, 2.99, 8.93, 0.000, 0.000, 0.000, 15:43:34.397
39, -476.85, 11.83, 15.12, 16.78, 0.000, 0.000, 0.000, 15:43:34.417
40, 293.70, -0.14, 16.95, 21.39, 0.000, 0.000, 0.000, 15:43:34.418
41, 160.43, 11.90, 4.13, 4.74, 0.000, 0.000, 0.000, 15:43:34.418
42, -526.76, 4.62, 8.56, 9.89, 0.000, 0.000, 0.000, 15:43:34.418
43, 63.00, 0.50, 19.31, 14.51, 0.000, 0.000, 0.000, 15:43:34.442
44, 341.79, 7.73, 12.32, 9.14, 0.000, 0.000, 0.000, 15:43:34.443
45, -408.83, 14.56, 5.67, 7.07, 0.000, 0.000, 0.000, 15:43:34.443
46, -231.19, 0.73, 17.82, 17.33, 0.000, 0.000, 0.000, 15:43:34.444
47, 382.68, 2.92, 13.60, 12.18, 0.000, 0.000, 0.000, 15:43:34.463
48, -125.78, 17.52, 6.54, 9.11, 0.000, 0.000, 0.000, 15:43:34.464
49, -459.88, 2.40, 13.21, 13.20, 0.000, 0.000, 0.000, 15:43:34.468
50, 289.98, 3.28, 13.87, 14.30, 0.000, 0.000, 0.000, 15:43:34.468
51, 158.93, 14.76, 5.97, 6.05, 0.000, 0.000, 0.000, 15:43:34.486
52, -530.31, 12.22, 8.98, 13.10, 0.000, 0.000, 0.000, 15:43:34.486
53, 42.67, 1.28, 17.08, 19.59, 0.000, 0.000, 0.000, 15:43:34.486
54, 341.09, 7.87, 10.31, 8.22, 0.000, 0.000, 0.000, 15:43:34.487
55, -387.94, 14.03, 8.72, 1.55, 0.000, 0.000, 0.000, 15:43:34.487
56, -219.30, 1.33, 19.19, 18.38, 0.000, 0.000, 0.000, 15:43:34.487
57, 378.56, 7.82, 12.50, 14.24, 0.000, 0.000, 0.000, 15:43:34.507
58, -128.03, 14.57, 1.30, 4.96, 0.000, 0.000, 0.000, 15:43:34.508
59, -462.27, 5.59, 15.38, 13.90, 0.000, 0.000, 0.000, 15:43:34.508
60, 283.45, 7.48, 15.77, 18.84, 0.000, 0.000, 0.000, 15:43:34.508
61, 150.11, 14.27, 9.51, 9.83, 0.000, 0.000, 0.000, 15:43:34.530
62, -521.24, 9.08, 6.87, 8.35, 0.000, 0.000, 0.000, 15:43:34.530
63, 57.07, 1.61, 14.15, 20.82, 0.000, 0.000, 0.000, 15:43:34.531
64, 349.07, 13.74, 9.11, 7.69, 0.000, 0.000, 0.000, 15:43:34.531
65, -406.18, 14.18, 1.83, 6.36, 0.000, 0.000, 0.000, 15:43:34.552
66, -229.92, 5.14, 14.36, 19.28, 0.000, 0.000, 0.000, 15:43:34.553
67, 378.36, 0.43, 12.92, 14.27, 0.000, 0.000, 0.000, 15:43:34.553
68, -131.66, 13.13, 4.38, 2.64, 0.000, 0.000, 0.000, 15:43:34.554
69, -460.92, 7.89, 14.38, 13.40, 0.000, 0.000, 0.000, 15:43:34.575
70, 295.50, 10.00, 14.85, 13.30, 0.000, 0.000, 0.000, 15:43:34.575
71, 138.60, 13.73, 6.72, 8.70, 0.000, 0.000, 0.000, 15:43:34.576
72, -519.79, 11.03, 9.82, 9.22, 0.000, 0.000, 0.000, 15:43:34.576
73, 74.84, 2.73, 16.68, 18.48, 0.000, 0.000, 0.000, 15:43:34.576
74, 351.05, 8.69, 8.41, 11.32, 0.000, 0.000, 0.000, 15:43:34.577
75, -407.08, 19.23, 5.59, 7.84, 0.000, 0.000, 0.000, 15:43:34.597
76, -215.34, 3.61, 16.92, 18.98, 0.000, 0.000, 0.000, 15:43:34.598
77, 393.26, 6.52, 13.96, 10.26, 0.000, 0.000, 0.000, 15:43:34.598
78, -127.68, 14.14, 3.99, 5.81, 0.000, 0.000, 0.000, 15:43:34.598
79, -469.85, 3.91, 14.25, 19.28, 0.000, 0.000, 0.000, 15:43:34.620
80, 293.74, 4.89, 14.07, 10.42, 0.000, 0.000, 0.000, 15:43:34.620
81, 164.94, 13.83, 8.83, 9.28, 0.000, 0.000, 0.000, 15:43:34.620
82, -526.41, 11.22, 7.57, 15.93, 0.000, 0.000, 0.000, 15:43:34.621
83, 52.43, 0.42, 15.04, 17.43, 0.000, 0.000, 0.000, 15:43:34.642
84, 350.96, 13.94, 8.22, 14.81, 0.000, 0.000, 0.000, 15:43:34.643
85, -411.41, 8.02, 6.80, 9.62, 0.000, 0.000, 0.000, 15:43:34.643
86, -232.08, 5.57, 17.50, 18.59, 0.000, 0.000, 0.000, 15:43:34.643
87, 390.33, 9.71, 16.37, 11.96, 0.000, 0.000, 0.000, 15:43:34.665
88, -130.34, 15.12, 0.67, 3.97, 0.000, 0.000, 0.000, 15:43:34.665
89, -468.78, 2.97, 13.87, 12.47, 0.000, 0.000, 0.000, 15:43:34.666
90, 294.09, 4.93, 13.56, 15.71, 0.000, 0.000, 0.000, 15:43:34.666
91, 162.61, 11.71, 9.62, 7.47, 0.000, 0.000, 0.000, 15:43:34.666
92, -543.90, 8.55, 9.31, 11.78, 0.000, 0.000, 0.000, 15:43:34.666
93, 68.74, 6.37, 15.62, 17.50, 0.000, 0.000, 0.000, 15:43:34.687
94, 349.83, 9.60, 11.11, 11.42, 0.000, 0.000, 0.000, 15:43:34.688
95, -401.04, 13.13, 5.54, 6.42, 0.000, 0.000, 0.000, 15:43:34.688
96, -224.32, 2.71, 16.38, 19.61, 0.000, 0.000, 0.000, 15:43:34.688
97, 373.63, 8.86, 13.26, 9.05, 0.000, 0.000, 0.000, 15:43:34.710
98, -125.89, 15.19, 3.51, 8.57, 0.000, 0.000, 0.000, 15:43:34.710
99, -448.65, 5.63, 11.12, 12.64, 0.000, 0.000, 0.000, 15:43:34.711
100, 292.45, 6.60, 15.09, 13.65, 0.000, 0.000, 0.000, 15:43:34.711
101, 155.44, 10.85, 8.28, 8.86, 0.000, 0.000, 0.000, 15:43:34.732
102, -530.44, 16.28, 12.67, 10.49, 0.000, 0.000, 0.000, 15:43:34.733
103, 63.06, 0.05, 19.01, 18.28, 0.000, 0.000, 0.000, 15:43:34.733
104, 336.49, 10.84, 7.78, 9.15, 0.000, 0.000, 0.000, 15:43:34.734
105, -407.45, 11.84, 2.68, 4.14, 0.000, 0.000, 0.000, 15:43:34.755
106, -218.08, 4.68, 15.12, 16.42, 0.000, 0.000, 0.000, 15:43:34.756
107, 387.50, 6.41, 13.58, 14.40, 0.000, 0.000, 0.000, 15:43:34.756
108, -133.32, 15.90, 7.32, 5.48, 0.000, 0.000, 0.000, 15:43:34.756
109, -448.03, 3.51, 16.99, 12.20, 0.000, 0.000, 0.000, 15:43:34.757
110, 294.09, 3.55, 14.57, 14.60, 0.000, 0.000, 0.000, 15:43:34.757
111, 161.98, 15.69, 7.99, 11.59, 0.000, 0.000, 0.000, 15:43:34.777
112, -525.23, 10.03, 9.78, 8.72, 0.000, 0.000, 0.000, 15:43:34.778
113, 59.40, 0.18, 14.56, 17.03, 0.000, 0.000, 0.000, 15:43:34.778
114, 344.68, 11.12, 8.61, 15.95, 0.000, 0.000, 0.000, 15:43:34.779
115, -408.03, 12.60, 6.01, 5.54, 0.000, 0.000, 0.000, 15:43:34.800
116, -233.12, 0.48, 18.37, 19.61, 0.000, 0.000, 0.000, 15:43:34.800
117, 390.82, 7.20, 11.05, 12.58, 0.000, 0.000, 0.000, 15:43:34.801
118, -130.78, 13.08, -1.09, 3.03, 0.000, 0.000, 0.000, 15:43:34.801
119, -463.87, 1.44, 18.08, 12.09, 0.000, 0.000, 0.000, 15:43:34.822
120, 289.88, 9.17, 17.42, 15.45, 0.000, 0.000, 0.000, 15:43:34.823
121, 154.34, 8.20, 9.48, 9.23, 0.000, 0.000, 0.000, 15:43:34.823
122, -550.46, 8.53, 6.44, 9.47, 0.000, 0.000, 0.000, 15:43:34.824
123, 49.17, 1.16, 13.31, 16.75, 0.000, 0.000, 0.000, 15:43:34.845
124, 353.24, 10.74, 7.85, 10.29, 0.000, 0.000, 0.000, 15:43:34.846
125, -392.21, 14.23, 1.37, 4.98, 0.000, 0.000, 0.000, 15:43:34.846
126, -229.42, -1.31, 19.50, 20.77, 0.000, 0.000, 0.000, 15:43:34.847
127, 389.59, 6.32, 12.89, 12.52, 0.000, 0.000, 0.000, 15:43:34.849
128, -128.86, 19.31, 2.63, 3.14, 0.000, 0.000, 0.000, 15:43:34.850
129, -459.76, 9.60, 16.78, 14.02, 0.000, 0.000, 0.000, 15:43:34.867
130, 301.48, 0.92, 14.03, 13.32, 0.000, 0.000, 0.000, 15:43:34.868
131, 155.79, 10.36, 7.49, 6.79, 0.000, 0.000, 0.000, 15:43:34.868
132, -533.21, 7.56, 9.23, 9.71, 0.000, 0.000, 0.000, 15:43:34.869
133, 58.06, 3.08, 15.45, 17.29, 0.000, 0.000, 0.000, 15:43:34.890
134, 345.02, 4.58, 8.25, 9.58, 0.000, 0.000, 0.000, 15:43:34.890
135, -405.17, 16.20, 5.31, 4.39, 0.000, 0.000, 0.000, 15:43:34.891
136, -224.09, 2.97, 17.21, 18.53, 0.000, 0.000, 0.000, 15:43:34.891
137, 397.64, 6.78, 13.29, 11.32, 0.000, 0.000, 0.000, 15:43:34.912
138, -110.94, 18.74, 7.08, 9.10, 0.000, 0.000, 0.000, 15:43:34.913
139, -435.89, 1.74, 11.49, 14.75, 0.000, 0.000, 0.000, 15:43:34.913
140, 332.16, 7.02, 17.21, 15.04, 0.000, 0.000, 0.000, 15:43:34.913
141, 185.87, 12.38, 7.82, 7.12, 0.000, 0.000, 0.000, 15:43:34.935
142, -517.28, 10.42, 10.14, 11.73, 0.000, 0.000, 0.000, 15:43:34.935
143, 38.28, 3.57, 17.22, 18.49, 0.000, 0.000, 0.000, 15:43:34.935
144, 325.85, 12.45, 11.88, 11.68, 0.000, 0.000, 0.000, 15:43:34.936
145, -427.73, 12.71, 7.92, 11.02, 0.000, 0.000, 0.000, 15:43:34.937
146, -264.68, 1.56, 17.47, 17.55, 0.000, 0.000, 0.000, 15:43:34.938
147, 370.30, 5.25, 10.70, 14.06, 0.000, 0.000, 0.000, 15:43:34.957
148, -150.54, 10.85, 3.90, 6.48, 0.000, 0.000, 0.000, 15:43:34.957
149, -468.15, 8.04, 17.13, 12.82, 0.000, 0.000, 0.000, 15:43:34.958
150, 284.51, 5.56, 10.63, 13.51, 0.000, 0.000, 0.000, 15:43:34.958
151, 127.34, 14.13, 6.38, 9.77, 0.000, 0.000, 0.000, 15:43:34.980
152, -513.43, 12.71, 7.10, 9.19, 0.000, 0.000, 0.000, 15:43:34.980
153, 81.34, 3.59, 17.46, 14.04, 0.000, 0.000, 0.000, 15:43:34.981
154, 355.21, 8.60, 8.81, 11.95, 0.000, 0.000, 0.000, 15:43:34.981
155, -402.35, 11.11, 4.96, 6.62, 0.000, 0.000, 0.000, 15:43:35.002
156, -222.89, 8.13, 16.29, 16.06, 0.000, 0.000, 0.000, 15:43:35.003
157, 394.23, 2.83, 13.38, 16.15, 0.000, 0.000, 0.000, 15:43:35.003
158, -128.38, 19.20, 1.08, 4.61, 0.000, 0.000, 0.000, 15:43:35.003
159, -463.14, 4.40, 14.13, 12.53, 0.000, 0.000, 0.000, 15:43:35.025
160, 303.84, 7.61, 13.36, 18.78, 0.000, 0.000, 0.000, 15:43:35.025
161, 155.85, 8.27, 8.29, 6.13, 0.000, 0.000, 0.000, 15:43:35.026
162, -514.28, 11.28, 10.16, 11.78, 0.000, 0.000, 0.000, 15:43:35.026
163, 67.98, -1.59, 14.31, 20.76, 0.000, 0.000, 0.000, 15:43:35.026
164, 350.78, 10.87, 8.43, 9.41, 0.000, 0.000, 0.000, 15:43:35.027
165, -392.52, 18.80, 5.81, 5.71, 0.000, 0.000, 0.000, 15:43:35.047
166, -222.24, -0.56, 17.52, 12.62, 0.000, 0.000, 0.000, 15:43:35.048
167, 385.01, 8.41, 10.72, 13.40, 0.000, 0.000, 0.000, 15:43:35.048
168, -129.29, 16.21, 3.82, 10.96, 0.000, 0.000, 0.000, 15:43:35.048
169, -459.39, 4.54, 14.74, 11.03, 0.000, 0.000, 0.000, 15:43:35.070
170, 301.60, 3.58, 14.72, 15.80, 0.000, 0.000, 0.000, 15:43:35.070
171, 159.09, 13.07, 5.37, 10.97, 0.000, 0.000, 0.000, 15:43:35.071
172, -518.99, 11.34, 9.91, 13.20, 0.000, 0.000, 0.000, 15:43:35.071
173, 60.57, 2.93, 15.90, 15.30, 0.000, 0.000, 0.000, 15:43:35.092
174, 346.08, 13.88, 13.86, 9.46, 0.000, 0.000, 0.000, 15:43:35.093
175, -418.36, 9.60, 6.83, 7.21, 0.000, 0.000, 0.000, 15:43:35.093
176, -208.14, 2.74, 17.15, 16.29, 0.000, 0.000, 0.000, 15:43:35.094
177, 396.14, 4.41, 13.58, 12.60, 0.000, 0.000, 0.000, 15:43:35.115
178, -130.23, 12.79, 1.64, 6.08, 0.000, 0.000, 0.000, 15:43:35.115
179, -447.96, 2.06, 11.82, 14.24, 0.000, 0.000, 0.000, 15:43:35.116
180, 303.92, 6.37, 13.58, 14.18, 0.000, 0.000, 0.000, 15:43:35.116
181, 164.51, 12.78, 9.04, 8.88, 0.000, 0.000, 0.000, 15:43:35.116
182, -525.04, 10.11, 12.09, 10.00, 0.000, 0.000, 0.000, 15:43:35.117
183, 63.91, 8.18, 17.36, 15.21, 0.000, 0.000, 0.000, 15:43:35.137
184, 354.80, 5.81, 12.87, 8.54, 0.000, 0.000, 0.000, 15:43:35.138
185, -404.74, 11.93, 7.63, 12.07, 0.000, 0.000, 0.000, 15:43:35.138
186, -208.97, 3.17, 16.98, 15.96, 0.000, 0.000, 0.000, 15:43:35.138
187, 402.33, 8.00, 12.05, 14.39, 0.000, 0.000, 0.000, 15:43:35.160
188, -118.97, 9.94, 5.59, 3.23, 0.000, 0.000, 0.000, 15:43:35.160
189, -449.43, 6.57, 13.63, 13.30, 0.000, 0.000, 0.000, 15:43:35.161
190, 307.12, 6.62, 14.82, 13.09, 0.000, 0.000, 0.000, 15:43:35.161
191, 161.66, 10.73, 5.51, 7.49, 0.000, 0.000, 0.000, 15:43:35.183
192, -541.99, 14.94, 7.01, 11.84, 0.000, 0.000, 0.000, 15:43:35.183
193, 77.71, 3.64, 16.60, 15.02, 0.000, 0.000, 0.000, 15:43:35.183
194, 364.86, 6.92, 14.36, 7.67, 0.000, 0.000, 0.000, 15:43:35.184
195, -396.89, 13.71, 2.35, 8.92, 0.000, 0.000, 0.000, 15:43:35.205
196, -228.21, 2.67, 19.94, 22.53, 0.000, 0.000, 0.000, 15:43:35.205
197, 384.33, 9.03, 9.97, 12.94, 0.000, 0.000, 0.000, 15:43:35.206
198, -141.51, 14.68, 2.06, 8.42, 0.000, 0.000, 0.000, 15:43:35.206
199, -474.51, 4.94, 11.72, 13.60, 0.000, 0.000, 0.000, 15:43:35.206
200, 282.64, 2.69, 17.18, 13.78, 0.000, 0.000, 0.000, 15:43:35.207
0, 159.27, 16.49, 6.43, 4.53, 0.000, 0.000, 0.000, 15:43:35.227
1, -529.81, 9.76, 9.72, 13.43, 0.000, 0.000, 0.000, 15:43:35.228
2, 40.76, 3.74, 18.20, 17.97, 0.000, 0.000, 0.000, 15:43:35.228
3, 332.75, 7.41, 10.88, 9.82, 0.000, 0.000, 0.000, 15:43:35.250
4, -410.80, 16.36, 7.28, 3.27, 0.000, 0.000, 0.000, 15:43:35.250
5, -234.87, 0.63, 18.16, 15.89, 0.000, 0.000, 0.000, 15:43:35.250
6, 381.36, 9.07, 11.43, 13.88, 0.000, 0.000, 0.000, 15:43:35.251
7, -147.75, 12.66, 2.04, 2.31, 0.000, 0.000, 0.000, 15:43:35.272
8, -456.90, 4.80, 17.64, 17.14, 0.000, 0.000, 0.000, 15:43:35.273
9, 284.82, 13.24, 15.25, 18.15, 0.000, 0.000, 0.000, 15:43:35.273
10, 147.88, 6.38, 4.94, 7.00, 0.000, 0.000, 0.000, 15:43:35.273
11, -537.51, 9.71, 5.19, 9.91, 0.000, 0.000, 0.000, 15:43:35.274
12, 58.53, 3.03, 15.72, 15.47, 0.000, 0.000, 0.000, 15:43:35.274
13, 343.44, 9.88, 8.61, 12.32, 0.000, 0.000, 0.000, 15:43:35.295
14, -416.94, 12.71, 3.78, 9.10, 0.000, 0.000, 0.000, 15:43:35.295
15, -229.07, 2.44, 13.79, 18.47, 0.000, 0.000, 0.000, 15:43:35.296
16, 379.77, 4.42, 11.96, 14.39, 0.000, 0.000, 0.000, 15:43:35.296
17, -158.37, 12.90, 2.67, 6.34, 0.000, 0.000, 0.000, 15:43:35.317
18, -449.58, 9.71, 13.09, 18.45, 0.000, 0.000, 0.000, 15:43:35.318
19, 298.32, 2.37, 15.22, 16.99, 0.000, 0.000, 0.000, 15:43:35.318
20, 152.21, 11.31, 5.73, 7.74, 0.000, 0.000, 0.000, 15:43:35.318
21, -527.55, 9.35, 8.60, 3.68, 0.000, 0.000, 0.000, 15:43:35.340
22, 57.48, 2.52, 19.13, 14.90, 0.000, 0.000, 0.000, 15:43:35.340
23, 340.11, 8.99, 6.69, 9.36, 0.000, 0.000, 0.000, 15:43:35.341
24, -412.43, 13.80, 7.74, 5.94, 0.000, 0.000, 0.000, 15:43:35.341
25, -217.37, 2.00, 19.51, 15.89, 0.000, 0.000, 0.000, 15:43:35.342
26, 396.89, 7.09, 10.28, 16.72, 0.000, 0.000, 0.000, 15:43:35.342
27, -135.86, 16.05, 2.76, 10.51, 0.000, 0.000, 0.000, 15:43:35.363
28, -460.00, 2.23, 15.89, 16.69, 0.000, 0.000, 0.000, 15:43:35.363
29, 298.96, 3.73, 13.20, 14.60, 0.000, 0.000, 0.000, 15:43:35.364
30, 143.55, 16.42, 7.00, 7.47, 0.000, 0.000, 0.000, 15:43:35.364
31, -528.81, 12.05, 14.39, 13.62, 0.000, 0.000, 0.000, 15:43:35.385
32, 66.01, 3.08, 15.66, 18.91, 0.000, 0.000, 0.000, 15:43:35.385
33, 340.22, 11.14, 12.97, 12.80, 0.000, 0.000, 0.000, 15:43:35.386
34, -414.30, 13.99, 4.22, 10.61, 0.000, 0.000, 0.000, 15:43:35.386
35, -220.04, 2.55, 19.38, 16.03, 0.000, 0.000, 0.000, 15:43:35.407
36, 386.12, 8.98, 13.56, 11.88, 0.000, 0.000, 0.000, 15:43:35.408
37, -136.27, 12.90, 2.49, 5.17, 0.000, 0.000, 0.000, 15:43:35.408
38, -451.14, 2.57, 17.16, 12.89, 0.000, 0.000, 0.000, 15:43:35.408
39, 288.04, 4.19, 14.92, 12.64, 0.000, 0.000, 0.000, 15:43:35.430
40, 144.43, 11.83, 7.27, 9.88, 0.000, 0.000, 0.000, 15:43:35.430
41, -522.77, 11.41, 8.73, 14.58, 0.000, 0.000, 0.000, 15:43:35.431
42, 67.60, 1.29, 16.16, 15.31, 0.000, 0.000, 0.000, 15:43:35.431
43, 330.06, 7.46, 11.20, 10.85, 0.000, 0.000, 0.000, 15:43:35.431
44, -409.47, 14.28, 4.96, 4.82, 0.000, 0.000, 0.000, 15:43:35.432
45, -202.34, 4.78, 13.59, 18.54, 0.000, 0.000, 0.000, 15:43:35.452
46, 388.96, 4.55, 10.37, 13.64, 0.000, 0.000, 0.000, 15:43:35.453
47, -137.61, 13.09, 4.27, 5.21, 0.000, 0.000, 0.000, 15:43:35.476
48, -454.65, 5.97, 14.76, 17.47, 0.000, 0.000, 0.000, 15:43:35.477
49, 299.27, 5.99, 16.19, 18.53, 0.000, 0.000, 0.000, 15:43:35.477
50, 142.45, 14.98, 9.08, 8.72, 0.000, 0.000, 0.000, 15:43:35.477
51, -525.35, 9.52, 8.93, 8.76, 0.000, 0.000, 0.000, 15:43:35.478
52, 65.98, 6.00, 17.03, 19.50, 0.000, 0.000, 0.000, 15:43:35.478
53, 335.66, 11.32, 6.45, 7.66, 0.000, 0.000, 0.000, 15:43:35.498
54, -415.69, 18.21, 6.53, 5.44, 0.000, 0.000, 0.000, 15:43:35.499
55, -223.34, -1.81, 17.10, 12.05, 0.000, 0.000, 0.000, 15:43:35.499
56, 386.26, 4.23, 13.76, 12.01, 0.000, 0.000, 0.000, 15:43:35.500
57, -140.19, 13.59, 1.97, 4.41, 0.000, 0.000, 0.000, 15:43:35.520
58, -450.00, 6.06, 16.59, 14.52, 0.000, 0.000, 0.000, 15:43:35.520
59, 301.03, 6.37, 12.48, 15.84, 0.000, 0.000, 0.000, 15:43:35.522
60, 147.02, 10.98, 4.18, 10.13, 0.000, 0.000, 0.000, 15:43:35.522
61, -525.18, 10.52, 10.94, 11.02, 0.000, 0.000, 0.000, 15:43:35.522
62, 60.33, 0.20, 16.72, 14.15, 0.000, 0.000, 0.000, 15:43:35.523
63, 324.73, 15.91, 10.28, 16.02, 0.000, 0.000, 0.000, 15:43:35.542
64, -409.71, 7.81, 5.55, 8.68, 0.000, 0.000, 0.000, 15:43:35.543
65, -207.45, 1.45, 21.31, 21.44, 0.000, 0.000, 0.000, 15:43:35.543
66, 396.55, 5.25, 7.86, 13.37, 0.000, 0.000, 0.000, 15:43:35.544
67, -156.22, 12.66, 0.74, 5.34, 0.000, 0.000, 0.000, 15:43:35.565
68, -447.80, 3.88, 17.42, 16.54, 0.000, 0.000, 0.000, 15:43:35.565
69, 308.67, 8.06, 13.95, 10.59, 0.000, 0.000, 0.000, 15:43:35.566
70, 145.20, 13.16, 3.67, 5.44, 0.000, 0.000, 0.000, 15:43:35.566
71, -533.34, 10.37, 10.67, 13.06, 0.000, 0.000, 0.000, 15:43:35.587
72, 64.10, 6.61, 14.53, 10.45, 0.000, 0.000, 0.000, 15:43:35.588
73, 346.20, 4.35, 9.31, 10.88, 0.000, 0.000, 0.000, 15:43:35.588
74, -408.13, 18.16, 7.61, 4.99, 0.000, 0.000, 0.000, 15:43:35.588
75, -217.81, -0.81, 16.31, 14.31, 0.000, 0.000, 0.000, 15:43:35.610
76, 389.44, 4.36, 12.31, 13.41, 0.000, 0.000, 0.000, 15:43:35.611
77, -146.59, 13.18, 5.13, 7.15, 0.000, 0.000, 0.000, 15:43:35.611
78, -454.30, 4.85, 17.04, 14.53, 0.000, 0.000, 0.000, 15:43:35.611
79, 297.99, 6.00, 15.13, 17.23, 0.000, 0.000, 0.000, 15:43:35.612
80, 145.62, 13.17, 7.06, 11.14, 0.000, 0.000, 0.000, 15:43:35.612
81, -526.45, 13.44, 11.24, 9.66, 0.000, 0.000, 0.000, 15:43:35.632
82, 63.99, 1.82, 15.48, 12.99, 0.000, 0.000, 0.000, 15:43:35.633
83, 324.00, 10.42, 9.58, 11.38, 0.000, 0.000, 0.000, 15:43:35.633
84, -402.70, 13.50, 7.00, 7.75, 0.000, 0.000, 0.000, 15:43:35.634
85, -199.58, 6.39, 16.27, 11.34, 0.000, 0.000, 0.000, 15:43:35.655
86, 388.84, 3.72, 10.34, 14.92, 0.000, 0.000, 0.000, 15:43:35.655
87, -138.86, 19.68, 3.48, 5.11, 0.000, 0.000, 0.000, 15:43:35.656
88, -451.63, 2.86, 14.91, 15.65, 0.000, 0.000, 0.000, 15:43:35.656
89, 291.43, 1.13, 15.15, 14.68, 0.000, 0.000, 0.000, 15:43:35.677
90, 141.17, 17.05, 6.91, 7.41, 0.000, 0.000, 0.000, 15:43:35.678
91, -539.03, 6.57, 9.04, 11.60, 0.000, 0.000, 0.000, 15:43:35.678
92, 67.23, 6.13, 18.91, 16.78, 0.000, 0.000, 0.000, 15:43:35.678
93, 353.25, 10.96, 10.96, 11.80, 0.000, 0.000, 0.000, 15:43:35.700
94, -407.59, 14.38, 8.37, 9.94, 0.000, 0.000, 0.000, 15:43:35.701
95, -218.21, -2.83, 20.72, 17.47, 0.000, 0.000, 0.000, 15:43:35.701
96, 384.94, 4.89, 10.88, 12.68, 0.000, 0.000, 0.000, 15:43:35.701
97, -148.93, 11.56, 1.53, 6.23, 0.000, 0.000, 0.000, 15:43:35.702
98, -448.84, 4.73, 13.20, 17.34, 0.000, 0.000, 0.000, 15:43:35.702
99, 302.77, 9.44, 12.10, 12.77, 0.000, 0.000, 0.000, 15:43:35.722
100, 145.61, 10.67, 2.42, 8.20, 0.000, 0.000, 0.000, 15:43:35.723
101, -528.42, 9.01, 9.97, 12.25, 0.000, 0.000, 0.000, 15:43:35.724
102, 59.27, 1.64, 16.60, 17.72, 0.000, 0.000, 0.000, 15:43:35.724
103, 339.45, 11.31, 8.69, 10.79, 0.000, 0.000, 0.000, 15:43:35.745
104, -408.80, 14.95, 3.05, 5.34, 0.000, 0.000, 0.000, 15:43:35.745
105, -210.86, 3.67, 17.90, 14.75, 0.000, 0.000, 0.000, 15:43:35.746
106, 386.38, 9.78, 10.63, 9.64, 0.000, 0.000, 0.000, 15:43:35.746
107, -144.57, 12.98, 6.07, 8.63, 0.000, 0.000, 0.000, 15:43:35.767
108, -446.13, 9.33, 18.39, 13.80, 0.000, 0.000, 0.000, 15:43:35.768
109, 305.32, -0.98, 12.21, 13.86, 0.000, 0.000, 0.000, 15:43:35.768
110, 147.00, 13.54, 7.58, 9.01, 0.000, 0.000, 0.000, 15:43:35.768
111, -527.31, 8.72, 10.81, 11.72, 0.000, 0.000, 0.000, 15:43:35.790
112, 84.97, 2.75, 15.16, 19.67, 0.000, 0.000, 0.000, 15:43:35.790
113, 342.70, 13.29, 9.36, 12.54, 0.000, 0.000, 0.000, 15:43:35.791
114, -418.59, 13.97, 6.71, 12.37, 0.000, 0.000, 0.000, 15:43:35.791
115, -242.37, 6.58, 16.09, 15.20, 0.000, 0.000, 0.000, 15:43:35.791
116, 407.52, 6.90, 13.12, 14.56, 0.000, 0.000, 0.000, 15:43:35.791
117, -131.52, 17.24, 6.01, 7.35, 0.000, 0.000, 0.000, 15:43:35.812
118, -452.74, 1.88, 14.90, 12.38, 0.000, 0.000, 0.000, 15:43:35.813
119, 295.26, 4.93, 16.58, 17.54, 0.000, 0.000, 0.000, 15:43:35.835
120, 143.70, 14.17, 6.97, 4.84, 0.000, 0.000, 0.000, 15:43:35.835
121, -525.77, 13.73, 14.80, 12.44, 0.000, 0.000, 0.000, 15:43:35.836
122, 61.03, 1.16, 15.27, 16.41, 0.000, 0.000, 0.000, 15:43:35.836
123, 333.86, 8.95, 8.81, 6.46, 0.000, 0.000, 0.000, 15:43:35.836
124, -411.85, 15.06, 5.49, 4.59, 0.000, 0.000, 0.000, 15:43:35.836
125, -217.06, 0.23, 15.84, 15.34, 0.000, 0.000, 0.000, 15:43:35.857
126, 381.55, 8.87, 9.65, 9.75, 0.000, 0.000, 0.000, 15:43:35.858
127, -144.40, 9.07, 3.55, 6.09, 0.000, 0.000, 0.000, 15:43:35.858
128, -451.21, 0.74, 12.88, 16.44, 0.000, 0.000, 0.000, 15:43:35.859
129, 298.66, 8.01, 13.62, 14.06, 0.000, 0.000, 0.000, 15:43:35.880
130, 139.93, 16.80, 4.92, 7.19, 0.000, 0.000, 0.000, 15:43:35.880
131, -528.00, 9.19, 10.32, 11.51, 0.000, 0.000, 0.000, 15:43:35.881
132, 67.86, 4.27, 15.10, 16.19, 0.000, 0.000, 0.000, 15:43:35.881
133, 321.62, 4.81, 9.53, 12.85, 0.000, 0.000, 0.000, 15:43:35.881
134, -428.26, 11.49, 4.95, 7.21, 0.000, 0.000, 0.000, 15:43:35.882
135, -186.15, 8.59, 20.18, 16.81, 0.000, 0.000, 0.000, 15:43:35.902
136, 404.63, 6.51, 16.72, 14.06, 0.000, 0.000, 0.000, 15:43:35.903
137, -147.69, 13.44, 4.32, 5.81, 0.000, 0.000, 0.000, 15:43:35.903
138, -452.93, 8.43, 13.38, 11.40, 0.000, 0.000, 0.000, 15:43:35.903
139, 295.79, 5.48, 14.86, 13.04, 0.000, 0.000, 0.000, 15:43:35.925
140, 160.56, 8.44, 6.07, 11.60, 0.000, 0.000, 0.000, 15:43:35.925
141, -513.45, 9.36, 9.31, 15.42, 0.000, 0.000, 0.000, 15:43:35.926
142, 89.60, 6.04, 17.20, 21.31, 0.000, 0.000, 0.000, 15:43:35.926
143, 374.12, 7.27, 9.29, 9.52, 0.000, 0.000, 0.000, 15:43:35.948
144, -378.92, 18.45, 5.78, 4.91, 0.000, 0.000, 0.000, 15:43:35.948
145, -194.53, -4.70, 17.42, 19.98, 0.000, 0.000, 0.000, 15:43:35.948
146, 387.20, 7.41, 10.59, 10.67, 0.000, 0.000, 0.000, 15:43:35.949
147, -169.61, 17.12, 4.40, 3.62, 0.000, 0.000, 0.000, 15:43:35.970
148, -472.74, 5.64, 14.19, 16.06, 0.000, 0.000, 0.000, 15:43:35.970
149, 268.68, 3.43, 14.86, 15.27, 0.000, 0.000, 0.000, 15:43:35.971
150, 116.64, 10.31, 7.35, 7.31, 0.000, 0.000, 0.000, 15:43:35.971
151, -555.60, 9.52, 12.57, 9.43, 0.000, 0.000, 0.000, 15:43:35.971
152, 46.01, 2.80, 18.48, 17.77, 0.000, 0.000, 0.000, 15:43:35.971
153, 335.75, 11.23, 12.91, 13.60, 0.000, 0.000, 0.000, 15:43:35.992
154, -413.76, 16.67, 6.35, 4.04, 0.000, 0.000, 0.000, 15:43:35.993
155, -208.70, 4.74, 16.97, 17.99, 0.000, 0.000, 0.000, 15:43:35.993
156, 385.84, 9.40, 12.86, 19.39, 0.000, 0.000, 0.000, 15:43:35.994
157, -148.90, 14.15, 2.66, 0.09, 0.000, 0.000, 0.000, 15:43:36.019
158, -455.45, 1.40, 13.51, 16.71, 0.000, 0.000, 0.000, 15:43:36.019
159, 293.26, 4.20, 10.29, 16.73, 0.000, 0.000, 0.000, 15:43:36.020
160, 146.42, 10.45, 1.68, 6.64, 0.000, 0.000, 0.000, 15:43:36.021
161, -495.22, 11.01, 10.73, 12.61, 0.000, 0.000, 0.000, 15:43:36.037
162, 84.80, 9.95, 16.11, 13.04, 0.000, 0.000, 0.000, 15:43:36.038
163, 338.98, 2.17, 12.60, 11.32, 0.000, 0.000, 0.000, 15:43:36.038
164, -409.37, 16.57, 5.92, 8.13, 0.000, 0.000, 0.000, 15:43:36.039
165, -200.26, 4.12, 19.00, 18.40, 0.000, 0.000, 0.000, 15:43:36.060
166, 386.55, 8.35, 10.97, 15.09, 0.000, 0.000, 0.000, 15:43:36.061
167, -148.26, 11.02, 5.73, 3.94, 0.000, 0.000, 0.000, 15:43:36.062
168, -449.15, 1.97, 12.20, 12.49, 0.000, 0.000, 0.000, 15:43:36.062
169, 309.42, 5.16, 13.03, 18.57, 0.000, 0.000, 0.000, 15:43:36.063
170, 145.96, 8.18, 4.50, 9.32, 0.000, 0.000, 0.000, 15:43:36.063
171, -521.72, 14.10, 12.01, 7.81, 0.000, 0.000, 0.000, 15:43:36.082
172, 79.03, 0.88, 12.71, 16.79, 0.000, 0.000, 0.000, 15:43:36.083
173, 340.63, 10.11, 8.06, 12.93, 0.000, 0.000, 0.000, 15:43:36.083
174, -411.52, 14.82, 6.78, 8.14, 0.000, 0.000, 0.000, 15:43:36.083
175, -206.38, 1.64, 19.40, 14.31, 0.000, 0.000, 0.000, 15:43:36.105
176, 394.93, 8.63, 13.57, 18.31, 0.000, 0.000, 0.000, 15:43:36.105
177, -147.64, 16.72, 4.40, 1.11, 0.000, 0.000, 0.000, 15:43:36.105
178, -454.44, 4.16, 13.63, 15.06, 0.000, 0.000, 0.000, 15:43:36.107
179, 320.09, 4.27, 14.16, 13.45, 0.000, 0.000, 0.000, 15:43:36.128
180, 142.85, 15.60, 4.32, 9.38, 0.000, 0.000, 0.000, 15:43:36.128
181, -519.62, 6.00, 7.56, 8.79, 0.000, 0.000, 0.000, 15:43:36.129
182, 94.42, 0.51, 22.22, 16.76, 0.000, 0.000, 0.000, 15:43:36.129
183, 350.96, 10.20, 13.14, 12.82, 0.000, 0.000, 0.000, 15:43:36.150
184, -409.42, 11.82, 5.44, 9.03, 0.000, 0.000, 0.000, 15:43:36.150
185, -214.16, 1.66, 14.70, 16.37, 0.000, 0.000, 0.000, 15:43:36.151
186, 403.28, 4.87, 10.34, 9.74, 0.000, 0.000, 0.000, 15:43:36.151
187, -137.05, 14.51, 3.25, 4.82, 0.000, 0.000, 0.000, 15:43:36.152
188, -438.46, 1.69, 12.91, 11.25, 0.000, 0.000, 0.000, 15:43:36.153
189, 311.15, 7.78, 13.69, 14.82, 0.000, 0.000, 0.000, 15:43:36.172
190, 133.31, 11.43, 6.17, 7.67, 0.000, 0.000, 0.000, 15:43:36.173
191, -500.33, 7.22, 10.81, 11.91, 0.000, 0.000, 0.000, 15:43:36.173
192, 87.70, -1.03, 21.90, 18.86, 0.000, 0.000, 0.000, 15:43:36.173
193, 343.97, 12.05, 9.84, 9.06, 0.000, 0.000, 0.000, 15:43:36.195
194, -410.01, 16.57, 6.23, 8.32, 0.000, 0.000, 0.000, 15:43:36.195
195, -207.91, 4.98, 17.16, 14.89, 0.000, 0.000, 0.000, 15:43:36.195
196, 399.57, 6.43, 10.89, 13.89, 0.000, 0.000, 0.000, 15:43:36.196
197, -146.57, 18.51, 4.43, 7.73, 0.000, 0.000, 0.000, 15:43:36.217
198, -447.97, 7.58, 15.04, 17.48, 0.000, 0.000, 0.000, 15:43:36.218
199, 300.35, 7.19, 18.05, 17.43, 0.000, 0.000, 0.000, 15:43:36.218
200, 135.81, 11.15, 0.16, 3.75, 0.000, 0.000, 0.000, 15:43:36.218
0, -519.83, 10.19, 6.77, 9.37, 0.000, 0.000, 0.000, 15:43:36.219
1, 70.90, 2.71, 18.06, 17.12, 0.000, 0.000, 0.000, 15:43:36.240
2, 319.58, 9.17, 8.48, 9.09, 0.000, 0.000, 0.000, 15:43:36.240
3, -430.30, 11.40, 4.61, 5.80, 0.000, 0.000, 0.000, 15:43:36.240
4, -213.93, 2.94, 16.19, 21.44, 0.000, 0.000, 0.000, 15:43:36.241
5, 388.18, 8.23, 11.52, 15.27, 0.000, 0.000, 0.000, 15:43:36.262
6, -158.29, 18.77, 6.75, 5.14, 0.000, 0.000, 0.000, 15:43:36.263
7, -455.18, 1.86, 16.46, 18.56, 0.000, 0.000, 0.000, 15:43:36.263
8, 285.84, 5.17, 12.11, 14.83, 0.000, 0.000, 0.000, 15:43:36.264
9, 134.08, 9.50, 4.92, 4.31, 0.000, 0.000, 0.000, 15:43:36.285
10, -535.97, 11.29, 11.69, 9.83, 0.000, 0.000, 0.000, 15:43:36.286
11, 61.83, 5.51, 13.86, 18.16, 0.000, 0.000, 0.000, 15:43:36.286
12, 315.31, 9.36, 12.15, 8.66, 0.000, 0.000, 0.000, 15:43:36.286
13, -407.77, 14.22, 4.35, 8.79, 0.000, 0.000, 0.000, 15:43:36.286
14, -212.06, 2.30, 15.59, 15.50, 0.000, 0.000, 0.000, 15:43:36.287
15, 387.35, 12.66, 10.61, 13.11, 0.000, 0.000, 0.000, 15:43:36.307
16, -158.11, 12.37, 3.10, 6.17, 0.000, 0.000, 0.000, 15:43:36.307
17, -462.14, 6.36, 13.24, 17.57, 0.000, 0.000, 0.000, 15:43:36.308
18, 285.01, 2.29, 14.33, 13.72, 0.000, 0.000, 0.000, 15:43:36.308
19, 150.08, 13.43, 5.33, 8.40, 0.000, 0.000, 0.000, 15:43:36.330
20, -523.10, 3.24, 8.89, 12.14, 0.000, 0.000, 0.000, 15:43:36.330
21, 72.19, 1.89, 19.54, 17.50, 0.000, 0.000, 0.000, 15:43:36.331
22, 340.42, 11.85, 7.95, 9.28, 0.000, 0.000, 0.000, 15:43:36.331
23, -416.98, 13.82, 5.55, 4.71, 0.000, 0.000, 0.000, 15:43:36.352
24, -214.07, 5.64, 16.37, 13.96, 0.000, 0.000, 0.000, 15:43:36.353
25, 383.41, 2.14, 9.50, 15.96, 0.000, 0.000, 0.000, 15:43:36.364
26, -154.59, 15.61, 5.62, 0.92, 0.000, 0.000, 0.000, 15:43:36.364
27, -462.22, 6.38, 16.26, 17.10, 0.000, 0.000, 0.000, 15:43:36.375
28, 313.35, 7.26, 14.27, 16.14, 0.000, 0.000, 0.000, 15:43:36.375
29, 138.04, 11.97, 5.70, 6.18, 0.000, 0.000, 0.000, 15:43:36.376
30, -529.33, 11.58, 11.14, 16.08, 0.000, 0.000, 0.000, 15:43:36.376
31, 68.97, 6.73, 15.96, 13.71, 0.000, 0.000, 0.000, 15:43:36.376
32, 316.09, 12.48, 11.08, 11.83, 0.000, 0.000, 0.000, 15:43:36.376
33, -408.46, 19.20, 7.04, 2.93, 0.000, 0.000, 0.000, 15:43:36.397
34, -211.70, 0.65, 16.16, 13.52, 0.000, 0.000, 0.000, 15:43:36.398
35, 387.82, 3.58, 9.08, 15.79, 0.000, 0.000, 0.000, 15:43:36.398
36, -150.28, 13.53, 2.46, 5.51, 0.000, 0.000, 0.000, 15:43:36.398
37, -456.27, 5.79, 12.36, 12.59, 0.000, 0.000, 0.000, 15:43:36.420
38, 310.59, 5.62, 11.76, 18.02, 0.000, 0.000, 0.000, 15:43:36.420
39, 143.67, 11.57, 9.18, 9.44, 0.000, 0.000, 0.000, 15:43:36.421
40, -530.17, 8.75, 10.49, 8.17, 0.000, 0.000, 0.000, 15:43:36.421
41, 77.71, 2.90, 15.36, 13.85, 0.000, 0.000, 0.000, 15:43:36.442
42, 327.78, 11.08, 9.22, 9.12, 0.000, 0.000, 0.000, 15:43:36.443
43, -417.13, 8.67, 4.61, 8.79, 0.000, 0.000, 0.000, 15:43:36.443
44, -207.07, -1.10, 19.85, 18.42, 0.000, 0.000, 0.000, 15:43:36.443
45, 392.70, 8.03, 13.71, 13.12, 0.000, 0.000, 0.000, 15:43:36.465
46, -153.16, 16.54, 6.03, 6.01, 0.000, 0.000, 0.000, 15:43:36.465
47, -460.99, 0.82, 17.18, 15.31, 0.000, 0.000, 0.000, 15:43:36.465
48, 277.28, 5.05, 16.82, 14.79, 0.000, 0.000, 0.000, 15:43:36.466
49, 152.97, 14.54, 9.51, 4.51, 0.000, 0.000, 0.000, 15:43:36.466
50, -500.47, 7.07, 8.79, 7.26, 0.000, 0.000, 0.000, 15:43:36.466
51, 74.14, 5.74, 12.03, 16.61, 0.000, 0.000, 0.000, 15:43:36.487
52, 326.38, 8.84, 8.54, 11.91, 0.000, 0.000, 0.000, 15:43:36.488
53, -436.61, 9.80, 7.86, 8.20, 0.000, 0.000, 0.000, 15:43:36.489
54, -193.78, 4.15, 16.69, 14.80, 0.000, 0.000, 0.000, 15:43:36.489
55, 404.26, 6.51, 11.56, 12.15, 0.000, 0.000, 0.000, 15:43:36.510
56, -152.70, 10.79, 5.53, 10.03, 0.000, 0.000, 0.000, 15:43:36.510
57, -434.07, 4.20, 15.94, 16.64, 0.000, 0.000, 0.000, 15:43:36.510
58, 301.56, 5.97, 10.52, 16.35, 0.000, 0.000, 0.000, 15:43:36.510
59, 131.01, 12.76, 6.07, 8.88, 0.000, 0.000, 0.000, 15:43:36.533
60, -536.92, 13.16, 9.30, 9.50, 0.000, 0.000, 0.000, 15:43:36.534
61, 75.33, 0.70, 18.52, 20.63, 0.000, 0.000, 0.000, 15:43:36.534
62, 325.01, 8.42, 6.12, 7.47, 0.000, 0.000, 0.000, 15:43:36.535
63, -424.55, 13.61, 9.50, 7.43, 0.000, 0.000, 0.000, 15:43:36.555
64, -201.95, 4.13, 20.49, 17.27, 0.000, 0.000, 0.000, 15:43:36.555
65, 392.95, 5.17, 9.30, 13.71, 0.000, 0.000, 0.000, 15:43:36.555
66, -156.95, 13.70, 1.47, 7.25, 0.000, 0.000, 0.000, 15:43:36.556
67, -450.00, 6.14, 14.74, 10.89, 0.000, 0.000, 0.000, 15:43:36.556
68, 305.03, 7.65, 13.13, 14.85, 0.000, 0.000, 0.000, 15:43:36.556
69, 141.56, 19.96, 5.01, 9.19, 0.000, 0.000, 0.000, 15:43:36.577
70, -538.85, 8.36, 10.70, 20.46, 0.000, 0.000, 0.000, 15:43:36.578
71, 67.58, 2.72, 16.09, 16.60, 0.000, 0.000, 0.000, 15:43:36.578
72, 339.32, 14.08, 7.64, 10.88, 0.000, 0.000, 0.000, 15:43:36.578
73, -424.51, 12.70, 7.91, 3.68, 0.000, 0.000, 0.000, 15:43:36.600
74, -186.55, 0.51, 15.05, 17.30, 0.000, 0.000, 0.000, 15:43:36.600
75, 394.22, 5.93, 10.69, 15.22, 0.000, 0.000, 0.000, 15:43:36.600
76, -158.09, 15.27, 6.09, 3.97, 0.000, 0.000, 0.000, 15:43:36.601
77, -456.59, 5.51, 14.92, 17.04, 0.000, 0.000, 0.000, 15:43:36.622
78, 311.55, 9.26, 14.88, 14.70, 0.000, 0.000, 0.000, 15:43:36.623
79, 149.99, 6.39, 7.06, 9.10, 0.000, 0.000, 0.000, 15:43:36.623
80, -533.24, 9.23, 9.40, 9.53, 0.000, 0.000, 0.000, 15:43:36.623
81, 73.12, 1.72, 18.26, 18.94, 0.000, 0.000, 0.000, 15:43:36.645
82, 332.45, 6.37, 11.19, 12.51, 0.000, 0.000, 0.000, 15:43:36.645
83, -424.64, 10.85, 6.81, 8.79, 0.000, 0.000, 0.000, 15:43:36.646
84, -204.40, 3.96, 16.61, 16.69, 0.000, 0.000, 0.000, 15:43:36.646
85, 398.66, 12.09, 16.42, 13.35, 0.000, 0.000, 0.000, 15:43:36.646
86, -152.63, 16.05, 1.43, 2.55, 0.000, 0.000, 0.000, 15:43:36.647
87, -448.04, 8.52, 13.97, 18.25, 0.000, 0.000, 0.000, 15:43:36.667
88, 300.96, 1.43, 16.36, 16.83, 0.000, 0.000, 0.000, 15:43:36.667
89, 145.97, 14.48, 4.41, 4.35, 0.000, 0.000, 0.000, 15:43:36.668
90, -536.69, 6.02, 10.01, 11.04, 0.000, 0.000, 0.000, 15:43:36.668
91, 74.69, 0.36, 18.36, 14.49, 0.000, 0.000, 0.000, 15:43:36.690
92, 344.40, 5.77, 9.28, 11.05, 0.000, 0.000, 0.000, 15:43:36.692
93, -410.25, 15.37, 7.35, 8.47, 0.000, 0.000, 0.000, 15:43:36.692
94, -198.04, 1.01, 16.87, 15.29, 0.000, 0.000, 0.000, 15:43:36.692
95, 396.50, 5.88, 12.66, 10.16, 0.000, 0.000, 0.000, 15:43:36.712
96, -152.97, 20.88, 6.81, 5.37, 0.000, 0.000, 0.000, 15:43:36.712
97, -445.88, 2.01, 17.44, 15.47, 0.000, 0.000, 0.000, 15:43:36.713
98, 279.41, 6.89, 13.24, 15.15, 0.000, 0.000, 0.000, 15:43:36.713
99, 130.66, 8.79, 5.72, 9.28, 0.000, 0.000, 0.000, 15:43:36.735
100, -526.27, 12.94, 10.03, 7.77, 0.000, 0.000, 0.000, 15:43:36.735
101, 85.86, 3.39, 14.51, 16.32, 0.000, 0.000, 0.000, 15:43:36.735
102, 324.51, 13.73, 10.02, 10.81, 0.000, 0.000, 0.000, 15:43:36.736
103, -423.27, 15.13, 6.46, 7.12, 0.000, 0.000, 0.000, 15:43:36.736
104, -209.11, 2.77, 15.20, 17.09, 0.000, 0.000, 0.000, 15:43:36.736
105, 392.89, 11.46, 12.50, 9.68, 0.000, 0.000, 0.000, 15:43:36.758
106, -148.58, 11.50, 3.76, 9.97, 0.000, 0.000, 0.000, 15:43:36.758
107, -448.83, 4.73, 14.58, 15.85, 0.000, 0.000, 0.000, 15:43:36.758
108, 284.57, 7.17, 13.97, 13.17, 0.000, 0.000, 0.000, 15:43:36.759
109, 132.28, 11.31, 3.74, 8.80, 0.000, 0.000, 0.000, 15:43:36.780
110, -493.36, 8.79, 12.48, 16.24, 0.000, 0.000, 0.000, 15:43:36.781
111, 90.50, 5.43, 16.02, 19.95, 0.000, 0.000, 0.000, 15:43:36.781
112, 334.78, 8.93, 9.90, 10.92, 0.000, 0.000, 0.000, 15:43:36.781
113, -426.86, 11.17, 6.22, 8.23, 0.000, 0.000, 0.000, 15:43:36.802
114, -206.45, 6.16, 17.89, 18.94, 0.000, 0.000, 0.000, 15:43:36.802
115, 372.61, 3.45, 10.57, 11.35, 0.000, 0.000, 0.000, 15:43:36.803
116, -147.54, 14.37, 6.67, 4.11, 0.000, 0.000, 0.000, 15:43:36.803
117, -435.57, 7.27, 15.91, 15.11, 0.000, 0.000, 0.000, 15:43:36.825
118, 307.71, 5.69, 12.65, 19.54, 0.000, 0.000, 0.000, 15:43:36.825
119, 124.04, 11.56, 8.14, 7.74, 0.000, 0.000, 0.000, 15:43:36.826
120, -557.56, 10.65, 7.62, 7.56, 0.000, 0.000, 0.000, 15:43:36.826
121, 77.77, 0.91, 14.36, 18.22, 0.000, 0.000, 0.000, 15:43:36.827
122, 348.08, 6.36, 13.24, 8.33, 0.000, 0.000, 0.000, 15:43:36.827
123, -424.02, 16.34, 8.49, 6.40, 0.000, 0.000, 0.000, 15:43:36.847
124, -193.97, 1.54, 13.24, 15.74, 0.000, 0.000, 0.000, 15:43:36.848
125, 390.87, 10.34, 12.03, 16.09, 0.000, 0.000, 0.000, 15:43:36.848
126, -158.41, 16.18, 3.12, 3.62, 0.000, 0.000, 0.000, 15:43:36.848
127, -418.62, 5.15, 15.85, 12.23, 0.000, 0.000, 0.000, 15:43:36.870
128, 327.24, 6.60, 14.00, 10.20, 0.000, 0.000, 0.000, 15:43:36.870
129, 137.62, 12.49, 3.88, 8.43, 0.000, 0.000, 0.000, 15:43:36.870
130, -536.63, 8.60, 11.33, 8.72, 0.000, 0.000, 0.000, 15:43:36.871
131, 51.04, 3.64, 10.21, 17.72, 0.000, 0.000, 0.000, 15:43:36.892
132, 315.61, 11.91, 8.63, 8.48, 0.000, 0.000, 0.000, 15:43:36.893
133, -388.28, 8.07, 4.18, 8.55, 0.000, 0.000, 0.000, 15:43:36.894
134, -193.93, 1.60, 16.38, 16.52, 0.000, 0.000, 0.000, 15:43:36.894
135, 371.72, 7.66, 14.52, 11.93, 0.000, 0.000, 0.000, 15:43:36.915
136, -156.73, 16.28, 4.05, 4.93, 0.000, 0.000, 0.000, 15:43:36.915
137, -432.88, 4.16, 14.35, 17.87, 0.000, 0.000, 0.000, 15:43:36.937
138, 293.42, 3.95, 13.83, 12.96, 0.000, 0.000, 0.000, 15:43:36.937
139, 140.68, 12.56, 7.37, 10.14, 0.000, 0.000, 0.000, 15:43:36.938
140, -534.24, 7.92, 7.78, 10.96, 0.000, 0.000, 0.000, 15:43:36.938
141, 83.99, -1.40, 15.78, 16.31, 0.000, 0.000, 0.000, 15:43:36.939
142, 343.60, 14.19, 10.09, 10.79, 0.000, 0.000, 0.000, 15:43:36.939
143, -423.04, 11.69, 5.49, 5.20, 0.000, 0.000, 0.000, 15:43:36.960
144, -209.25, 1.34, 19.27, 14.05, 0.000, 0.000, 0.000, 15:43:36.960
145, 395.31, 10.69, 13.21, 13.22, 0.000, 0.000, 0.000, 15:43:36.961
146, -153.13, 16.54, 4.66, 3.62, 0.000, 0.000, 0.000, 15:43:36.961
147, -450.11, 2.82, 15.56, 17.57, 0.000, 0.000, 0.000, 15:43:36.961
148, 302.58, 2.02, 11.84, 13.51, 0.000, 0.000, 0.000, 15:43:36.961
149, 106.21, 14.55, 9.94, 7.49, 0.000, 0.000, 0.000, 15:43:36.982
150, -541.74, 14.49, 10.44, 12.54, 0.000, 0.000, 0.000, 15:43:36.983
151, 63.68, -0.30, 15.04, 17.74, 0.000, 0.000, 0.000, 15:43:36.983
152, 352.32, 12.07, 7.09, 12.01, 0.000, 0.000, 0.000, 15:43:36.983
153, -403.13, 16.08, 6.93, 7.63, 0.000, 0.000, 0.000, 15:43:37.005
154, -212.00, 2.08, 17.94, 18.28, 0.000, 0.000, 0.000, 15:43:37.005
155, 384.23, 3.21, 12.00, 14.73, 0.000, 0.000, 0.000, 15:43:37.005
156, -158.99, 14.52, 2.41, 5.14, 0.000, 0.000, 0.000, 15:43:37.005
157, -414.49, 0.33, 18.29, 16.09, 0.000, 0.000, 0.000, 15:43:37.006
158, 299.58, 7.07, 14.22, 16.77, 0.000, 0.000, 0.000, 15:43:37.006
159, 137.70, 16.82, 6.71, 8.92, 0.000, 0.000, 0.000, 15:43:37.027
160, -509.35, 9.65, 12.34, 7.78, 0.000, 0.000, 0.000, 15:43:37.028
161, 112.31, 0.93, 19.56, 16.57, 0.000, 0.000, 0.000, 15:43:37.028
162, 350.28, 4.56, 10.76, 10.31, 0.000, 0.000, 0.000, 15:43:37.028
163, -398.37, 12.47, 4.18, 3.94, 0.000, 0.000, 0.000, 15:43:37.050
164, -168.62, 2.32, 16.95, 18.59, 0.000, 0.000, 0.000, 15:43:37.050
165, 388.48, 6.43, 9.65, 13.52, 0.000, 0.000, 0.000, 15:43:37.050
166, -189.69, 15.70, 3.48, 7.27, 0.000, 0.000, 0.000, 15:43:37.050
167, -482.60, 5.38, 16.69, 12.78, 0.000, 0.000, 0.000, 15:43:37.072
168, 300.87, 11.72, 15.40, 16.24, 0.000, 0.000, 0.000, 15:43:37.073
169, 133.99, 12.06, 5.72, 10.70, 0.000, 0.000, 0.000, 15:43:37.074
170, -568.30, 11.65, 10.07, 12.75, 0.000, 0.000, 0.000, 15:43:37.074
171, 47.85, 0.24, 16.78, 13.33, 0.000, 0.000, 0.000, 15:43:37.095
172, 319.46, 9.66, 7.72, 12.66, 0.000, 0.000, 0.000, 15:43:37.095
173, -424.33, 13.78, 2.83, 11.32, 0.000, 0.000, 0.000, 15:43:37.095
174, -196.13, 5.55, 18.30, 18.13, 0.000, 0.000, 0.000, 15:43:37.096
175, 397.52, 6.02, 14.29, 13.86, 0.000, 0.000, 0.000, 15:43:37.096
176, -160.09, 14.37, 3.55, 3.90, 0.000, 0.000, 0.000, 15:43:37.096
177, -447.20, 8.17, 12.11, 16.21, 0.000, 0.000, 0.000, 15:43:37.117
178, 329.30, -1.58, 17.67, 14.48, 0.000, 0.000, 0.000, 15:43:37.118
179, 127.26, 12.99, 9.53, 10.85, 0.000, 0.000, 0.000, 15:43:37.118
180, -531.97, 8.40, 10.29, 11.42, 0.000, 0.000, 0.000, 15:43:37.118
181, 98.13, 7.40, 20.14, 11.20, 0.000, 0.000, 0.000, 15:43:37.140
182, 349.91, 6.85, 7.93, 9.42, 0.000, 0.000, 0.000, 15:43:37.140
183, -424.35, 14.94, 6.62, 0.89, 0.000, 0.000, 0.000, 15:43:37.141
184, -200.40, 3.90, 13.82, 15.18, 0.000, 0.000, 0.000, 15:43:37.141
185, 377.86, 7.09, 16.00, 14.89, 0.000, 0.000, 0.000, 15:43:37.163
186, -152.57, 17.71, 0.37, 7.98, 0.000, 0.000, 0.000, 15:43:37.163
187, -421.07, -1.02, 14.86, 14.23, 0.000, 0.000, 0.000, 15:43:37.163
188, 316.36, 6.51, 15.24, 16.13, 0.000, 0.000, 0.000, 15:43:37.164
189, 123.04, 11.06, 3.68, 2.52, 0.000, 0.000, 0.000, 15:43:37.185
190, -541.62, 13.29, 11.41, 6.97, 0.000, 0.000, 0.000, 15:43:37.186
191, 64.08, 4.75, 15.28, 15.83, 0.000, 0.000, 0.000, 15:43:37.186
192, 331.11, 11.81, 6.51, 9.44, 0.000, 0.000, 0.000, 15:43:37.186
193, -381.66, 12.65, 3.64, 10.43, 0.000, 0.000, 0.000, 15:43:37.188
194, -175.90, 2.19, 18.19, 18.76, 0.000, 0.000, 0.000, 15:43:37.188
195, 386.54, 7.09, 10.11, 14.64, 0.000, 0.000, 0.000, 15:43:37.207
196, -171.21, 11.74, 7.72, 8.05, 0.000, 0.000, 0.000, 15:43:37.208
197, -434.39, 4.18, 16.34, 18.01, 0.000, 0.000, 0.000, 15:43:37.208
198, 323.01, 4.61, 14.20, 14.28, 0.000, 0.000, 0.000, 15:43:37.208
199, 148.37, 8.66, 4.50, 8.13, 0.000, 0.000, 0.000, 15:43:37.230
200, -516.65, 6.11, 9.82, 12.64, 0.000, 0.000, 0.000, 15:43:37.231
0, 77.20, 4.08, 15.50, 16.44, 0.000, 0.000, 0.000, 15:43:37.231
1, 305.51, 10.54, 7.83, 11.25, 0.000, 0.000, 0.000, 15:43:37.231
2, -407.52, 12.78, 11.08, 7.28, 0.000, 0.000, 0.000, 15:43:37.231
3, -195.00, 4.69, 17.46, 17.26, 0.000, 0.000, 0.000, 15:43:37.252
4, 375.27, 6.06, 10.60, 16.32, 0.000, 0.000, 0.000, 15:43:37.253
5, -152.76, 15.75, 1.79, 9.50, 0.000, 0.000, 0.000, 15:43:37.253
6, -418.94, 4.48, 17.99, 19.79, 0.000, 0.000, 0.000, 15:43:37.253
7, 310.11, 5.45, 16.13, 12.59, 0.000, 0.000, 0.000, 15:43:37.275
8, 136.41, 9.53, 5.07, 8.40, 0.000, 0.000, 0.000, 15:43:37.275
9, -508.45, 9.87, 10.95, 12.30, 0.000, 0.000, 0.000, 15:43:37.275
10, 88.19, 2.72, 15.59, 17.31, 0.000, 0.000, 0.000, 15:43:37.276
11, 355.74, 11.09, 6.87, 7.15, 0.000, 0.000, 0.000, 15:43:37.299
12, -418.59, 17.39, 2.60, 4.89, 0.000, 0.000, 0.000, 15:43:37.299
13, -216.15, -2.48, 19.79, 17.90, 0.000, 0.000, 0.000, 15:43:37.299
14, 424.34, 8.80, 11.45, 14.67, 0.000, 0.000, 0.000, 15:43:37.300
15, -147.00, 16.32, 6.65, 7.98, 0.000, 0.000, 0.000, 15:43:37.320
16, -434.38, 5.92, 14.65, 13.53, 0.000, 0.000, 0.000, 15:43:37.320
17, 278.47, 9.57, 12.48, 14.36, 0.000, 0.000, 0.000, 15:43:37.320
18, 117.61, 14.95, 5.73, 9.60, 0.000, 0.000, 0.000, 15:43:37.321
19, -528.11, 8.15, 8.90, 13.59, 0.000, 0.000, 0.000, 15:43:37.321
20, 60.06, 3.20, 14.93, 15.85, 0.000, 0.000, 0.000, 15:43:37.321
21, 342.46, 11.90, 7.88, 9.40, 0.000, 0.000, 0.000, 15:43:37.343
22, -411.72, 11.23, 7.85, 8.60, 0.000, 0.000, 0.000, 15:43:37.343
23, -205.34, -3.03, 21.23, 15.98, 0.000, 0.000, 0.000, 15:43:37.343
24, 368.26, 8.77, 13.26, 13.27, 0.000, 0.000, 0.000, 15:43:37.343
25, -183.07, 18.76, 4.52, 2.89, 0.000, 0.000, 0.000, 15:43:37.365
26, -425.85, 2.44, 14.17, 17.12, 0.000, 0.000, 0.000, 15:43:37.365
27, 299.58, 9.78, 15.29, 14.90, 0.000, 0.000, 0.000, 15:43:37.365
28, 123.29, 12.19, 8.42, 8.65, 0.000, 0.000, 0.000, 15:43:37.366
29, -504.56, 7.88, 13.32, 11.73, 0.000, 0.000, 0.000, 15:43:37.387
30, 80.73, 6.36, 11.95, 17.01, 0.000, 0.000, 0.000, 15:43:37.387
31, 288.57, 6.81, 10.28, 10.79, 0.000, 0.000, 0.000, 15:43:37.388
32, -430.71, 13.24, 6.14, 9.10, 0.000, 0.000, 0.000, 15:43:37.388
33, -192.23, 1.52, 17.68, 15.67, 0.000, 0.000, 0.000, 15:43:37.410
34, 353.80, 6.23, 7.13, 10.94, 0.000, 0.000, 0.000, 15:43:37.410
35, -174.45, 16.37, 2.25, 7.20, 0.000, 0.000, 0.000, 15:43:37.410
36, -449.62, 4.38, 12.59, 14.29, 0.000, 0.000, 0.000, 15:43:37.410
37, 300.01, 3.87, 12.94, 13.61, 0.000, 0.000, 0.000, 15:43:37.411
38, 142.75, 12.87, 9.18, 4.29, 0.000, 0.000, 0.000, 15:43:37.411
39, -561.47, 12.77, 9.86, 11.09, 0.000, 0.000, 0.000, 15:43:37.433
40, 47.17, 2.51, 15.97, 18.01, 0.000, 0.000, 0.000, 15:43:37.433
41, 318.42, 7.71, 10.52, 11.43, 0.000, 0.000, 0.000, 15:43:37.433
42, -401.03, 12.92, 9.85, 3.51, 0.000, 0.000, 0.000, 15:43:37.433
43, -172.10, 3.05, 16.77, 19.03, 0.000, 0.000, 0.000, 15:43:37.455
44, 415.82, 8.24, 11.80, 12.12, 0.000, 0.000, 0.000, 15:43:37.455
45, -206.58, 18.23, 2.71, 5.14, 0.000, 0.000, 0.000, 15:43:37.456
46, -478.40, 5.00, 14.30, 17.16, 0.000, 0.000, 0.000, 15:43:37.456
47, 308.42, 3.15, 15.14, 14.52, 0.000, 0.000, 0.000, 15:43:37.477
48, 122.23, 16.36, 3.64, 8.50, 0.000, 0.000, 0.000, 15:43:37.477
49, -461.42, 7.82, 5.91, 10.34, 0.000, 0.000, 0.000, 15:43:37.478
50, 134.18, 2.97, 18.78, 18.40, 0.000, 0.000, 0.000, 15:43:37.478
51, 353.48, 12.19, 10.07, 10.65, 0.000, 0.000, 0.000, 15:43:37.500
52, -442.21, 9.40, 4.99, 4.99, 0.000, 0.000, 0.000, 15:43:37.500
53, -216.33, 1.88, 15.36, 15.35, 0.000, 0.000, 0.000, 15:43:37.500
54, 385.50, 11.11, 10.50, 9.09, 0.000, 0.000, 0.000, 15:43:37.500
55, -193.05, 10.30, 6.36, 5.83, 0.000, 0.000, 0.000, 15:43:37.501
56, -459.59, 1.69, 14.59, 14.69, 0.000, 0.000, 0.000, 15:43:37.501
57, 297.51, 12.37, 11.90, 15.23, 0.000, 0.000, 0.000, 15:43:37.523
58, 69.41, 6.13, 8.15, 4.58, 0.000, 0.000, 0.000, 15:43:37.523
59, -547.54, 10.08, 9.51, 11.90, 0.000, 0.000, 0.000, 15:43:37.523
60, 130.84, 3.77, 19.99, 17.30, 0.000, 0.000, 0.000, 15:43:37.524
61, 331.31, 15.35, 7.34, 10.00, 0.000, 0.000, 0.000, 15:43:37.545
62, -429.65, 17.41, 4.76, 10.16, 0.000, 0.000, 0.000, 15:43:37.545
63, -191.10, 1.62, 19.31, 15.52, 0.000, 0.000, 0.000, 15:43:37.546
64, 390.88, 3.49, 13.02, 12.43, 0.000, 0.000, 0.000, 15:43:37.546
65, -184.68, 12.95, 4.49, 4.25, 0.000, 0.000, 0.000, 15:43:37.567
66, -431.57, 6.91, 16.90, 17.89, 0.000, 0.000, 0.000, 15:43:37.567
67, 389.33, 0.61, 17.47, 16.62, 0.000, 0.000, 0.000, 15:43:37.568
68, 170.13, 12.79, 6.48, 6.18, 0.000, 0.000, 0.000, 15:43:37.568
69, -548.58, 8.05, 11.55, 8.48, 0.000, 0.000, 0.000, 15:43:37.590
70, 74.54, 4.76, 15.58, 16.73, 0.000, 0.000, 0.000, 15:43:37.590
71, 292.30, 11.63, 7.31, 11.19, 0.000, 0.000, 0.000, 15:43:37.591
72, -469.23, 12.21, 6.84, 12.31, 0.000, 0.000, 0.000, 15:43:37.591
73, -188.35, 3.01, 17.17, 13.85, 0.000, 0.000, 0.000, 15:43:37.594
74, 428.60, 6.84, 14.54, 14.00, 0.000, 0.000, 0.000, 15:43:37.594
75, -171.50, 15.59, 5.71, 5.66, 0.000, 0.000, 0.000, 15:43:37.613
76, -486.38, 1.62, 16.42, 15.89, 0.000, 0.000, 0.000, 15:43:37.614
77, 327.05, 5.37, 12.17, 14.07, 0.000, 0.000, 0.000, 15:43:37.614
78, 115.72, 14.01, 8.16, 8.39, 0.000, 0.000, 0.000, 15:43:37.615
79, -577.33, 9.93, 9.79, 7.23, 0.000, 0.000, 0.000, 15:43:37.635
80, 98.21, -2.20, 13.49, 18.72, 0.000, 0.000, 0.000, 15:43:37.635
81, 306.80, 8.99, 8.75, 13.77, 0.000, 0.000, 0.000, 15:43:37.635
82, -441.98, 13.00, 3.92, 5.65, 0.000, 0.000, 0.000, 15:43:37.635
83, -96.23, 0.99, 14.98, 19.49, 0.000, 0.000, 0.000, 15:43:37.657
84, 428.75, 15.04, 12.21, 18.18, 0.000, 0.000, 0.000, 15:43:37.657
85, -150.13, 11.65, 4.66, 7.95, 0.000, 0.000, 0.000, 15:43:37.658
86, -444.37, 7.06, 15.90, 19.25, 0.000, 0.000, 0.000, 15:43:37.658
87, 259.84, 4.24, 14.06, 15.32, 0.000, 0.000, 0.000, 15:43:37.680
88, 118.57, 14.16, 4.66, 3.32, 0.000, 0.000, 0.000, 15:43:37.680
89, -455.62, 4.61, 11.40, 11.79, 0.000, 0.000, 0.000, 15:43:37.680
90, 74.77, 3.35, 18.24, 14.40, 0.000, 0.000, 0.000, 15:43:37.681
91, 283.59, 8.21, 9.26, 7.93, 0.000, 0.000, 0.000, 15:43:37.681
92, -445.42, 12.22, 7.96, 6.80, 0.000, 0.000, 0.000, 15:43:37.681
93, -158.74, 6.59, 16.31, 16.10, 0.000, 0.000, 0.000, 15:43:37.703
94, 363.53, 3.71, 10.39, 13.54, 0.000, 0.000, 0.000, 15:43:37.703
95, -173.92, 14.38, 2.69, 7.52, 0.000, 0.000, 0.000, 15:43:37.703
96, -404.24, 5.45, 15.13, 11.23, 0.000, 0.000, 0.000, 15:43:37.703
97, 279.43, 5.11, 15.30, 17.17, 0.000, 0.000, 0.000, 15:43:37.725
98, 110.71, 13.64, 9.29, 10.89, 0.000, 0.000, 0.000, 15:43:37.725
99, -505.44, 10.90, 12.14, 14.33, 0.000, 0.000, 0.000, 15:43:37.725
100, 120.77, 0.20, 15.92, 16.66, 0.000, 0.000, 0.000, 15:43:37.726
101, 328.30, 10.60, 6.84, 11.92, 0.000, 0.000, 0.000, 15:43:37.748
102, -597.87, 18.38, 4.60, 3.74, 0.000, 0.000, 0.000, 15:43:37.748
103, -163.50, -2.16, 15.51, 16.31, 0.000, 0.000, 0.000, 15:43:37.748
104, 515.93, 3.61, 11.87, 14.45, 0.000, 0.000, 0.000, 15:43:37.748
105, -223.42, 15.49, 3.24, 12.81, 0.000, 0.000, 0.000, 15:43:37.770
106, -511.32, 7.02, 17.75, 12.70, 0.000, 0.000, 0.000, 15:43:37.770
107, 384.14, 3.06, 14.59, 10.70, 0.000, 0.000, 0.000, 15:43:37.771
108, 182.82, 15.31, 6.45, 9.96, 0.000, 0.000, 0.000, 15:43:37.771
109, -521.20, 9.96, 10.50, 11.04, 0.000, 0.000, 0.000, 15:43:37.771
110, 90.48, 6.08, 14.28, 16.19, 0.000, 0.000, 0.000, 15:43:37.771
111, 299.88, 12.18, 10.44, 14.12, 0.000, 0.000, 0.000, 15:43:37.792
112, -413.01, 9.88, 3.89, 5.46, 0.000, 0.000, 0.000, 15:43:37.793
113, -132.85, 1.74, 19.74, 17.12, 0.000, 0.000, 0.000, 15:43:37.793
114, 414.21, 7.51, 13.72, 9.88, 0.000, 0.000, 0.000, 15:43:37.794
115, -171.69, 15.46, 3.89, 1.19, 0.000, 0.000, 0.000, 15:43:37.815
116, -495.63, 3.79, 15.96, 15.11, 0.000, 0.000, 0.000, 15:43:37.815
117, 191.79, 8.27, 13.33, 11.65, 0.000, 0.000, 0.000, 15:43:37.815
118, 0.62, 11.69, 6.50, 12.24, 0.000, 0.000, 0.000, 15:43:37.815
119, -530.23, 11.74, 7.40, 10.46, 0.000, 0.000, 0.000, 15:43:37.837
120, 180.29, 7.45, 14.98, 17.86, 0.000, 0.000, 0.000, 15:43:37.838
121, 465.68, 4.32, 7.61, 8.17, 0.000, 0.000, 0.000, 15:43:37.838
122, -355.25, 15.93, 5.79, 8.75, 0.000, 0.000, 0.000, 15:43:37.838
123, -304.33, 4.79, 13.99, 17.36, 0.000, 0.000, 0.000, 15:43:37.860
124, 362.72, 5.95, 13.56, 12.21, 0.000, 0.000, 0.000, 15:43:37.860
125, -109.19, 12.48, 5.91, 5.99, 0.000, 0.000, 0.000, 15:43:37.860
126, -329.80, 6.51, 16.47, 15.67, 0.000, 0.000, 0.000, 15:43:37.860
127, 337.85, 4.46, 11.99, 12.75, 0.000, 0.000, 0.000, 15:43:37.861
128, 74.23, 7.54, 8.46, 5.18, 0.000, 0.000, 0.000, 15:43:37.861
129, -583.76, 12.98, 12.96, 9.96, 0.000, 0.000, 0.000, 15:43:37.882
130, 23.25, 1.78, 14.25, 14.94, 0.000, 0.000, 0.000, 15:43:37.883
131, 338.27, 10.25, 5.17, 9.81, 0.000, 0.000, 0.000, 15:43:37.883
132, -383.39, 15.93, 8.12, 5.61, 0.000, 0.000, 0.000, 15:43:37.883
133, -154.50, 4.02, 19.23, 17.31, 0.000, 0.000, 0.000, 15:43:37.905
134, 315.62, 5.42, 14.12, 13.67, 0.000, 0.000, 0.000, 15:43:37.905
135, -335.91, 15.14, 5.13, 10.96, 0.000, 0.000, 0.000, 15:43:37.906
136, -459.78, 5.16, 17.27, 15.63, 0.000, 0.000, 0.000, 15:43:37.906
137, 373.33, 3.80, 15.53, 17.13, 0.000, 0.000, 0.000, 15:43:37.927
138, 231.60, 21.09, 6.46, 7.06, 0.000, 0.000, 0.000, 15:43:37.928
139, -432.13, 4.05, 10.13, 7.72, 0.000, 0.000, 0.000, 15:43:37.928
140, 138.75, -1.10, 15.32, 17.49, 0.000, 0.000, 0.000, 15:43:37.928
141, 323.14, 7.75, 6.20, 10.80, 0.000, 0.000, 0.000, 15:43:37.950
142, -539.91, 10.37, 1.43, 7.25, 0.000, 0.000, 0.000, 15:43:37.950
143, -216.71, 3.23, 14.79, 17.16, 0.000, 0.000, 0.000, 15:43:37.950
144, 461.49, 10.38, 14.37, 14.29, 0.000, 0.000, 0.000, 15:43:37.951
145, -105.00, 16.28, 6.86, 7.24, 0.000, 0.000, 0.000, 15:43:37.951
146, -433.84, 6.25, 14.79, 12.72, 0.000, 0.000, 0.000, 15:43:37.951
147, 272.43, 7.42, 18.03, 15.36, 0.000, 0.000, 0.000, 15:43:37.972
148, 73.35, 13.15, 6.92, 9.88, 0.000, 0.000, 0.000, 15:43:37.972
149, -671.83, 9.57, 9.54, 9.84, 0.000, 0.000, 0.000, 15:43:37.973
150, 87.82, 3.21, 16.52, 16.58, 0.000, 0.000, 0.000, 15:43:37.973
151, 384.37, 10.62, 10.57, 8.11, 0.000, 0.000, 0.000, 15:43:37.995
152, -417.66, 13.22, 5.33, 4.73, 0.000, 0.000, 0.000, 15:43:37.995
153, -156.24, 2.12, 14.56, 15.97, 0.000, 0.000, 0.000, 15:43:37.995
154, 432.61, 6.67, 6.74, 16.48, 0.000, 0.000, 0.000, 15:43:37.995
155, -105.03, 11.58, 4.35, 6.97, 0.000, 0.000, 0.000, 15:43:38.017
156, -414.73, 9.25, 13.83, 20.37, 0.000, 0.000, 0.000, 15:43:38.018
157, 289.66, 2.76, 15.23, 14.49, 0.000, 0.000, 0.000, 15:43:38.018
158, 191.56, 14.36, 8.19, 6.37, 0.000, 0.000, 0.000, 15:43:38.018
159, -421.65, 7.25, 11.75, 6.19, 0.000, 0.000, 0.000, 15:43:38.040
160, 115.32, 3.99, 19.08, 17.41, 0.000, 0.000, 0.000, 15:43:38.040
161, 186.41, 7.97, 8.36, 10.24, 0.000, 0.000, 0.000, 15:43:38.040
162, -658.33, 14.12, 7.14, 4.06, 0.000, 0.000, 0.000, 15:43:38.041
163, -108.97, 3.79, 18.94, 18.96, 0.000, 0.000, 0.000, 15:43:38.041
164, 390.35, 9.88, 10.05, 19.66, 0.000, 0.000, 0.000, 15:43:38.041
165, -300.57, 19.72, 3.43, 6.29, 0.000, 0.000, 0.000, 15:43:38.063
166, -449.42, 0.86, 12.25, 11.21, 0.000, 0.000, 0.000, 15:43:38.063
167, 300.56, 3.71, 13.82, 15.00, 0.000, 0.000, 0.000, 15:43:38.085
168, 200.72, 9.12, 10.51, 10.33, 0.000, 0.000, 0.000, 15:43:38.085
169, -496.54, 7.35, 10.00, 9.87, 0.000, 0.000, 0.000, 15:43:38.086
170, 166.40, 5.28, 17.49, 18.34, 0.000, 0.000, 0.000, 15:43:38.086
171, 327.10, 10.18, 8.35, 9.73, 0.000, 0.000, 0.000, 15:43:38.086
172, -317.48, 12.77, 6.97, 8.96, 0.000, 0.000, 0.000, 15:43:38.086
173, -145.72, 5.87, 17.18, 13.51, 0.000, 0.000, 0.000, 15:43:38.107
174, 347.99, 7.43, 10.71, 10.19, 0.000, 0.000, 0.000, 15:43:38.107
175, -196.38, 10.88, 0.64, 7.49, 0.000, 0.000, 0.000, 15:43:38.108
176, -506.43, 3.15, 13.36, 18.19, 0.000, 0.000, 0.000, 15:43:38.108
177, 219.45, 4.59, 13.71, 14.29, 0.000, 0.000, 0.000, 15:43:38.130
178, 119.28, 13.32, 8.02, 9.54, 0.000, 0.000, 0.000, 15:43:38.130
179, -563.28, 6.41, 10.07, 9.56, 0.000, 0.000, 0.000, 15:43:38.131
180, 97.05, 6.69, 14.50, 16.06, 0.000, 0.000, 0.000, 15:43:38.131
181, 407.54, 8.91, 10.79, 10.99, 0.000, 0.000, 0.000, 15:43:38.131
182, -345.20, 12.23, 3.47, 6.10, 0.000, 0.000, 0.000, 15:43:38.132
183, -219.25, 7.17, 16.70, 15.50, 0.000, 0.000, 0.000, 15:43:38.152
184, 301.14, 3.43, 12.93, 12.79, 0.000, 0.000, 0.000, 15:43:38.153
185, -240.32, 17.18, 3.22, 6.09, 0.000, 0.000, 0.000, 15:43:38.153
186, -370.68, 3.32, 16.13, 11.90, 0.000, 0.000, 0.000, 15:43:38.153
187, 527.89, 6.12, 16.57, 14.97, 0.000, 0.000, 0.000, 15:43:38.175
188, 189.13, 13.05, 8.44, 12.86, 0.000, 0.000, 0.000, 15:43:38.175
189, -575.39, 9.15, 8.83, 11.25, 0.000, 0.000, 0.000, 15:43:38.175
190, -11.06, 0.87, 18.36, 16.86, 0.000, 0.000, 0.000, 15:43:38.176
191, 266.38, 4.29, 12.12, 10.04, 0.000, 0.000, 0.000, 15:43:38.197
192, -403.99, 16.24, 6.43, 5.98, 0.000, 0.000, 0.000, 15:43:38.198
193, -61.97, 0.33, 16.93, 16.11, 0.000, 0.000, 0.000, 15:43:38.198
194, 422.94, 9.07, 11.34, 12.66, 0.000, 0.000, 0.000, 15:43:38.198
195, -218.84, 13.94, 3.90, 7.62, 0.000, 0.000, 0.000, 15:43:38.220
196, -552.69, 6.98, 11.82, 14.85, 0.000, 0.000, 0.000, 15:43:38.220
197, 254.11, 8.93, 13.07, 10.39, 0.000, 0.000, 0.000, 15:43:38.221
198, 102.99, 16.75, 6.85, 11.17, 0.000, 0.000, 0.000, 15:43:38.221
199, -300.74, 11.27, 13.08, 11.90, 0.000, 0.000, 0.000, 15:43:38.221
200, 235.54, 4.98, 12.29, 18.59, 0.000, 0.000, 0.000, 15:43:38.221
0, 211.95, 9.91, 8.51, 11.37, 0.000, 0.000, 0.000, 15:43:38.242
1, -539.75, 9.42, 6.73, 10.63, 0.000, 0.000, 0.000, 15:43:38.243
2, -349.76, 1.77, 15.27, 17.21, 0.000, 0.000, 0.000, 15:43:38.243
3, 302.76, 8.62, 16.05, 12.24, 0.000, 0.000, 0.000, 15:43:38.265
4, 41.11, 17.10, 6.86, 6.51, 0.000, 0.000, 0.000, 15:43:38.265
5, -447.60, 0.36, 15.06, 15.43, 0.000, 0.000, 0.000, 15:43:38.268
6, 423.13, 3.51, 11.77, 10.44, 0.000, 0.000, 0.000, 15:43:38.269
7, 315.81, 10.30, 2.80, 7.98, 0.000, 0.000, 0.000, 15:43:38.269
8, -476.52, 13.95, 9.12, 11.49, 0.000, 0.000, 0.000, 15:43:38.269
9, -21.25, 5.73, 16.84, 19.13, 0.000, 0.000, 0.000, 15:43:38.287
10, 251.69, 9.20, 10.77, 11.36, 0.000, 0.000, 0.000, 15:43:38.288
11, -457.69, 10.71, 3.53, 5.55, 0.000, 0.000, 0.000, 15:43:38.288
12, -132.59, 1.44, 15.66, 17.02, 0.000, 0.000, 0.000, 15:43:38.288
13, 342.17, 5.64, 14.54, 14.45, 0.000, 0.000, 0.000, 15:43:38.310
14, -291.47, 7.84, 4.60, 10.48, 0.000, 0.000, 0.000, 15:43:38.310
15, -497.67, 2.46, 14.46, 15.59, 0.000, 0.000, 0.000, 15:43:38.310
16, 304.14, 3.50, 12.93, 15.79, 0.000, 0.000, 0.000, 15:43:38.311
17, 272.88, 10.78, 5.44, 4.66, 0.000, 0.000, 0.000, 15:43:38.332
18, -480.78, 13.03, 12.04, 7.47, 0.000, 0.000, 0.000, 15:43:38.332
19, 9.13, -0.07, 16.38, 15.88, 0.000, 0.000, 0.000, 15:43:38.333
20, 257.61, 7.43, 9.24, 10.63, 0.000, 0.000, 0.000, 15:43:38.333
21, -447.48, 14.30, 8.55, 4.04, 0.000, 0.000, 0.000, 15:43:38.355
22, 28.64, 1.69, 14.15, 21.94, 0.000, 0.000, 0.000, 15:43:38.355
23, 424.42, 10.17, 13.11, 9.50, 0.000, 0.000, 0.000, 15:43:38.356
24, -272.92, 19.11, 4.60, 11.15, 0.000, 0.000, 0.000, 15:43:38.356
25, -512.57, 5.02, 14.66, 15.01, 0.000, 0.000, 0.000, 15:43:38.356
26, 159.66, 6.39, 17.65, 15.09, 0.000, 0.000, 0.000, 15:43:38.356
27, 87.86, 15.45, 5.10, 7.22, 0.000, 0.000, 0.000, 15:43:38.377
28, -381.08, 6.60, 9.50, 11.54, 0.000, 0.000, 0.000, 15:43:38.378
29, 114.31, 2.57, 17.24, 18.42, 0.000, 0.000, 0.000, 15:43:38.378
30, 238.23, 12.93, 9.94, 10.71, 0.000, 0.000, 0.000, 15:43:38.378
31, -587.20, 7.85, 3.42, 8.95, 0.000, 0.000, 0.000, 15:43:38.400
32, -203.05, 4.44, 13.86, 16.11, 0.000, 0.000, 0.000, 15:43:38.400
33, 511.44, 10.45, 9.84, 8.44, 0.000, 0.000, 0.000, 15:43:38.400
34, -92.03, 15.38, 6.05, 7.89, 0.000, 0.000, 0.000, 15:43:38.400
35, -441.12, 5.41, 15.52, 15.52, 0.000, 0.000, 0.000, 15:43:38.422
36, 238.67, 9.04, 14.97, 10.83, 0.000, 0.000, 0.000, 15:43:38.422
37, 104.63, 5.44, 4.30, 8.27, 0.000, 0.000, 0.000, 15:43:38.423
38, -331.38, 7.94, 10.51, 7.91, 0.000, 0.000, 0.000, 15:43:38.423
39, 133.16, 4.84, 12.00, 14.52, 0.000, 0.000, 0.000, 15:43:38.445
40, 298.45, 13.96, 9.62, 15.05, 0.000, 0.000, 0.000, 15:43:38.445
41, -499.18, 9.35, 0.76, 9.69, 0.000, 0.000, 0.000, 15:43:38.445
42, -260.19, 2.21, 21.47, 18.38, 0.000, 0.000, 0.000, 15:43:38.446
43, 391.60, 3.71, 11.80, 12.47, 0.000, 0.000, 0.000, 15:43:38.447
44, -199.26, 15.97, 3.47, 2.26, 0.000, 0.000, 0.000, 15:43:38.447
45, -414.98, 8.65, 15.22, 14.70, 0.000, 0.000, 0.000, 15:43:38.467
46, 233.64, 4.59, 12.18, 16.21, 0.000, 0.000, 0.000, 15:43:38.468
47, 97.28, 14.63, 7.10, 7.97, 0.000, 0.000, 0.000, 15:43:38.468
48, -508.71, 8.81, 11.23, 12.14, 0.000, 0.000, 0.000, 15:43:38.468
49, 213.22, 1.78, 17.67, 15.99, 0.000, 0.000, 0.000, 15:43:38.490
50, 351.56, 12.73, 8.89, 15.74, 0.000, 0.000, 0.000, 15:43:38.490
51, -404.66, 15.19, 8.53, 6.70, 0.000, 0.000, 0.000, 15:43:38.490
52, -218.94, 0.27, 19.00, 13.89, 0.000, 0.000, 0.000, 15:43:38.490
53, 432.22, 7.44, 15.02, 11.47, 0.000, 0.000, 0.000, 15:43:38.512
54, -222.66, 18.60, 4.96, 3.82, 0.000, 0.000, 0.000, 15:43:38.512
55, -453.69, 0.05, 13.92, 17.47, 0.000, 0.000, 0.000, 15:43:38.513
56, 295.29, 8.46, 12.80, 10.53, 0.000, 0.000, 0.000, 15:43:38.513
57, 37.23, 11.19, 3.58, 10.46, 0.000, 0.000, 0.000, 15:43:38.535
58, -508.14, 8.25, 12.59, 12.08, 0.000, 0.000, 0.000, 15:43:38.535
59, 107.69, 2.95, 18.91, 16.02, 0.000, 0.000, 0.000, 15:43:38.536
60, 363.10, 12.92, 11.05, 12.31, 0.000, 0.000, 0.000, 15:43:38.536
61, -377.05, 11.56, 7.37, 7.77, 0.000, 0.000, 0.000, 15:43:38.536
62, -252.72, 6.30, 17.11, 11.29, 0.000, 0.000, 0.000, 15:43:38.537
63, 271.55, 9.80, 10.53, 12.91, 0.000, 0.000, 0.000, 15:43:38.567
64, -234.76, 11.92, 2.23, 3.52, 0.000, 0.000, 0.000, 15:43:38.567
65, -222.87, 7.58, 18.04, 20.40, 0.000, 0.000, 0.000, 15:43:38.567
66, 409.49, 4.89, 9.19, 14.07, 0.000, 0.000, 0.000, 15:43:38.568
67, 74.57, 8.44, 6.17, 6.28, 0.000, 0.000, 0.000, 15:43:38.580
68, -604.35, 9.43, 8.22, 14.68, 0.000, 0.000, 0.000, 15:43:38.580
69, 51.37, 0.19, 16.83, 15.44, 0.000, 0.000, 0.000, 15:43:38.580
70, 218.36, 12.15, 7.23, 13.35, 0.000, 0.000, 0.000, 15:43:38.580
71, -305.59, 14.33, 5.06, 5.22, 0.000, 0.000, 0.000, 15:43:38.602
72, -220.16, 4.64, 20.14, 15.89, 0.000, 0.000, 0.000, 15:43:38.603
73, 386.19, 2.72, 11.40, 14.44, 0.000, 0.000, 0.000, 15:43:38.603
74, -103.65, 12.55, 2.05, 4.20, 0.000, 0.000, 0.000, 15:43:38.603
75, -406.87, 4.53, 15.17, 15.73, 0.000, 0.000, 0.000, 15:43:38.625
76, 364.64, 7.08, 13.01, 15.95, 0.000, 0.000, 0.000, 15:43:38.625
77, 39.05, 10.99, 3.77, 8.29, 0.000, 0.000, 0.000, 15:43:38.625
78, -612.97, 13.37, 6.83, 6.38, 0.000, 0.000, 0.000, 15:43:38.625
79, 141.55, 2.96, 13.93, 16.61, 0.000, 0.000, 0.000, 15:43:38.626
80, 329.82, 10.49, 9.95, 11.16, 0.000, 0.000, 0.000, 15:43:38.626
81, -477.01, 10.91, 1.11, 4.16, 0.000, 0.000, 0.000, 15:43:38.647
82, -65.53, 1.16, 16.13, 16.95, 0.000, 0.000, 0.000, 15:43:38.647
83, 425.65, 8.19, 16.20, 12.20, 0.000, 0.000, 0.000, 15:43:38.648
84, -208.73, 14.75, 3.05, 6.62, 0.000, 0.000, 0.000, 15:43:38.648
85, -619.49, 3.61, 12.98, 13.56, 0.000, 0.000, 0.000, 15:43:38.670
86, 240.42, 6.28, 16.72, 12.45, 0.000, 0.000, 0.000, 15:43:38.670
87, 248.01, 12.63, 4.44, 8.56, 0.000, 0.000, 0.000, 15:43:38.671
88, -370.47, 9.67, 11.13, 9.84, 0.000, 0.000, 0.000, 15:43:38.671
89, 183.70, 5.62, 20.64, 14.92, 0.000, 0.000, 0.000, 15:43:38.692
90, 279.74, 19.08, 7.50, 8.13, 0.000, 0.000, 0.000, 15:43:38.692
91, -559.80, 6.99, 5.98, 10.30, 0.000, 0.000, 0.000, 15:43:38.693
92, -188.67, 2.79, 17.64, 18.22, 0.000, 0.000, 0.000, 15:43:38.693
93, 370.15, 6.65, 13.07, 12.97, 0.000, 0.000, 0.000, 15:43:38.715
94, -59.38, 16.94, 7.19, 7.51, 0.000, 0.000, 0.000, 15:43:38.715
95, -405.97, 3.34, 18.90, 14.85, 0.000, 0.000, 0.000, 15:43:38.716
96, 288.91, 2.97, 13.33, 13.42, 0.000, 0.000, 0.000, 15:43:38.716
97, -44.67, 9.99, 7.52, 9.05, 0.000, 0.000, 0.000, 15:43:38.716
98, -574.79, 6.36, 11.19, 10.85, 0.000, 0.000, 0.000, 15:43:38.716
99, 166.63, 6.82, 17.56, 15.27, 0.000, 0.000, 0.000, 15:43:38.737
100, 428.56, 5.74, 11.85, 9.94, 0.000, 0.000, 0.000, 15:43:38.738
101, -410.71, 13.06, 3.75, 11.29, 0.000, 0.000, 0.000, 15:43:38.738
102, -353.56, 1.53, 18.05, 17.33, 0.000, 0.000, 0.000, 15:43:38.738
103, 304.95, 8.83, 12.27, 14.27, 0.000, 0.000, 0.000, 15:43:38.760
104, -139.33, 15.21, 6.35, 4.67, 0.000, 0.000, 0.000, 15:43:38.760
105, -412.28, 4.57, 12.32, 16.66, 0.000, 0.000, 0.000, 15:43:38.761
106, 462.78, 2.70, 14.68, 17.26, 0.000, 0.000, 0.000, 15:43:38.761
107, 9.52, 12.19, 7.63, 7.50, 0.000, 0.000, 0.000, 15:43:38.782
108, -504.65, 9.50, 8.69, 9.50, 0.000, 0.000, 0.000, 15:43:38.782
109, 167.27, 0.70, 16.53, 18.57, 0.000, 0.000, 0.000, 15:43:38.783
110, 334.74, 10.43, 8.46, 9.46, 0.000, 0.000, 0.000, 15:43:38.783
111, -387.92, 11.33, 4.77, 7.28, 0.000, 0.000, 0.000, 15:43:38.805
112, -265.98, 2.07, 12.99, 14.23, 0.000, 0.000, 0.000, 15:43:38.805
113, 474.79, 7.17, 14.06, 12.89, 0.000, 0.000, 0.000, 15:43:38.806
114, -222.12, 12.44, 7.48, 4.49, 0.000, 0.000, 0.000, 15:43:38.806
115, -521.12, 5.16, 14.66, 18.15, 0.000, 0.000, 0.000, 15:43:38.807
116, 353.82, 6.81, 9.62, 15.76, 0.000, 0.000, 0.000, 15:43:38.807
117, 131.50, 18.93, 6.46, 9.04, 0.000, 0.000, 0.000, 15:43:38.827
118, -534.08, 5.19, 9.57, 14.19, 0.000, 0.000, 0.000, 15:43:38.827
119, 56.55, 3.95, 15.75, 13.09, 0.000, 0.000, 0.000, 15:43:38.828
120, 218.34, 8.95, 10.11, 11.49, 0.000, 0.000, 0.000, 15:43:38.828
121, -514.72, 13.01, 7.45, 4.56, 0.000, 0.000, 0.000, 15:43:38.850
122, 16.03, 4.40, 17.39, 16.35, 0.000, 0.000, 0.000, 15:43:38.850
123, 457.63, 7.18, 11.43, 12.67, 0.000, 0.000, 0.000, 15:43:38.850
124, -109.98, 14.57, 2.91, 8.14, 0.000, 0.000, 0.000, 15:43:38.850
125, -547.21, 2.87, 16.84, 16.12, 0.000, 0.000, 0.000, 15:43:38.872
126, 193.02, 12.45, 10.23, 12.20, 0.000, 0.000, 0.000, 15:43:38.872
127, 269.66, 11.75, 3.69, 4.62, 0.000, 0.000, 0.000, 15:43:38.873
128, -328.58, 13.26, 7.44, 8.47, 0.000, 0.000, 0.000, 15:43:38.873
129, 39.75, 3.27, 14.68, 17.58, 0.000, 0.000, 0.000, 15:43:38.895
130, 201.02, 13.07, 6.88, 9.69, 0.000, 0.000, 0.000, 15:43:38.895
131, -554.17, 9.52, 2.56, 9.18, 0.000, 0.000, 0.000, 15:43:38.895
132, -257.82, 4.62, 20.86, 14.59, 0.000, 0.000, 0.000, 15:43:38.895
133, 391.67, 8.21, 14.34, 13.96, 0.000, 0.000, 0.000, 15:43:38.896
134, 2.63, 12.55, 3.40, 6.48, 0.000, 0.000, 0.000, 15:43:38.896
135, -347.20, 6.41, 16.87, 13.39, 0.000, 0.000, 0.000, 15:43:38.918
136, 269.27, 4.83, 15.82, 15.24, 0.000, 0.000, 0.000, 15:43:38.918
137, -28.54, 14.44, 5.72, 6.00, 0.000, 0.000, 0.000, 15:43:38.918
138, -569.84, 12.72, 9.53, 14.19, 0.000, 0.000, 0.000, 15:43:38.919
139, 192.67, 6.66, 18.41, 15.93, 0.000, 0.000, 0.000, 15:43:38.940
140, 351.14, 11.20, 10.41, 11.93, 0.000, 0.000, 0.000, 15:43:38.940
141, -479.81, 14.49, 8.40, 1.74, 0.000, 0.000, 0.000, 15:43:38.940
142, -183.88, 1.56, 20.00, 18.13, 0.000, 0.000, 0.000, 15:43:38.941
143, 383.09, 9.32, 14.19, 16.77, 0.000, 0.000, 0.000, 15:43:38.962
144, -227.36, 16.38, 4.31, 7.31, 0.000, 0.000, 0.000, 15:43:38.962
145, -412.26, -1.53, 12.62, 16.15, 0.000, 0.000, 0.000, 15:43:38.963
146, 438.41, 4.68, 13.95, 15.19, 0.000, 0.000, 0.000, 15:43:38.963
147, 140.46, 14.11, 9.59, 11.23, 0.000, 0.000, 0.000, 15:43:38.985
148, -639.72, 10.29, 12.25, 11.31, 0.000, 0.000, 0.000, 15:43:38.985
149, 125.86, 1.52, 12.69, 13.81, 0.000, 0.000, 0.000, 15:43:38.986
150, 307.49, 11.65, 7.56, 7.94, 0.000, 0.000, 0.000, 15:43:38.986
151, -359.64, 13.70, 8.27, 9.23, 0.000, 0.000, 0.000, 15:43:38.986
152, -173.67, 1.88, 15.50, 17.79, 0.000, 0.000, 0.000, 15:43:38.986
153, 196.36, 12.46, 13.20, 14.06, 0.000, 0.000, 0.000, 15:43:39.007
154, -158.35, 10.83, 3.29, 4.99, 0.000, 0.000, 0.000, 15:43:39.007
155, -311.62, -0.03, 15.08, 16.29, 0.000, 0.000, 0.000, 15:43:39.008
156, 355.21, 4.40, 14.55, 14.82, 0.000, 0.000, 0.000, 15:43:39.008
157, 123.48, 11.44, 3.90, 7.54, 0.000, 0.000, 0.000, 15:43:39.030
158, -556.28, 5.71, 9.68, 12.48, 0.000, 0.000, 0.000, 15:43:39.030
159, 82.18, 1.82, 15.69, 8.39, 0.000, 0.000, 0.000, 15:43:39.030
160, 320.34, 10.88, 10.88, 10.86, 0.000, 0.000, 0.000, 15:43:39.030
161, -389.82, 10.77, 4.90, 8.87, 0.000, 0.000, 0.000, 15:43:39.052
162, -108.18, 6.23, 16.55, 18.02, 0.000, 0.000, 0.000, 15:43:39.053
163, 406.19, 0.73, 13.19, 14.60, 0.000, 0.000, 0.000, 15:43:39.053
164, -224.78, 12.80, 2.29, 7.27, 0.000, 0.000, 0.000, 15:43:39.053
165, -439.22, 4.78, 15.52, 16.43, 0.000, 0.000, 0.000, 15:43:39.075
166, 124.16, 5.64, 10.83, 14.95, 0.000, 0.000, 0.000, 15:43:39.075
167, 133.35, 15.14, 5.34, 8.33, 0.000, 0.000, 0.000, 15:43:39.075
168, -464.19, 8.06, 9.63, 13.19, 0.000, 0.000, 0.000, 15:43:39.076
169, 225.73, 3.75, 18.56, 17.35, 0.000, 0.000, 0.000, 15:43:39.076
170, 292.09, 10.02, 8.20, 7.61, 0.000, 0.000, 0.000, 15:43:39.076
171, -587.61, 13.74, 10.17, 8.93, 0.000, 0.000, 0.000, 15:43:39.097
172, -164.55, 2.61, 21.11, 19.16, 0.000, 0.000, 0.000, 15:43:39.097
173, 379.14, 5.77, 13.63, 13.31, 0.000, 0.000, 0.000, 15:43:39.098
174, -101.89, 15.63, 7.44, 7.97, 0.000, 0.000, 0.000, 15:43:39.098
175, -341.30, 7.06, 13.82, 15.88, 0.000, 0.000, 0.000, 15:43:39.120
176, 240.14, 5.76, 10.14, 9.51, 0.000, 0.000, 0.000, 15:43:39.120
177, 75.52, 14.81, 4.83, 4.70, 0.000, 0.000, 0.000, 15:43:39.120
178, -521.15, 11.76, 9.71, 9.90, 0.000, 0.000, 0.000, 15:43:39.120
179, 136.91, 4.59, 15.57, 17.28, 0.000, 0.000, 0.000, 15:43:39.142
180, 186.89, 15.09, 6.54, 11.07, 0.000, 0.000, 0.000, 15:43:39.142
181, -432.69, 7.43, 4.26, 10.19, 0.000, 0.000, 0.000, 15:43:39.143
182, -98.28, 3.07, 19.34, 14.60, 0.000, 0.000, 0.000, 15:43:39.143
183, 501.74, 7.34, 10.20, 8.80, 0.000, 0.000, 0.000, 15:43:39.165
184, -199.75, 11.56, 5.39, 2.51, 0.000, 0.000, 0.000, 15:43:39.165
185, -420.49, 0.77, 18.96, 15.34, 0.000, 0.000, 0.000, 15:43:39.165
186, 382.71, 5.63, 15.50, 13.01, 0.000, 0.000, 0.000, 15:43:39.165
187, 27.36, 10.40, 4.69, 8.24, 0.000, 0.000, 0.000, 15:43:39.166
188, -639.83, 8.01, 8.34, 14.48, 0.000, 0.000, 0.000, 15:43:39.166
189, 148.57, 7.00, 16.12, 15.03, 0.000, 0.000, 0.000, 15:43:39.187
190, 516.13, 9.14, 6.77, 11.80, 0.000, 0.000, 0.000, 15:43:39.187
191, -346.23, 11.99, 4.29, 8.16, 0.000, 0.000, 0.000, 15:43:39.188
192, -270.21, 0.68, 16.92, 16.33, 0.000, 0.000, 0.000, 15:43:39.188
193, 155.21, 9.33, 9.36, 12.99, 0.000, 0.000, 0.000, 15:43:39.210
194, -294.76, 12.37, 5.78, 5.26, 0.000, 0.000, 0.000, 15:43:39.210
195, -453.68, 2.84, 16.35, 18.50, 0.000, 0.000, 0.000, 15:43:39.210
196, -253.10, 4.80, 15.98, 15.50, 0.000, 0.000, 0.000, 15:43:39.210
197, -696.03, 16.24, 6.41, 6.06, 0.000, 0.000, 0.000, 15:43:39.233
198, -1606.80, 14.61, 11.72, 14.23, 0.000, 0.000, 0.000, 15:43:39.233
199, -999.38, -0.91, 19.23, 13.73, 0.000, 0.000, 0.000, 15:43:39.233
200, -804.33, 13.21, 9.69, 11.12, 0.000, 0.000, 0.000, 15:43:39.233
0, -383.14, 12.87, 6.39, 9.41, 0.000, 0.000, 0.000, 15:43:39.233
1, -54.52, 7.05, 20.21, 18.42, 0.000, 0.000, 0.000, 15:43:39.255
2, 443.98, 6.47, 12.05, 12.94, 0.000, 0.000, 0.000, 15:43:39.255
3, -244.68, 17.91, 4.30, 3.16, 0.000, 0.000, 0.000, 15:43:39.256
4, -484.32, 3.70, 15.73, 16.38, 0.000, 0.000, 0.000, 15:43:39.256
5, 340.29, 5.60, 14.18, 13.32, 0.000, 0.000, 0.000, 15:43:39.277
6, 80.23, 16.67, 6.48, 5.12, 0.000, 0.000, 0.000, 15:43:39.277
7, -655.20, 5.88, 10.42, 11.47, 0.000, 0.000, 0.000, 15:43:39.278
8, 64.55, 1.30, 16.78, 17.53, 0.000, 0.000, 0.000, 15:43:39.278
9, 538.18, 9.30, 10.92, 15.36, 0.000, 0.000, 0.000, 15:43:39.300
10, -410.85, 12.33, 9.27, 8.84, 0.000, 0.000, 0.000, 15:43:39.300
11, -175.62, 1.59, 15.73, 18.83, 0.000, 0.000, 0.000, 15:43:39.301
12, 405.02, 5.21, 11.20, 15.14, 0.000, 0.000, 0.000, 15:43:39.301
13, -227.91, 15.99, 0.86, 2.89, 0.000, 0.000, 0.000, 15:43:39.302
14, -315.97, 3.15, 14.66, 13.77, 0.000, 0.000, 0.000, 15:43:39.302
15, 376.43, 7.48, 13.92, 16.32, 0.000, 0.000, 0.000, 15:43:39.322
16, 84.98, 10.15, 8.80, 8.36, 0.000, 0.000, 0.000, 15:43:39.323
17, -589.00, 12.60, 10.15, 11.58, 0.000, 0.000, 0.000, 15:43:39.323
18, 26.48, 4.28, 17.26, 15.92, 0.000, 0.000, 0.000, 15:43:39.323
19, 311.77, 8.81, 7.11, 9.67, 0.000, 0.000, 0.000, 15:43:39.345
20, -438.58, 13.39, 3.44, 3.50, 0.000, 0.000, 0.000, 15:43:39.345
21, -155.42, 2.89, 15.76, 18.18, 0.000, 0.000, 0.000, 15:43:39.345
22, 381.87, 6.94, 13.19, 14.75, 0.000, 0.000, 0.000, 15:43:39.345
23, -219.74, 16.63, 5.02, 8.34, 0.000, 0.000, 0.000, 15:43:39.367
24, -567.05, 10.21, 15.19, 15.17, 0.000, 0.000, 0.000, 15:43:39.368
25, 364.78, 0.58, 16.25, 15.95, 0.000, 0.000, 0.000, 15:43:39.368
26, 200.81, 14.42, 7.35, 5.60, 0.000, 0.000, 0.000, 15:43:39.369
27, -489.57, 9.28, 11.92, 10.30, 0.000, 0.000, 0.000, 15:43:39.390
28, 101.25, 2.46, 17.75, 19.74, 0.000, 0.000, 0.000, 15:43:39.390
29, 303.71, 9.13, 9.10, 8.81, 0.000, 0.000, 0.000, 15:43:39.390
30, -522.36, 10.35, 4.93, 5.79, 0.000, 0.000, 0.000, 15:43:39.391
31, -99.09, 0.99, 19.45, 18.07, 0.000, 0.000, 0.000, 15:43:39.391
32, 262.07, 2.46, 10.46, 15.20, 0.000, 0.000, 0.000, 15:43:39.391
33, -231.05, 14.80, 1.48, 5.84, 0.000, 0.000, 0.000, 15:43:39.412
34, -328.98, 0.93, 18.91, 17.52, 0.000, 0.000, 0.000, 15:43:39.412
35, 211.87, 1.09, 12.38, 17.02, 0.000, 0.000, 0.000, 15:43:39.413
36, 23.75, 11.90, 6.22, 10.11, 0.000, 0.000, 0.000, 15:43:39.413
37, -289.50, 14.65, 7.44, 9.14, 0.000, 0.000, 0.000, 15:43:39.435
38, 48.45, 0.50, 18.01, 13.16, 0.000, 0.000, 0.000, 15:43:39.435
39, 390.60, 9.19, 11.62, 12.31, 0.000, 0.000, 0.000, 15:43:39.436
40, -371.16, 13.45, 6.99, 5.42, 0.000, 0.000, 0.000, 15:43:39.436
41, -395.43, 5.67, 16.87, 16.41, 0.000, 0.000, 0.000, 15:43:39.457
42, 357.96, 12.70, 6.86, 8.70, 0.000, 0.000, 0.000, 15:43:39.457
43, -31.13, 11.00, 6.96, 9.10, 0.000, 0.000, 0.000, 15:43:39.458
44, -416.96, 2.59, 15.82, 16.29, 0.000, 0.000, 0.000, 15:43:39.458
45, 241.59, 3.64, 10.70, 10.30, 0.000, 0.000, 0.000, 15:43:39.480
46, 21.17, 12.38, 6.72, 7.97, 0.000, 0.000, 0.000, 15:43:39.480
47, -501.23, 10.92, 6.34, 10.53, 0.000, 0.000, 0.000, 15:43:39.480
48, 130.85, 8.00, 12.56, 14.05, 0.000, 0.000, 0.000, 15:43:39.481
49, 324.77, 10.10, 11.98, 12.92, 0.000, 0.000, 0.000, 15:43:39.481
50, -416.30, 10.22, 4.43, 8.05, 0.000, 0.000, 0.000, 15:43:39.481
51, -122.34, 5.32, 19.56, 14.40, 0.000, 0.000, 0.000, 15:43:39.502
52, 550.71, 7.61, 8.77, 12.15, 0.000, 0.000, 0.000, 15:43:39.503
53, -51.65, 18.91, 3.06, 7.43, 0.000, 0.000, 0.000, 15:43:39.503
54, -391.90, 3.40, 17.51, 13.63, 0.000, 0.000, 0.000, 15:43:39.503
55, 171.73, 5.65, 10.45, 16.42, 0.000, 0.000, 0.000, 15:43:39.525
56, -94.81, 8.88, 7.47, 9.90, 0.000, 0.000, 0.000, 15:43:39.525
57, -688.56, 14.09, 9.41, 13.17, 0.000, 0.000, 0.000, 15:43:39.525
58, 147.69, 3.36, 18.99, 15.68, 0.000, 0.000, 0.000, 15:43:39.526
59, 284.34, 11.15, 5.66, 8.77, 0.000, 0.000, 0.000, 15:43:39.547
60, -537.83, 17.74, 6.29, 5.94, 0.000, 0.000, 0.000, 15:43:39.547
61, -164.90, -2.02, 20.21, 13.03, 0.000, 0.000, 0.000, 15:43:39.570
62, 520.57, 8.67, 8.85, 12.02, 0.000, 0.000, 0.000, 15:43:39.571
63, -144.45, 15.54, 2.73, 7.07, 0.000, 0.000, 0.000, 15:43:39.571
64, -419.87, 3.25, 17.06, 14.51, 0.000, 0.000, 0.000, 15:43:39.571
65, 296.81, 5.22, 15.70, 15.05, 0.000, 0.000, 0.000, 15:43:39.572
66, 153.00, 15.92, 4.52, 5.50, 0.000, 0.000, 0.000, 15:43:39.572
67, -643.36, 10.59, 11.83, 11.48, 0.000, 0.000, 0.000, 15:43:39.572
68, 14.12, 3.53, 13.59, 14.49, 0.000, 0.000, 0.000, 15:43:39.573
69, 414.47, 8.51, 10.56, 10.65, 0.000, 0.000, 0.000, 15:43:39.593
70, -362.53, 12.54, 8.71, 8.26, 0.000, 0.000, 0.000, 15:43:39.593
71, -117.91, 6.48, 17.58, 18.07, 0.000, 0.000, 0.000, 15:43:39.593
72, 372.13, 2.93, 10.22, 13.99, 0.000, 0.000, 0.000, 15:43:39.593
73, -377.52, 15.24, 3.24, 8.89, 0.000, 0.000, 0.000, 15:43:39.615
74, -346.95, 1.32, 17.56, 18.37, 0.000, 0.000, 0.000, 15:43:39.615
75, 583.15, 7.12, 13.56, 16.57, 0.000, 0.000, 0.000, 15:43:39.615
76, 90.24, 13.59, 7.92, 11.34, 0.000, 0.000, 0.000, 15:43:39.615
77, -523.73, 10.16, 10.48, 11.35, 0.000, 0.000, 0.000, 15:43:39.637
78, 52.80, 7.13, 13.74, 16.95, 0.000, 0.000, 0.000, 15:43:39.637
79, 164.10, 6.01, 8.03, 12.73, 0.000, 0.000, 0.000, 15:43:39.638
80, -526.37, 10.57, 5.74, 3.57, 0.000, 0.000, 0.000, 15:43:39.638
81, -72.66, 5.13, 17.19, 17.41, 0.000, 0.000, 0.000, 15:43:39.660
82, 386.04, 6.44, 17.27, 14.13, 0.000, 0.000, 0.000, 15:43:39.660
83, -225.82, 13.50, 6.20, 10.00, 0.000, 0.000, 0.000, 15:43:39.660
84, -386.21, 5.49, 14.82, 16.03, 0.000, 0.000, 0.000, 15:43:39.660
85, 328.37, 4.95, 13.96, 16.92, 0.000, 0.000, 0.000, 15:43:39.661
86, 58.37, 14.62, 3.75, 3.53, 0.000, 0.000, 0.000, 15:43:39.661
87, -564.18, 11.02, 7.33, 9.22, 0.000, 0.000, 0.000, 15:43:39.682
88, 2.98, -0.47, 15.34, 15.12, 0.000, 0.000, 0.000, 15:43:39.683
89, 492.38, 11.60, 11.86, 5.93, 0.000, 0.000, 0.000, 15:43:39.683
90, -385.54, 9.01, 5.67, 6.68, 0.000, 0.000, 0.000, 15:43:39.683
91, -200.38, 1.47, 17.29, 16.41, 0.000, 0.000, 0.000, 15:43:39.704
92, 482.16, 9.50, 12.26, 13.88, 0.000, 0.000, 0.000, 15:43:39.705
93, -191.11, 16.76, -0.00, 11.06, 0.000, 0.000, 0.000, 15:43:39.705
94, -482.19, 7.04, 15.60, 19.12, 0.000, 0.000, 0.000, 15:43:39.706
95, 335.20, 5.73, 13.81, 15.17, 0.000, 0.000, 0.000, 15:43:39.728
96, 100.05, 16.75, 5.42, 11.07, 0.000, 0.000, 0.000, 15:43:39.728
97, -611.02, 4.46, 6.51, 11.94, 0.000, 0.000, 0.000, 15:43:39.728
98, 180.61, 2.40, 18.89, 14.32, 0.000, 0.000, 0.000, 15:43:39.728
99, 326.95, 9.60, 11.09, 11.94, 0.000, 0.000, 0.000, 15:43:39.750
100, -511.05, 11.10, 9.33, 3.97, 0.000, 0.000, 0.000, 15:43:39.750
101, -269.80, -0.39, 18.62, 18.58, 0.000, 0.000, 0.000, 15:43:39.751
102, 494.64, 5.60, 12.47, 14.62, 0.000, 0.000, 0.000, 15:43:39.751
103, -351.46, 16.34, 4.17, 7.50, 0.000, 0.000, 0.000, 15:43:39.751
104, -328.34, 6.44, 18.18, 14.03, 0.000, 0.000, 0.000, 15:43:39.752
105, 542.80, 10.73, 10.86, 14.73, 0.000, 0.000, 0.000, 15:43:39.772
106, 142.35, 9.26, 4.38, 7.86, 0.000, 0.000, 0.000, 15:43:39.772
107, -680.39, 11.77, 12.65, 6.38, 0.000, 0.000, 0.000, 15:43:39.773
108, 75.10, 3.02, 15.39, 11.12, 0.000, 0.000, 0.000, 15:43:39.773
109, 373.83, 11.69, 8.44, 10.51, 0.000, 0.000, 0.000, 15:43:39.795
110, -348.40, 6.21, 7.22, 10.53, 0.000, 0.000, 0.000, 15:43:39.795
111, -233.87, -1.12, 20.17, 16.20, 0.000, 0.000, 0.000, 15:43:39.796
112, 313.87, 4.38, 9.07, 14.23, 0.000, 0.000, 0.000, 15:43:39.796
113, -212.43, 13.81, 4.72, 2.19, 0.000, 0.000, 0.000, 15:43:39.817
114, -382.40, 10.62, 12.81, 11.34, 0.000, 0.000, 0.000, 15:43:39.818
115, 247.43, 1.92, 13.33, 16.17, 0.000, 0.000, 0.000, 15:43:39.818
116, 12.17, 15.65, 4.79, 5.37, 0.000, 0.000, 0.000, 15:43:39.818
117, -394.55, 9.16, 10.84, 10.82, 0.000, 0.000, 0.000, 15:43:39.840
118, 82.92, 7.18, 14.78, 17.48, 0.000, 0.000, 0.000, 15:43:39.840
119, 270.91, 8.48, 9.03, 13.81, 0.000, 0.000, 0.000, 15:43:39.841
120, -382.40, 14.23, 2.88, 6.57, 0.000, 0.000, 0.000, 15:43:39.841
121, -130.30, 1.80, 18.33, 18.45, 0.000, 0.000, 0.000, 15:43:39.841
122, 288.20, 5.00, 10.47, 13.24, 0.000, 0.000, 0.000, 15:43:39.841
123, -187.68, 17.97, 5.47, 5.19, 0.000, 0.000, 0.000, 15:43:39.862
124, -309.55, 1.34, 14.64, 17.77, 0.000, 0.000, 0.000, 15:43:39.862
125, 377.97, 5.53, 12.93, 16.39, 0.000, 0.000, 0.000, 15:43:39.863
126, 93.61, 13.76, 7.89, 6.37, 0.000, 0.000, 0.000, 15:43:39.863
127, -518.82, 11.14, 10.47, 9.08, 0.000, 0.000, 0.000, 15:43:39.885
128, 110.53, 3.35, 22.92, 18.61, 0.000, 0.000, 0.000, 15:43:39.885
129, 282.47, 16.45, 10.78, 9.91, 0.000, 0.000, 0.000, 15:43:39.885
130, -513.22, 15.25, 3.04, 5.50, 0.000, 0.000, 0.000, 15:43:39.886
131, -210.32, 2.27, 17.68, 17.40, 0.000, 0.000, 0.000, 15:43:39.908
132, 467.55, 10.76, 12.40, 13.30, 0.000, 0.000, 0.000, 15:43:39.908
133, -116.36, 8.41, 5.09, 5.43, 0.000, 0.000, 0.000, 15:43:39.908
134, -395.28, 4.79, 17.82, 15.04, 0.000, 0.000, 0.000, 15:43:39.908
135, 381.07, 8.15, 13.07, 11.76, 0.000, 0.000, 0.000, 15:43:39.930
136, 37.41, 16.03, 5.76, 3.90, 0.000, 0.000, 0.000, 15:43:39.930
137, -648.76, 7.52, 13.67, 15.06, 0.000, 0.000, 0.000, 15:43:39.930
138, 37.43, 3.13, 16.01, 18.95, 0.000, 0.000, 0.000, 15:43:39.930
139, 305.73, 6.01, 12.88, 12.26, 0.000, 0.000, 0.000, 15:43:39.931
140, -517.52, 10.97, 3.06, 3.27, 0.000, 0.000, 0.000, 15:43:39.931
141, -38.92, 6.58, 13.91, 18.10, 0.000, 0.000, 0.000, 15:43:39.954
142, 474.42, 5.34, 11.57, 13.94, 0.000, 0.000, 0.000, 15:43:39.954
143, -190.95, 12.57, 5.01, 10.74, 0.000, 0.000, 0.000, 15:43:39.954
144, -451.38, 5.19, 15.53, 13.69, 0.000, 0.000, 0.000, 15:43:39.954
145, 239.77, 7.57, 11.59, 14.23, 0.000, 0.000, 0.000, 15:43:39.975
146, 2.33, 9.37, 5.80, 8.86, 0.000, 0.000, 0.000, 15:43:39.975
147, -365.23, 13.25, 8.94, 11.41, 0.000, 0.000, 0.000, 15:43:39.975
148, 174.38, 2.75, 17.09, 14.74, 0.000, 0.000, 0.000, 15:43:39.976
149, 386.58, 13.13, 8.90, 12.04, 0.000, 0.000, 0.000, 15:43:39.997
150, -414.61, 19.02, 4.93, 7.35, 0.000, 0.000, 0.000, 15:43:39.998
151, -89.42, -1.64, 15.74, 17.27, 0.000, 0.000, 0.000, 15:43:39.998
152, 375.76, 4.96, 12.70, 9.07, 0.000, 0.000, 0.000, 15:43:39.998
153, -183.41, 16.09, 1.80, 3.59, 0.000, 0.000, 0.000, 15:43:40.020
154, -509.17, 1.57, 14.51, 15.39, 0.000, 0.000, 0.000, 15:43:40.020
155, 262.69, 2.52, 13.72, 15.29, 0.000, 0.000, 0.000, 15:43:40.021
156, -114.91, 11.35, 7.11, 9.73, 0.000, 0.000, 0.000, 15:43:40.021
157, -686.83, 11.01, 10.41, 13.08, 0.000, 0.000, 0.000, 15:43:40.021
158, -562.73, 0.98, 19.02, 16.48, 0.000, 0.000, 0.000, 15:43:40.021
159, -608.50, 9.82, 9.66, 13.62, 0.000, 0.000, 0.000, 15:43:40.042
160, -1376.39, 9.85, 6.77, 7.61, 0.000, 0.000, 0.000, 15:43:40.043
161, -1032.33, 4.74, 20.93, 17.78, 0.000, 0.000, 0.000, 15:43:40.043
162, -798.58, 10.00, 12.74, 15.30, 0.000, 0.000, 0.000, 15:43:40.043
163, -1327.42, 15.01, 2.42, 8.07, 0.000, 0.000, 0.000, 15:43:40.065
164, -1295.57, 2.96, 19.02, 12.23, 0.000, 0.000, 0.000, 15:43:40.065
165, -617.04, 7.66, 13.81, 17.95, 0.000, 0.000, 0.000, 15:43:40.065
166, -941.44, 9.88, 2.67, 4.37, 0.000, 0.000, 0.000, 15:43:40.066
167, -1555.81, 7.70, 7.23, 11.80, 0.000, 0.000, 0.000, 15:43:40.087
168, -813.50, 11.07, 16.61, 10.94, 0.000, 0.000, 0.000, 15:43:40.087
169, -665.74, 4.68, 7.24, 10.83, 0.000, 0.000, 0.000, 15:43:40.088
170, -1219.09, 13.24, 4.39, 3.55, 0.000, 0.000, 0.000, 15:43:40.088
171, -942.90, 0.34, 18.10, 17.74, 0.000, 0.000, 0.000, 15:43:40.110
172, -693.41, 9.41, 12.37, 15.60, 0.000, 0.000, 0.000, 15:43:40.110
173, -1334.67, 14.45, 1.68, 7.82, 0.000, 0.000, 0.000, 15:43:40.110
174, -1522.73, 6.48, 13.99, 11.81, 0.000, 0.000, 0.000, 15:43:40.111
175, -670.40, 2.66, 17.14, 13.79, 0.000, 0.000, 0.000, 15:43:40.111
176, -879.21, 14.93, 4.81, 7.71, 0.000, 0.000, 0.000, 15:43:40.111
177, -1529.54, 9.83, 8.97, 10.30, 0.000, 0.000, 0.000, 15:43:40.133
178, -913.28, -0.90, 15.99, 13.15, 0.000, 0.000, 0.000, 15:43:40.133
179, -621.49, 9.59, 7.90, 11.22, 0.000, 0.000, 0.000, 15:43:40.133
180, -1397.05, 11.54, 7.60, 10.70, 0.000, 0.000, 0.000, 15:43:40.134
181, -1198.42, 4.63, 18.81, 16.07, 0.000, 0.000, 0.000, 15:43:40.155
182, -662.96, 5.46, 12.95, 15.11, 0.000, 0.000, 0.000, 15:43:40.155
183, -1132.28, 14.85, 4.53, 6.82, 0.000, 0.000, 0.000, 15:43:40.155
184, -1381.60, 6.57, 15.53, 13.70, 0.000, 0.000, 0.000, 15:43:40.155
185, -628.12, 5.81, 14.63, 11.50, 0.000, 0.000, 0.000, 15:43:40.177
186, -742.37, 18.89, 8.96, 10.59, 0.000, 0.000, 0.000, 15:43:40.177
187, -1569.86, 4.83, 5.53, 15.17, 0.000, 0.000, 0.000, 15:43:40.178
188, -968.35, 2.43, 13.41, 15.76, 0.000, 0.000, 0.000, 15:43:40.178
189, -515.73, 9.79, 7.43, 9.11, 0.000, 0.000, 0.000, 15:43:40.200
190, -1431.32, 13.23, 5.85, 7.84, 0.000, 0.000, 0.000, 15:43:40.200
191, -1181.39, 4.54, 20.60, 17.37, 0.000, 0.000, 0.000, 15:43:40.200
192, -419.35, 8.65, 10.81, 15.41, 0.000, 0.000, 0.000, 15:43:40.201
193, -1224.21, 13.29, 2.52, 5.31, 0.000, 0.000, 0.000, 15:43:40.201
194, -1491.28, 2.75, 15.10, 9.75, 0.000, 0.000, 0.000, 15:43:40.201
195, -676.14, 8.48, 12.39, 11.71, 0.000, 0.000, 0.000, 15:43:40.222
196, -934.38, 13.00, 6.40, 6.80, 0.000, 0.000, 0.000, 15:43:40.223
197, -1514.90, 10.32, 9.96, 11.12, 0.000, 0.000, 0.000, 15:43:40.223
198, -682.43, 1.04, 18.82, 15.82, 0.000, 0.000, 0.000, 15:43:40.223
199, -687.43, 15.05, 8.56, 10.15, 0.000, 0.000, 0.000, 15:43:40.245
200, -1581.36, 15.48, 7.70, 1.13, 0.000, 0.000, 0.000, 15:43:40.245
0, -188.21, 3.40, 21.42, 17.23, 0.000, 0.000, 0.000, 15:43:40.245
1, 346.05, 4.75, 16.55, 16.82, 0.000, 0.000, 0.000, 15:43:40.246
2, -70.30, 15.41, 3.94, 7.06, 0.000, 0.000, 0.000, 15:43:40.246
3, -298.15, 7.08, 16.37, 18.68, 0.000, 0.000, 0.000, 15:43:40.267
4, 333.34, -0.39, 15.22, 16.28, 0.000, 0.000, 0.000, 15:43:40.267
5, 51.81, 11.37, 5.47, 11.70, 0.000, 0.000, 0.000, 15:43:40.268
6, -551.59, 9.86, 8.68, 10.79, 0.000, 0.000, 0.000, 15:43:40.268
7, 139.06, 2.41, 12.88, 14.10, 0.000, 0.000, 0.000, 15:43:40.290
8, 248.97, 8.18, 8.73, 6.51, 0.000, 0.000, 0.000, 15:43:40.290
9, -465.98, 13.81, 5.51, 4.73, 0.000, 0.000, 0.000, 15:43:40.290
10, -106.64, 4.55, 20.68, 16.12, 0.000, 0.000, 0.000, 15:43:40.290
11, 342.64, 6.22, 11.01, 13.39, 0.000, 0.000, 0.000, 15:43:40.312
12, 19.41, 20.62, 3.99, 9.50, 0.000, 0.000, 0.000, 15:43:40.313
13, -326.57, 1.28, 17.58, 16.34, 0.000, 0.000, 0.000, 15:43:40.313
14, 158.53, 9.21, 16.45, 19.40, 0.000, 0.000, 0.000, 15:43:40.313
15, -55.06, 11.11, 6.49, 10.72, 0.000, 0.000, 0.000, 15:43:40.335
16, -543.15, 8.22, 8.16, 9.02, 0.000, 0.000, 0.000, 15:43:40.335
17, 251.54, 1.50, 16.07, 19.66, 0.000, 0.000, 0.000, 15:43:40.335
18, 560.19, 7.03, 13.07, 6.88, 0.000, 0.000, 0.000, 15:43:40.335
19, 502.58, 10.87, 8.07, 8.10, 0.000, 0.000, 0.000, 15:43:40.336
20, 585.25, -0.02, 16.50, 15.86, 0.000, 0.000, 0.000, 15:43:40.337
21, 1311.62, 7.78, 11.44, 12.20, 0.000, 0.000, 0.000, 15:43:40.358
22, 792.42, 10.37, 5.96, 5.08, 0.000, 0.000, 0.000, 15:43:40.358
23, 677.88, 2.23, 13.76, 16.76, 0.000, 0.000, 0.000, 15:43:40.358
24, 1389.00, 5.93, 12.12, 10.76, 0.000, 0.000, 0.000, 15:43:40.358
25, 1021.14, 12.96, 3.18, 7.01, 0.000, 0.000, 0.000, 15:43:40.380
26, 497.12, 7.29, 10.84, 13.64, 0.000, 0.000, 0.000, 15:43:40.380
27, 1034.08, 7.19, 22.09, 16.92, 0.000, 0.000, 0.000, 15:43:40.380
28, 1301.98, 9.44, 9.56, 9.22, 0.000, 0.000, 0.000, 15:43:40.380
29, 485.98, 13.45, 5.38, 9.09, 0.000, 0.000, 0.000, 15:43:40.402
30, 749.53, 6.15, 14.48, 13.50, 0.000, 0.000, 0.000, 15:43:40.402
31, 1441.15, 4.25, 11.89, 13.95, 0.000, 0.000, 0.000, 15:43:40.403
32, 650.63, 17.98, 2.20, 9.28, 0.000, 0.000, 0.000, 15:43:40.403
33, 594.05, 3.43, 15.44, 13.85, 0.000, 0.000, 0.000, 15:43:40.425
34, 1362.78, 6.25, 14.10, 15.24, 0.000, 0.000, 0.000, 15:43:40.426
35, 1001.67, 10.46, 5.19, 10.62, 0.000, 0.000, 0.000, 15:43:40.426
36, 431.12, 9.81, 12.08, 14.23, 0.000, 0.000, 0.000, 15:43:40.426
37, 1042.14, 5.17, 18.00, 12.91, 0.000, 0.000, 0.000, 15:43:40.427
38, 1383.99, 12.87, 9.77, 9.66, 0.000, 0.000, 0.000, 15:43:40.427
39, 626.63, 14.84, 4.86, 8.04, 0.000, 0.000, 0.000, 15:43:40.447
40, 967.49, 1.17, 16.29, 17.79, 0.000, 0.000, 0.000, 15:43:40.447
41, 1312.80, 4.15, 11.98, 9.12, 0.000, 0.000, 0.000, 15:43:40.448
42, 554.60, 16.50, 3.13, 6.21, 0.000, 0.000, 0.000, 15:43:40.448
43, 548.84, 5.83, 15.80, 17.44, 0.000, 0.000, 0.000, 15:43:40.470
44, 1382.51, 4.69, 9.61, 13.55, 0.000, 0.000, 0.000, 15:43:40.470
45, 1055.97, 15.17, 5.76, 8.88, 0.000, 0.000, 0.000, 15:43:40.471
46, 439.73, 8.73, 6.64, 11.41, 0.000, 0.000, 0.000, 15:43:40.471
47, 1102.95, 2.51, 15.32, 16.47, 0.000, 0.000, 0.000, 15:43:40.496
48, 1273.57, 16.07, 7.19, 14.10, 0.000, 0.000, 0.000, 15:43:40.496
49, 451.51, 8.64, 3.24, 7.00, 0.000, 0.000, 0.000, 15:43:40.496
50, 673.67, 4.48, 14.84, 19.04, 0.000, 0.000, 0.000, 15:43:40.497
51, 1380.77, 5.54, 13.70, 14.30, 0.000, 0.000, 0.000, 15:43:40.515
52, 1118.59, 14.45, 4.83, 4.00, 0.000, 0.000, 0.000, 15:43:40.516
53, 583.10, 1.31, 17.25, 17.41, 0.000, 0.000, 0.000, 15:43:40.516
54, 1263.04, 6.12, 15.31, 11.92, 0.000, 0.000, 0.000, 15:43:40.516
55, 1104.64, 15.19, 4.58, 6.19, 0.000, 0.000, 0.000, 15:43:40.516
56, 418.04, 8.10, 12.65, 14.19, 0.000, 0.000, 0.000, 15:43:40.517
57, 970.55, 1.22, 15.10, 16.03, 0.000, 0.000, 0.000, 15:43:40.537
58, 1325.25, 6.90, 7.45, 6.99, 0.000, 0.000, 0.000, 15:43:40.537
59, 545.12, 11.06, 7.09, 7.21, 0.000, 0.000, 0.000, 15:43:40.538
60, 809.65, -1.08, 12.64, 13.55, 0.000, 0.000, 0.000, 15:43:40.538
61, 1465.04, 10.31, 11.56, 16.23, 0.000, 0.000, 0.000, 15:43:40.560
62, 746.04, 9.77, 5.44, 1.83, 0.000, 0.000, 0.000, 15:43:40.560
63, 547.80, 5.37, 18.85, 13.12, 0.000, 0.000, 0.000, 15:43:40.560
64, 1271.32, 8.89, 17.01, 16.84, 0.000, 0.000, 0.000, 15:43:40.560
65, 889.18, 8.96, 7.12, 8.80, 0.000, 0.000, 0.000, 15:43:40.583
66, 512.00, 12.64, 12.71, 16.26, 0.000, 0.000, 0.000, 15:43:40.583
67, 1195.65, -2.98, 14.66, 19.13, 0.000, 0.000, 0.000, 15:43:40.583
68, 1335.74, 10.28, 11.18, 8.20, 0.000, 0.000, 0.000, 15:43:40.583
69, 480.27, 12.50, 5.61, 10.87, 0.000, 0.000, 0.000, 15:43:40.605
70, 842.15, 4.96, 16.80, 14.01, 0.000, 0.000, 0.000, 15:43:40.605
71, 1378.65, 7.13, 11.29, 11.07, 0.000, 0.000, 0.000, 15:43:40.605
72, 707.76, 13.69, 1.30, 4.20, 0.000, 0.000, 0.000, 15:43:40.605
73, 640.08, 5.76, 13.33, 12.42, 0.000, 0.000, 0.000, 15:43:40.606
74, 1298.48, 7.40, 10.90, 14.22, 0.000, 0.000, 0.000, 15:43:40.606
75, 1027.49, 18.07, 6.77, 7.49, 0.000, 0.000, 0.000, 15:43:40.627
76, 517.12, 8.67, 14.20, 8.62, 0.000, 0.000, 0.000, 15:43:40.627
77, 1112.74, 1.22, 15.88, 12.92, 0.000, 0.000, 0.000, 15:43:40.627
78, 1233.08, 9.77, 12.46, 11.40, 0.000, 0.000, 0.000, 15:43:40.628
79, 549.68, 15.26, 9.61, 8.44, 0.000, 0.000, 0.000, 15:43:40.650
80, 803.16, 3.30, 20.05, 19.50, 0.000, 0.000, 0.000, 15:43:40.650
81, 1271.63, 8.51, 9.94, 14.42, 0.000, 0.000, 0.000, 15:43:40.650
82, 860.46, 15.08, 4.38, 3.64, 0.000, 0.000, 0.000, 15:43:40.651
83, 566.90, 4.08, 14.74, 14.22, 0.000, 0.000, 0.000, 15:43:40.672
84, 1306.75, 12.55, 11.28, 11.31, 0.000, 0.000, 0.000, 15:43:40.672
85, 1238.16, 7.12, 8.02, 9.56, 0.000, 0.000, 0.000, 15:43:40.673
86, 508.13, 10.19, 13.72, 14.47, 0.000, 0.000, 0.000, 15:43:40.673
87, 1073.63, 5.93, 17.05, 21.91, 0.000, 0.000, 0.000, 15:43:40.695
88, 1189.12, 13.70, 11.37, 11.90, 0.000, 0.000, 0.000, 15:43:40.695
89, 394.17, 10.82, 2.82, 6.64, 0.000, 0.000, 0.000, 15:43:40.695
90, 858.28, 5.51, 14.37, 21.84, 0.000, 0.000, 0.000, 15:43:40.695
91, 1317.38, 4.95, 9.23, 11.77, 0.000, 0.000, 0.000, 15:43:40.696
92, 714.71, 14.14, 1.88, 6.16, 0.000, 0.000, 0.000, 15:43:40.696
93, 673.14, 6.51, 15.50, 15.53, 0.000, 0.000, 0.000, 15:43:40.717
94, 1370.10, 3.86, 14.29, 13.95, 0.000, 0.000, 0.000, 15:43:40.717
95, 1034.84, 14.00, 6.74, 5.70, 0.000, 0.000, 0.000, 15:43:40.718
96, 510.36, 8.80, 6.33, 9.35, 0.000, 0.000, 0.000, 15:43:40.718
97, 1101.43, 4.26, 18.91, 19.30, 0.000, 0.000, 0.000, 15:43:40.740
98, 1393.90, 3.97, 10.25, 9.34, 0.000, 0.000, 0.000, 15:43:40.740
99, 572.60, 11.19, 8.51, 8.63, 0.000, 0.000, 0.000, 15:43:40.740
100, 734.04, 0.49, 17.59, 19.61, 0.000, 0.000, 0.000, 15:43:40.741
101, 1248.57, 9.21, 11.88, 13.02, 0.000, 0.000, 0.000, 15:43:40.762
102, 689.55, 21.34, 3.69, 3.77, 0.000, 0.000, 0.000, 15:43:40.763
103, 661.92, -2.47, 16.21, 14.65, 0.000, 0.000, 0.000, 15:43:40.763
104, 1370.64, 5.88, 14.57, 13.27, 0.000, 0.000, 0.000, 15:43:40.763
105, 1099.57, 12.13, 6.75, 7.37, 0.000, 0.000, 0.000, 15:43:40.785
106, 298.40, 7.20, 9.23, 10.33, 0.000, 0.000, 0.000, 15:43:40.785
107, 1091.77, 1.51, 17.29, 16.34, 0.000, 0.000, 0.000, 15:43:40.785
108, 1355.44, 11.29, 6.96, 10.93, 0.000, 0.000, 0.000, 15:43:40.786
109, 610.28, 8.73, 5.45, 10.00, 0.000, 0.000, 0.000, 15:43:40.786
110, 814.91, 3.66, 15.09, 17.27, 0.000, 0.000, 0.000, 15:43:40.786
111, 1321.99, 10.85, 11.03, 12.77, 0.000, 0.000, 0.000, 15:43:40.807
112, 746.18, 12.59, 6.15, 2.57, 0.000, 0.000, 0.000, 15:43:40.807
113, 596.60, 9.48, 15.86, 17.04, 0.000, 0.000, 0.000, 15:43:40.808
114, 1303.35, 5.19, 15.96, 13.02, 0.000, 0.000, 0.000, 15:43:40.808
115, 1076.59, 10.97, 6.80, 8.35, 0.000, 0.000, 0.000, 15:43:40.830
116, 488.08, 4.20, 12.49, 15.88, 0.000, 0.000, 0.000, 15:43:40.831
117, 1104.64, 1.81, 17.98, 17.27, 0.000, 0.000, 0.000, 15:43:40.831
118, 1242.31, 10.71, 10.16, 10.60, 0.000, 0.000, 0.000, 15:43:40.831
119, 491.28, 12.72, 5.09, 5.14, 0.000, 0.000, 0.000, 15:43:40.852
120, 829.07, 11.89, 15.34, 18.45, 0.000, 0.000, 0.000, 15:43:40.853
121, 1423.08, 4.48, 10.58, 12.47, 0.000, 0.000, 0.000, 15:43:40.853
122, 782.25, 13.05, 4.28, 3.81, 0.000, 0.000, 0.000, 15:43:40.853
123, 560.03, 4.11, 18.60, 14.47, 0.000, 0.000, 0.000, 15:43:40.875
124, 1270.90, 7.23, 13.20, 17.16, 0.000, 0.000, 0.000, 15:43:40.875
125, 1099.47, 11.91, 7.92, 6.92, 0.000, 0.000, 0.000, 15:43:40.875
126, 465.69, 9.27, 6.66, 12.70, 0.000, 0.000, 0.000, 15:43:40.876
127, 1097.89, 3.98, 14.35, 17.67, 0.000, 0.000, 0.000, 15:43:40.876
128, 1274.54, 11.62, 6.17, 12.77, 0.000, 0.000, 0.000, 15:43:40.876
129, 551.85, 12.73, 7.91, 9.32, 0.000, 0.000, 0.000, 15:43:40.898
130, 821.18, -0.39, 17.18, 15.08, 0.000, 0.000, 0.000, 15:43:40.898
131, 1385.40, 8.55, 13.54, 15.11, 0.000, 0.000, 0.000, 15:43:40.898
132, 770.76, 14.33, 5.25, 5.04, 0.000, 0.000, 0.000, 15:43:40.899
133, 576.05, 4.89, 13.73, 15.20, 0.000, 0.000, 0.000, 15:43:40.920
134, 1300.84, 6.05, 12.55, 13.55, 0.000, 0.000, 0.000, 15:43:40.920
135, 1076.43, 11.95, 7.91, 7.97, 0.000, 0.000, 0.000, 15:43:40.920
136, 454.92, 8.84, 12.26, 8.55, 0.000, 0.000, 0.000, 15:43:40.921
137, 1101.39, 1.22, 16.44, 15.49, 0.000, 0.000, 0.000, 15:43:40.942
138, 1299.00, 14.27, 10.51, 7.79, 0.000, 0.000, 0.000, 15:43:40.943
139, 535.13, 10.15, 8.67, 11.10, 0.000, 0.000, 0.000, 15:43:40.943
140, 821.87, 4.60, 14.90, 19.58, 0.000, 0.000, 0.000, 15:43:40.943
141, 1357.94, 5.42, 10.88, 14.05, 0.000, 0.000, 0.000, 15:43:40.965
142, 778.87, 14.50, 6.42, 4.49, 0.000, 0.000, 0.000, 15:43:40.965
143, 556.46, 6.35, 15.01, 16.92, 0.000, 0.000, 0.000, 15:43:40.965
144, 1292.85, 7.52, 14.69, 14.81, 0.000, 0.000, 0.000, 15:43:40.966
145, 1078.63, 7.32, 6.30, 4.16, 0.000, 0.000, 0.000, 15:43:40.966
146, 453.75, 6.42, 7.20, 13.67, 0.000, 0.000, 0.000, 15:43:40.966
147, 1104.35, 8.16, 14.49, 16.55, 0.000, 0.000, 0.000, 15:43:40.987
148, 1280.38, 9.00, 7.42, 9.85, 0.000, 0.000, 0.000, 15:43:40.988
149, 520.06, 12.04, 4.07, 4.88, 0.000, 0.000, 0.000, 15:43:40.988
150, 839.76, 0.95, 15.51, 12.73, 0.000, 0.000, 0.000, 15:43:40.988
151, 1371.80, 7.56, 12.87, 6.55, 0.000, 0.000, 0.000, 15:43:41.010
152, 777.24, 15.94, 5.59, 6.21, 0.000, 0.000, 0.000, 15:43:41.010
153, 567.93, 4.91, 16.39, 15.09, 0.000, 0.000, 0.000, 15:43:41.010
154, 1297.55, 3.67, 11.97, 13.94, 0.000, 0.000, 0.000, 15:43:41.010
155, 1094.54, 11.07, 2.88, 10.10, 0.000, 0.000, 0.000, 15:43:41.032
156, 453.78, 14.36, 9.36, 6.16, 0.000, 0.000, 0.000, 15:43:41.033
157, 1120.36, -2.85, 17.78, 22.10, 0.000, 0.000, 0.000, 15:43:41.033
158, 1306.24, 12.11, 8.87, 13.98, 0.000, 0.000, 0.000, 15:43:41.033
159, 554.78, 15.79, 9.72, 8.05, 0.000, 0.000, 0.000, 15:43:41.055
160, 857.19, 2.18, 19.47, 19.30, 0.000, 0.000, 0.000, 15:43:41.055
161, 1399.88, 5.61, 9.74, 12.91, 0.000, 0.000, 0.000, 15:43:41.055
162, 778.85, 14.66, 6.39, 4.11, 0.000, 0.000, 0.000, 15:43:41.056
163, 547.83, 5.19, 16.29, 14.86, 0.000, 0.000, 0.000, 15:43:41.056
164, 1279.80, 5.32, 11.49, 15.61, 0.000, 0.000, 0.000, 15:43:41.056
165, 1054.16, 19.41, 5.71, 8.13, 0.000, 0.000, 0.000, 15:43:41.077
166, 430.55, 6.56, 9.54, 12.89, 0.000, 0.000, 0.000, 15:43:41.078
167, 1085.01, 2.70, 15.31, 14.99, 0.000, 0.000, 0.000, 15:43:41.078
168, 1268.05, 8.90, 11.26, 8.33, 0.000, 0.000, 0.000, 15:43:41.078
169, 518.97, 14.09, 5.22, 6.93, 0.000, 0.000, 0.000, 15:43:41.100
170, 812.31, -0.07, 18.07, 14.13, 0.000, 0.000, 0.000, 15:43:41.100
171, 1353.39, 4.74, 11.69, 15.70, 0.000, 0.000, 0.000, 15:43:41.100
172, 774.47, 15.12, 5.86, 9.58, 0.000, 0.000, 0.000, 15:43:41.101
173, 592.46, 4.55, 13.78, 14.65, 0.000, 0.000, 0.000, 15:43:41.122
174, 1315.96, 8.35, 12.79, 11.30, 0.000, 0.000, 0.000, 15:43:41.123
175, 1076.32, 5.62, 8.90, 9.82, 0.000, 0.000, 0.000, 15:43:41.123
176, 459.10, 9.41, 10.44, 11.18, 0.000, 0.000, 0.000, 15:43:41.123
177, 1111.23, 6.72, 12.06, 15.16, 0.000, 0.000, 0.000, 15:43:41.145
178, 1292.75, 12.42, 8.22, 10.70, 0.000, 0.000, 0.000, 15:43:41.145
179, 535.62, 11.29, 6.80, 10.11, 0.000, 0.000, 0.000, 15:43:41.145
180, 831.02, 4.13, 16.63, 16.02, 0.000, 0.000, 0.000, 15:43:41.146
181, 1373.98, 12.53, 10.22, 13.71, 0.000, 0.000, 0.000, 15:43:41.146
182, 779.88, 14.25, 5.04, 5.67, 0.000, 0.000, 0.000, 15:43:41.146
183, 578.62, 7.59, 15.52, 19.26, 0.000, 0.000, 0.000, 15:43:41.167
184, 1310.50, 3.24, 15.37, 11.88, 0.000, 0.000, 0.000, 15:43:41.168
185, 1069.61, 12.68, 6.98, 8.84, 0.000, 0.000, 0.000, 15:43:41.168
186, 456.48, 8.67, 11.90, 10.27, 0.000, 0.000, 0.000, 15:43:41.168
187, 1105.32, 4.32, 18.47, 15.53, 0.000, 0.000, 0.000, 15:43:41.190
188, 1286.33, 9.29, 9.48, 10.92, 0.000, 0.000, 0.000, 15:43:41.190
189, 537.80, 12.62, 2.37, 4.50, 0.000, 0.000, 0.000, 15:43:41.191
190, 830.63, 6.23, 18.51, 10.73, 0.000, 0.000, 0.000, 15:43:41.191
191, 1366.35, 7.25, 8.03, 13.04, 0.000, 0.000, 0.000, 15:43:41.212
192, 773.10, 16.32, 5.29, 6.37, 0.000, 0.000, 0.000, 15:43:41.213
193, 579.08, 0.80, 17.63, 17.58, 0.000, 0.000, 0.000, 15:43:41.213
194, 1319.42, 7.28, 16.09, 11.92, 0.000, 0.000, 0.000, 15:43:41.214
195, 1072.98, 14.47, 6.63, 10.10, 0.000, 0.000, 0.000, 15:43:41.235
196, 460.37, 12.10, 10.08, 12.15, 0.000, 0.000, 0.000, 15:43:41.235
197, 1109.01, 4.49, 14.36, 19.22, 0.000, 0.000, 0.000, 15:43:41.235
198, 1292.62, 11.48, 7.09, 9.76, 0.000, 0.000, 0.000, 15:43:41.236
199, 531.56, 14.86, 2.42, 3.36, 0.000, 0.000, 0.000, 15:43:41.236
200, 821.15, 3.88, 17.76, 15.90, 0.000, 0.000, 0.000, 15:43:41.236
0, 395.86, 7.80, 16.19, 12.08, 0.000, 0.000, 0.000, 15:43:41.257
1, -200.84, 15.37, 2.32, 10.76, 0.000, 0.000, 0.000, 15:43:41.258
2, -408.96, 1.68, 19.32, 16.54, 0.000, 0.000, 0.000, 15:43:41.258
3, 329.24, 6.35, 15.47, 17.90, 0.000, 0.000, 0.000, 15:43:41.280
4, 95.66, 14.96, 7.35, 6.02, 0.000, 0.000, 0.000, 15:43:41.280
5, -540.58, 8.97, 14.34, 10.13, 0.000, 0.000, 0.000, 15:43:41.281
6, 152.28, 2.70, 17.23, 16.72, 0.000, 0.000, 0.000, 15:43:41.281
7, 329.29, 7.49, 12.21, 12.78, 0.000, 0.000, 0.000, 15:43:41.281
8, -448.90, 13.62, 1.09, 6.09, 0.000, 0.000, 0.000, 15:43:41.281
9, -172.33, 5.14, 15.07, 16.54, 0.000, 0.000, 0.000, 15:43:41.302
10, 412.88, 4.13, 14.57, 15.05, 0.000, 0.000, 0.000, 15:43:41.303
11, -189.98, 13.90, 6.42, 10.98, 0.000, 0.000, 0.000, 15:43:41.303
12, -409.40, 0.60, 13.10, 16.11, 0.000, 0.000, 0.000, 15:43:41.303
13, 333.44, 5.22, 11.52, 15.00, 0.000, 0.000, 0.000, 15:43:41.325
14, 91.80, 16.70, 6.75, 10.07, 0.000, 0.000, 0.000, 15:43:41.325
15, -539.18, 8.93, 9.90, 7.94, 0.000, 0.000, 0.000, 15:43:41.325
16, 127.31, 3.56, 17.27, 17.92, 0.000, 0.000, 0.000, 15:43:41.325
17, 306.46, 9.58, 8.72, 14.36, 0.000, 0.000, 0.000, 15:43:41.348
18, -456.78, 20.66, 5.70, 3.40, 0.000, 0.000, 0.000, 15:43:41.348
19, -170.65, -1.67, 17.49, 16.55, 0.000, 0.000, 0.000, 15:43:41.348
20, 385.54, 5.20, 16.32, 11.60, 0.000, 0.000, 0.000, 15:43:41.349
21, -212.48, 15.09, 3.95, 4.94, 0.000, 0.000, 0.000, 15:43:41.370
22, -423.57, 6.29, 15.06, 18.39, 0.000, 0.000, 0.000, 15:43:41.370
23, 322.20, 3.86, 11.51, 15.85, 0.000, 0.000, 0.000, 15:43:41.370
24, 86.33, 15.54, 3.71, 4.93, 0.000, 0.000, 0.000, 15:43:41.371
25, -542.94, 4.96, 11.02, 13.02, 0.000, 0.000, 0.000, 15:43:41.371
26, 113.64, 3.56, 16.55, 17.13, 0.000, 0.000, 0.000, 15:43:41.371
27, 294.12, 12.55, 10.34, 6.98, 0.000, 0.000, 0.000, 15:43:41.392
28, -478.39, 12.39, 2.18, 10.00, 0.000, 0.000, 0.000, 15:43:41.392
29, -172.53, 2.05, 17.19, 14.83, 0.000, 0.000, 0.000, 15:43:41.393
30, 419.61, 3.99, 12.38, 17.03, 0.000, 0.000, 0.000, 15:43:41.393
31, -203.42, 18.74, 2.81, 7.94, 0.000, 0.000, 0.000, 15:43:41.415
32, -420.60, 6.44, 14.59, 14.66, 0.000, 0.000, 0.000, 15:43:41.415
33, 325.21, 5.33, 13.57, 9.70, 0.000, 0.000, 0.000, 15:43:41.415
34, 89.20, 12.91, 7.32, 8.13, 0.000, 0.000, 0.000, 15:43:41.416
35, -550.56, 9.55, 11.16, 10.63, 0.000, 0.000, 0.000, 15:43:41.437
36, 124.52, 4.95, 17.61, 18.15, 0.000, 0.000, 0.000, 15:43:41.438
37, 322.15, 6.03, 11.68, 6.80, 0.000, 0.000, 0.000, 15:43:41.438
38, -449.98, 14.54, 8.35, 6.36, 0.000, 0.000, 0.000, 15:43:41.438
39, -162.97, 3.68, 15.96, 20.13, 0.000, 0.000, 0.000, 15:43:41.460
40, 386.99, 7.91, 12.37, 13.91, 0.000, 0.000, 0.000, 15:43:41.460
41, -211.15, 14.31, 3.94, 5.71, 0.000, 0.000, 0.000, 15:43:41.460
42, -415.67, 4.10, 14.80, 17.43, 0.000, 0.000, 0.000, 15:43:41.460
43, 324.27, 4.18, 11.88, 11.95, 0.000, 0.000, 0.000, 15:43:41.461
44, 93.61, 15.38, 5.15, 8.54, 0.000, 0.000, 0.000, 15:43:41.461
45, -532.65, 10.81, 9.05, 9.53, 0.000, 0.000, 0.000, 15:43:41.482
46, 125.62, 0.64, 12.74, 17.84, 0.000, 0.000, 0.000, 15:43:41.482
47, 300.93, 10.69, 8.04, 10.18, 0.000, 0.000, 0.000, 15:43:41.483
48, -453.91, 11.51, 6.25, 7.80, 0.000, 0.000, 0.000, 15:43:41.483
49, -160.31, 0.79, 17.34, 17.63, 0.000, 0.000, 0.000, 15:43:41.505
50, 382.88, 9.91, 9.94, 12.94, 0.000, 0.000, 0.000, 15:43:41.505
51, -213.21, 18.06, 8.04, 4.08, 0.000, 0.000, 0.000, 15:43:41.505
52, -397.90, 4.99, 17.63, 18.39, 0.000, 0.000, 0.000, 15:43:41.505
53, 334.96, 2.83, 10.19, 10.81, 0.000, 0.000, 0.000, 15:43:41.527
54, 90.02, 18.41, 9.54, 7.34, 0.000, 0.000, 0.000, 15:43:41.527
55, -539.58, 1.93, 12.99, 16.03, 0.000, 0.000, 0.000, 15:43:41.528
56, 107.38, 2.00, 14.23, 17.08, 0.000, 0.000, 0.000, 15:43:41.528
57, 312.43, 10.13, 10.63, 8.54, 0.000, 0.000, 0.000, 15:43:41.550
58, -440.30, 12.64, 2.42, 11.75, 0.000, 0.000, 0.000, 15:43:41.550
59, -153.56, 2.02, 21.44, 16.48, 0.000, 0.000, 0.000, 15:43:41.550
60, 404.17, 4.99, 11.49, 13.94, 0.000, 0.000, 0.000, 15:43:41.551
61, -202.15, 14.95, 5.73, 9.90, 0.000, 0.000, 0.000, 15:43:41.551
62, -416.08, 3.72, 15.63, 10.71, 0.000, 0.000, 0.000, 15:43:41.551
63, 321.63, 10.07, 13.65, 11.46, 0.000, 0.000, 0.000, 15:43:41.572
64, 90.00, 10.48, 8.66, 9.56, 0.000, 0.000, 0.000, 15:43:41.572
65, -535.28, 5.16, 11.12, 5.01, 0.000, 0.000, 0.000, 15:43:41.573
66, 111.55, 4.96, 13.29, 16.29, 0.000, 0.000, 0.000, 15:43:41.573
67, 315.18, 15.13, 6.96, 11.95, 0.000, 0.000, 0.000, 15:43:41.595
68, -441.79, 11.13, 5.08, 6.95, 0.000, 0.000, 0.000, 15:43:41.595
69, -155.69, 3.14, 17.74, 14.29, 0.000, 0.000, 0.000, 15:43:41.596
70, 392.74, 7.45, 15.06, 12.25, 0.000, 0.000, 0.000, 15:43:41.596
71, -205.60, 14.97, 4.70, 7.03, 0.000, 0.000, 0.000, 15:43:41.617
72, -414.93, 8.96, 13.74, 17.35, 0.000, 0.000, 0.000, 15:43:41.618
73, 325.56, 0.28, 14.84, 13.19, 0.000, 0.000, 0.000, 15:43:41.618
74, 85.94, 11.46, 2.48, 7.42, 0.000, 0.000, 0.000, 15:43:41.618
75, -541.87, 6.20, 12.35, 11.00, 0.000, 0.000, 0.000, 15:43:41.640
76, 113.85, 4.74, 18.17, 16.15, 0.000, 0.000, 0.000, 15:43:41.640
77, 334.49, 10.88, 6.98, 12.85, 0.000, 0.000, 0.000, 15:43:41.640
78, -440.38, 14.45, 7.57, 8.19, 0.000, 0.000, 0.000, 15:43:41.640
79, -159.32, 5.25, 16.84, 13.80, 0.000, 0.000, 0.000, 15:43:41.641
80, 394.08, 9.30, 8.85, 8.76, 0.000, 0.000, 0.000, 15:43:41.641
81, -209.08, 18.29, 4.59, 9.45, 0.000, 0.000, 0.000, 15:43:41.663
82, -414.81, 3.70, 13.11, 14.11, 0.000, 0.000, 0.000, 15:43:41.663
83, 322.94, 3.13, 14.94, 12.73, 0.000, 0.000, 0.000, 15:43:41.663
84, 75.84, 14.03, 3.75, 8.14, 0.000, 0.000, 0.000, 15:43:41.663
85, -545.21, 11.27, 10.38, 11.92, 0.000, 0.000, 0.000, 15:43:41.685
86, 134.02, -0.89, 17.36, 16.55, 0.000, 0.000, 0.000, 15:43:41.685
87, 327.38, 8.69, 10.20, 10.90, 0.000, 0.000, 0.000, 15:43:41.686
88, -449.63, 10.36, 8.47, 8.79, 0.000, 0.000, 0.000, 15:43:41.686
89, -151.68, 3.14, 18.55, 18.61, 0.000, 0.000, 0.000, 15:43:41.707
90, 392.57, 16.20, 11.96, 16.00, 0.000, 0.000, 0.000, 15:43:41.708
91, -210.22, 15.46, 4.73, 6.04, 0.000, 0.000, 0.000, 15:43:41.708
92, -414.68, 5.14, 13.76, 15.90, 0.000, 0.000, 0.000, 15:43:41.708
93, 326.48, 2.94, 10.87, 11.05, 0.000, 0.000, 0.000, 15:43:41.730
94, 97.00, 14.96, 5.62, 10.37, 0.000, 0.000, 0.000, 15:43:41.730
95, -530.72, 5.21, 9.97, 13.85, 0.000, 0.000, 0.000, 15:43:41.730
96, 122.99, 2.47, 17.84, 14.19, 0.000, 0.000, 0.000, 15:43:41.730
97, 308.35, 7.05, 8.27, 13.45, 0.000, 0.000, 0.000, 15:43:41.731
98, -452.16, 11.81, 3.75, 5.93, 0.000, 0.000, 0.000, 15:43:41.731
99, -158.24, 2.79, 15.81, 16.31, 0.000, 0.000, 0.000, 15:43:41.752
100, 390.50, 3.86, 14.89, 11.60, 0.000, 0.000, 0.000, 15:43:41.752
101, -208.78, 13.43, 2.95, 7.41, 0.000, 0.000, 0.000, 15:43:41.753
102, -429.45, 2.86, 14.28, 15.66, 0.000, 0.000, 0.000, 15:43:41.753
103, 331.99, 4.55, 17.27, 13.26, 0.000, 0.000, 0.000, 15:43:41.775
104, 85.18, 11.77, 6.35, 6.24, 0.000, 0.000, 0.000, 15:43:41.775
105, -508.43, 8.18, 10.44, 12.36, 0.000, 0.000, 0.000, 15:43:41.775
106, 132.37, 3.78, 15.31, 16.27, 0.000, 0.000, 0.000, 15:43:41.775
107, 311.44, 11.53, 11.84, 10.23, 0.000, 0.000, 0.000, 15:43:41.797
108, -452.52, 19.58, 7.12, 9.04, 0.000, 0.000, 0.000, 15:43:41.798
109, -159.46, -2.06, 15.52, 17.56, 0.000, 0.000, 0.000, 15:43:41.798
110, 389.31, 9.53, 10.28, 14.20, 0.000, 0.000, 0.000, 15:43:41.798
111, -203.21, 18.29, 4.13, 3.92, 0.000, 0.000, 0.000, 15:43:41.820
112, -417.21, 7.82, 15.80, 15.68, 0.000, 0.000, 0.000, 15:43:41.820
113, 321.83, 3.72, 12.55, 14.95, 0.000, 0.000, 0.000, 15:43:41.820
114, 97.54, 12.55, 6.12, 3.37, 0.000, 0.000, 0.000, 15:43:41.821
115, -528.82, 5.21, 9.55, 12.46, 0.000, 0.000, 0.000, 15:43:41.821
116, 122.85, 2.40, 18.24, 15.20, 0.000, 0.000, 0.000, 15:43:41.821
117, 307.17, 8.67, 8.77, 11.48, 0.000, 0.000, 0.000, 15:43:41.842
118, -452.08, 9.32, 5.66, 9.73, 0.000, 0.000, 0.000, 15:43:41.842
119, -158.85, 4.84, 18.80, 18.61, 0.000, 0.000, 0.000, 15:43:41.843
120, 394.39, 8.14, 10.81, 10.09, 0.000, 0.000, 0.000, 15:43:41.843
121, -224.53, 13.65, 4.19, 5.41, 0.000, 0.000, 0.000, 15:43:41.865
122, -401.73, 3.20, 15.15, 18.41, 0.000, 0.000, 0.000, 15:43:41.865
123, 343.19, 6.22, 16.20, 14.30, 0.000, 0.000, 0.000, 15:43:41.865
124, 96.39, 13.55, 6.43, 7.02, 0.000, 0.000, 0.000, 15:43:41.865
125, -535.83, 10.79, 11.75, 10.56, 0.000, 0.000, 0.000, 15:43:41.887
126, 129.42, 11.74, 16.14, 15.77, 0.000, 0.000, 0.000, 15:43:41.887
127, 309.88, 5.74, 4.60, 7.28, 0.000, 0.000, 0.000, 15:43:41.888
128, -454.93, 11.36, 3.88, 5.79, 0.000, 0.000, 0.000, 15:43:41.888
129, -164.35, 0.77, 17.13, 19.26, 0.000, 0.000, 0.000, 15:43:41.910
130, 405.77, 7.30, 11.36, 14.21, 0.000, 0.000, 0.000, 15:43:41.910
131, -199.96, 17.90, 3.73, 6.05, 0.000, 0.000, 0.000, 15:43:41.910
132, -418.81, 7.76, 14.48, 18.04, 0.000, 0.000, 0.000, 15:43:41.911
133, 323.42, 6.57, 15.43, 16.07, 0.000, 0.000, 0.000, 15:43:41.911
134, 89.15, 12.52, 6.98, 2.87, 0.000, 0.000, 0.000, 15:43:41.911
135, -531.42, 10.08, 8.90, 11.60, 0.000, 0.000, 0.000, 15:43:41.932
136, 133.91, 0.87, 16.49, 13.48, 0.000, 0.000, 0.000, 15:43:41.932
137, 311.32, 9.08, 8.11, 9.29, 0.000, 0.000, 0.000, 15:43:41.933
138, -450.11, 13.74, 8.11, 11.55, 0.000, 0.000, 0.000, 15:43:41.933
139, -157.65, -0.12, 15.13, 14.61, 0.000, 0.000, 0.000, 15:43:41.955
140, 389.48, 8.83, 10.36, 10.13, 0.000, 0.000, 0.000, 15:43:41.955
141, -212.98, 15.31, 4.58, 6.62, 0.000, 0.000, 0.000, 15:43:41.955
142, -420.42, 6.34, 15.40, 10.84, 0.000, 0.000, 0.000, 15:43:41.955
143, 336.66, 5.73, 17.97, 13.02, 0.000, 0.000, 0.000, 15:43:41.977
144, 95.65, 19.49, 7.39, 8.33, 0.000, 0.000, 0.000, 15:43:41.978
145, -542.84, -0.09, 10.51, 11.29, 0.000, 0.000, 0.000, 15:43:41.978
146, 118.18, 2.65, 16.64, 12.13, 0.000, 0.000, 0.000, 15:43:41.978
147, 320.32, 10.95, 8.74, 13.81, 0.000, 0.000, 0.000, 15:43:42.000
148, -446.73, 14.84, 6.37, 9.84, 0.000, 0.000, 0.000, 15:43:42.000
149, -151.24, 1.56, 16.97, 16.73, 0.000, 0.000, 0.000, 15:43:42.000
150, 388.18, 7.41, 12.74, 12.45, 0.000, 0.000, 0.000, 15:43:42.001
151, -213.34, 12.07, 4.77, 7.15, 0.000, 0.000, 0.000, 15:43:42.001
152, -404.84, 4.88, 14.45, 16.84, 0.000, 0.000, 0.000, 15:43:42.001
153, 327.91, 9.00, 12.93, 11.17, 0.000, 0.000, 0.000, 15:43:42.022
154, 90.28, 10.83, 6.82, 8.47, 0.000, 0.000, 0.000, 15:43:42.022
155, -528.19, 8.87, 13.48, 13.33, 0.000, 0.000, 0.000, 15:43:42.023
156, 131.98, 2.61, 16.71, 14.52, 0.000, 0.000, 0.000, 15:43:42.023
157, 321.27, 13.13, 10.14, 13.27, 0.000, 0.000, 0.000, 15:43:42.045
158, -431.99, 11.97, 5.31, 8.62, 0.000, 0.000, 0.000, 15:43:42.045
159, -132.26, 3.82, 14.67, 15.60, 0.000, 0.000, 0.000, 15:43:42.046
160, 428.23, 8.41, 13.20, 12.91, 0.000, 0.000, 0.000, 15:43:42.046
161, -171.66, 15.87, 5.31, 7.81, 0.000, 0.000, 0.000, 15:43:42.067
162, -402.54, 13.19, 14.07, 14.90, 0.000, 0.000, 0.000, 15:43:42.068
163, 311.20, 4.55, 7.64, 14.79, 0.000, 0.000, 0.000, 15:43:42.068
164, 79.05, 13.24, 6.16, 8.16, 0.000, 0.000, 0.000, 15:43:42.068
165, -562.12, 8.33, 11.10, 12.74, 0.000, 0.000, 0.000, 15:43:42.090
166, 94.79, 1.78, 15.67, 15.83, 0.000, 0.000, 0.000, 15:43:42.090
167, 289.72, 8.00, 7.73, 8.84, 0.000, 0.000, 0.000, 15:43:42.090
168, -471.89, 12.46, 7.12, 10.11, 0.000, 0.000, 0.000, 15:43:42.090
169, -174.06, -2.43, 19.66, 20.22, 0.000, 0.000, 0.000, 15:43:42.091
170, 387.92, 4.97, 9.73, 9.53, 0.000, 0.000, 0.000, 15:43:42.091
171, -205.01, 20.54, 3.64, 7.42, 0.000, 0.000, 0.000, 15:43:42.112
172, -416.70, 1.91, 16.53, 16.61, 0.000, 0.000, 0.000, 15:43:42.113
173, 330.95, 3.30, 11.06, 12.97, 0.000, 0.000, 0.000, 15:43:42.113
174, 90.65, 9.62, 7.19, 6.58, 0.000, 0.000, 0.000, 15:43:42.113
175, -550.57, 5.89, 12.49, 6.72, 0.000, 0.000, 0.000, 15:43:42.135
176, 156.48, 0.88, 18.10, 14.37, 0.000, 0.000, 0.000, 15:43:42.135
177, 327.41, 10.62, 8.83, 13.93, 0.000, 0.000, 0.000, 15:43:42.135
178, -443.95, 11.61, 7.14, 7.61, 0.000, 0.000, 0.000, 15:43:42.135
179, -157.85, 4.35, 17.02, 16.53, 0.000, 0.000, 0.000, 15:43:42.157
180, 390.34, 14.22, 11.47, 15.23, 0.000, 0.000, 0.000, 15:43:42.157
181, -206.14, 5.74, 2.02, 6.94, 0.000, 0.000, 0.000, 15:43:42.158
182, -402.08, 5.46, 14.82, 14.24, 0.000, 0.000, 0.000, 15:43:42.158
183, 335.53, 9.68, 16.62, 16.15, 0.000, 0.000, 0.000, 15:43:42.180
184, 95.24, 15.78, 6.89, 7.83, 0.000, 0.000, 0.000, 15:43:42.180
185, -535.39, 7.27, 9.63, 11.45, 0.000, 0.000, 0.000, 15:43:42.181
186, 132.23, 4.69, 12.91, 15.86, 0.000, 0.000, 0.000, 15:43:42.181
187, 311.98, 9.44, 11.22, 11.28, 0.000, 0.000, 0.000, 15:43:42.181
188, -457.21, 13.78, 6.21, 7.50, 0.000, 0.000, 0.000, 15:43:42.181
189, -156.17, 3.64, 20.79, 15.79, 0.000, 0.000, 0.000, 15:43:42.202
190, 395.81, 6.17, 12.99, 13.98, 0.000, 0.000, 0.000, 15:43:42.203
191, -207.71, 12.81, 3.65, 5.92, 0.000, 0.000, 0.000, 15:43:42.203
192, -394.80, 4.92, 17.27, 13.20, 0.000, 0.000, 0.000, 15:43:42.203
193, 337.56, 8.81, 11.98, 14.46, 0.000, 0.000, 0.000, 15:43:42.225
194, 97.32, 11.79, 4.17, 5.54, 0.000, 0.000, 0.000, 15:43:42.225
195, -526.09, 7.69, 8.62, 11.68, 0.000, 0.000, 0.000, 15:43:42.225
196, 135.00, 3.51, 16.87, 15.93, 0.000, 0.000, 0.000, 15:43:42.225
197, 309.00, 9.22, 9.87, 11.25, 0.000, 0.000, 0.000, 15:43:42.247
198, -455.70, 16.26, 8.08, 5.13, 0.000, 0.000, 0.000, 15:43:42.247
199, -151.28, -3.85, 12.81, 16.55, 0.000, 0.000, 0.000, 15:43:42.248
200, 396.20, 8.45, 12.34, 13.47, 0.000, 0.000, 0.000, 15:43:42.248
0, -191.52, 15.23, 2.13, 5.92, 0.000, 0.000, 0.000, 15:43:42.248
1, -395.59, 0.58, 17.33, 16.50, 0.000, 0.000, 0.000, 15:43:42.270
2, 333.68, 5.52, 13.39, 10.55, 0.000, 0.000, 0.000, 15:43:42.270
3, 92.00, 12.89, 7.95, 10.62, 0.000, 0.000, 0.000, 15:43:42.270
4, -524.16, 6.35, 9.52, 12.74, 0.000, 0.000, 0.000, 15:43:42.270
5, 138.22, 4.48, 19.03, 17.31, 0.000, 0.000, 0.000, 15:43:42.292
6, 303.35, 14.99, 4.15, 5.98, 0.000, 0.000, 0.000, 15:43:42.292
7, -454.41, 9.05, 7.64, 7.89, 0.000, 0.000, 0.000, 15:43:42.293
8, -129.14, 4.31, 16.50, 18.74, 0.000, 0.000, 0.000, 15:43:42.293
9, 408.80, 6.08, 10.83, 13.36, 0.000, 0.000, 0.000, 15:43:42.322
10, -198.00, 14.08, 5.18, 9.41, 0.000, 0.000, 0.000, 15:43:42.322
11, -403.79, 6.66, 15.80, 12.52, 0.000, 0.000, 0.000, 15:43:42.322
12, 330.61, 5.27, 14.81, 14.70, 0.000, 0.000, 0.000, 15:43:42.323
13, 97.36, 15.41, 7.05, 8.97, 0.000, 0.000, 0.000, 15:43:42.323
14, -526.67, 10.03, 10.67, 13.77, 0.000, 0.000, 0.000, 15:43:42.323
15, 128.50, 6.98, 13.60, 19.97, 0.000, 0.000, 0.000, 15:43:42.337
16, 307.29, 11.42, 7.00, 14.25, 0.000, 0.000, 0.000, 15:43:42.338
17, -442.99, 9.58, 5.58, 4.37, 0.000, 0.000, 0.000, 15:43:42.338
18, -161.38, 3.53, 16.20, 15.27, 0.000, 0.000, 0.000, 15:43:42.339
19, 372.08, 7.18, 12.58, 11.83, 0.000, 0.000, 0.000, 15:43:42.362
20, -239.44, 18.08, 4.34, 4.08, 0.000, 0.000, 0.000, 15:43:42.363
21, -395.42, 7.58, 17.34, 12.31, 0.000, 0.000, 0.000, 15:43:42.363
22, 331.08, 8.18, 14.87, 11.88, 0.000, 0.000, 0.000, 15:43:42.363
23, 85.37, 11.18, 8.30, 10.95, 0.000, 0.000, 0.000, 15:43:42.382
24, -538.38, 13.56, 14.36, 11.85, 0.000, 0.000, 0.000, 15:43:42.383
25, 118.51, -3.01, 17.38, 17.41, 0.000, 0.000, 0.000, 15:43:42.383
26, 292.96, 9.58, 9.13, 7.44, 0.000, 0.000, 0.000, 15:43:42.383
27, -461.09, 14.87, 6.67, 10.48, 0.000, 0.000, 0.000, 15:43:42.405
28, -170.11, 2.33, 13.43, 17.83, 0.000, 0.000, 0.000, 15:43:42.405
29, 376.76, 2.38, 12.79, 15.02, 0.000, 0.000, 0.000, 15:43:42.405
30, -232.39, 12.18, 2.02, 3.88, 0.000, 0.000, 0.000, 15:43:42.406
31, -411.32, 3.15, 15.54, 19.61, 0.000, 0.000, 0.000, 15:43:42.406
32, 334.48, 3.11, 12.23, 15.94, 0.000, 0.000, 0.000, 15:43:42.406
33, 90.67, 12.37, 7.71, 8.70, 0.000, 0.000, 0.000, 15:43:42.428
34, -533.68, 8.14, 10.68, 13.23, 0.000, 0.000, 0.000, 15:43:42.428
35, 121.63, 1.51, 16.65, 16.38, 0.000, 0.000, 0.000, 15:43:42.428
36, 300.47, 11.99, 7.40, 7.30, 0.000, 0.000, 0.000, 15:43:42.428
37, -462.82, 16.26, 7.50, 7.27, 0.000, 0.000, 0.000, 15:43:42.450
38, -161.95, 1.04, 13.95, 14.18, 0.000, 0.000, 0.000, 15:43:42.450
39, 383.34, 9.63, 10.86, 11.70, 0.000, 0.000, 0.000, 15:43:42.450
40, -225.66, 13.74, 4.48, 7.10, 0.000, 0.000, 0.000, 15:43:42.451
41, -415.24, 4.55, 14.45, 14.79, 0.000, 0.000, 0.000, 15:43:42.472
42, 335.55, 10.27, 14.82, 13.56, 0.000, 0.000, 0.000, 15:43:42.472
43, 95.52, 5.46, 9.14, 8.15, 0.000, 0.000, 0.000, 15:43:42.473
44, -535.64, 9.71, 15.66, 12.88, 0.000, 0.000, 0.000, 15:43:42.473
45, 130.30, 4.76, 14.08, 18.16, 0.000, 0.000, 0.000, 15:43:42.495
46, 303.03, 11.38, 8.55, 11.59, 0.000, 0.000, 0.000, 15:43:42.495
47, -458.34, 17.23, 4.47, 4.87, 0.000, 0.000, 0.000, 15:43:42.496
48, -149.30, 0.72, 16.18, 14.22, 0.000, 0.000, 0.000, 15:43:42.496
49, 398.69, 6.47, 9.48, 14.89, 0.000, 0.000, 0.000, 15:43:42.496
50, -212.44, 15.74, 3.31, 6.69, 0.000, 0.000, 0.000, 15:43:42.496
51, -412.58, 7.63, 13.13, 15.72, 0.000, 0.000, 0.000, 15:43:42.517
52, 324.77, 5.88, 14.65, 16.01, 0.000, 0.000, 0.000, 15:43:42.518
53, 93.40, 12.81, 5.36, 6.57, 0.000, 0.000, 0.000, 15:43:42.519
54, -535.45, 11.98, 11.04, 7.12, 0.000, 0.000, 0.000, 15:43:42.519
55, 129.35, 1.36, 16.35, 13.93, 0.000, 0.000, 0.000, 15:43:42.540
56, 306.46, 7.46, 11.70, 11.93, 0.000, 0.000, 0.000, 15:43:42.540
57, -470.93, 13.21, 5.29, 9.53, 0.000, 0.000, 0.000, 15:43:42.540
58, -157.89, 3.78, 16.38, 13.02, 0.000, 0.000, 0.000, 15:43:42.540
59, 415.39, 8.45, 11.46, 10.26, 0.000, 0.000, 0.000, 15:43:42.562
60, -199.77, 19.46, 3.26, 6.79, 0.000, 0.000, 0.000, 15:43:42.563
61, -410.58, -4.36, 16.20, 15.88, 0.000, 0.000, 0.000, 15:43:42.563
62, 329.30, 5.94, 10.79, 17.31, 0.000, 0.000, 0.000, 15:43:42.563
63, 82.40, 13.81, 5.27, 7.55, 0.000, 0.000, 0.000, 15:43:42.585
64, -543.67, 7.33, 13.69, 8.47, 0.000, 0.000, 0.000, 15:43:42.585
65, 137.52, 3.83, 17.10, 18.76, 0.000, 0.000, 0.000, 15:43:42.585
66, 316.19, 11.30, 8.51, 13.71, 0.000, 0.000, 0.000, 15:43:42.586
67, -447.04, 12.09, 9.76, 8.67, 0.000, 0.000, 0.000, 15:43:42.586
68, -151.77, -0.79, 16.00, 18.60, 0.000, 0.000, 0.000, 15:43:42.586
69, 387.97, 9.63, 11.05, 16.84, 0.000, 0.000, 0.000, 15:43:42.607
70, -216.71, 10.66, 4.05, 6.63, 0.000, 0.000, 0.000, 15:43:42.607
71, -413.37, 2.73, 11.96, 15.44, 0.000, 0.000, 0.000, 15:43:42.608
72, 327.34, 4.82, 10.40, 16.24, 0.000, 0.000, 0.000, 15:43:42.608
73, 86.35, 14.41, 8.19, 8.57, 0.000, 0.000, 0.000, 15:43:42.630
74, -531.52, 7.05, 13.39, 13.93, 0.000, 0.000, 0.000, 15:43:42.630
75, 132.38, 7.89, 19.20, 10.91, 0.000, 0.000, 0.000, 15:43:42.631
76, 302.77, 12.73, 11.69, 12.19, 0.000, 0.000, 0.000, 15:43:42.631
77, -451.88, 12.50, 6.57, 4.43, 0.000, 0.000, 0.000, 15:43:42.652
78, -159.52, 3.10, 16.65, 17.83, 0.000, 0.000, 0.000, 15:43:42.653
79, 389.27, 2.65, 10.83, 15.44, 0.000, 0.000, 0.000, 15:43:42.653
80, -219.51, 12.45, 5.14, 7.83, 0.000, 0.000, 0.000, 15:43:42.653
81, -405.89, 4.14, 16.89, 10.65, 0.000, 0.000, 0.000, 15:43:42.675
82, 335.87, 8.52, 12.44, 13.70, 0.000, 0.000, 0.000, 15:43:42.675
83, 91.48, 13.38, 6.34, 7.46, 0.000, 0.000, 0.000, 15:43:42.675
84, -532.10, 9.03, 8.03, 10.30, 0.000, 0.000, 0.000, 15:43:42.676
85, 129.98, 3.47, 17.89, 13.27, 0.000, 0.000, 0.000, 15:43:42.676
86, 291.98, 7.69, 7.80, 11.83, 0.000, 0.000, 0.000, 15:43:42.676
87, -448.40, 12.24, 3.03, 6.88, 0.000, 0.000, 0.000, 15:43:42.697
88, -159.98, 2.51, 19.05, 16.09, 0.000, 0.000, 0.000, 15:43:42.697
89, 405.98, 7.90, 13.14, 10.96, 0.000, 0.000, 0.000, 15:43:42.698
90, -205.04, 15.64, 3.33, 7.56, 0.000, 0.000, 0.000, 15:43:42.698
91, -403.88, 6.63, 13.64, 15.71, 0.000, 0.000, 0.000, 15:43:42.720
92, 323.56, 1.92, 12.50, 13.18, 0.000, 0.000, 0.000, 15:43:42.720
93, 83.95, 11.67, 6.80, 10.56, 0.000, 0.000, 0.000, 15:43:42.720
94, -537.35, 11.75, 11.63, 9.90, 0.000, 0.000, 0.000, 15:43:42.720
95, 134.62, 4.74, 17.24, 17.32, 0.000, 0.000, 0.000, 15:43:42.742
96, 312.83, 21.07, 7.16, 10.74, 0.000, 0.000, 0.000, 15:43:42.743
97, -458.74, 5.15, 8.86, 10.67, 0.000, 0.000, 0.000, 15:43:42.743
98, -155.44, 0.65, 16.13, 13.76, 0.000, 0.000, 0.000, 15:43:42.743
99, 388.32, 7.73, 9.67, 9.94, 0.000, 0.000, 0.000, 15:43:42.765
100, -221.10, 14.47, 1.03, 4.97, 0.000, 0.000, 0.000, 15:43:42.765
101, -416.18, 2.12, 18.29, 17.39, 0.000, 0.000, 0.000, 15:43:42.765
102, 330.34, 4.47, 10.40, 11.30, 0.000, 0.000, 0.000, 15:43:42.765
103, 101.81, 15.86, 7.65, 4.55, 0.000, 0.000, 0.000, 15:43:42.766
104, -528.85, 9.35, 12.90, 11.31, 0.000, 0.000, 0.000, 15:43:42.766
105, 133.83, 9.02, 15.92, 14.96, 0.000, 0.000, 0.000, 15:43:42.787
106, 314.33, 7.99, 9.10, 11.86, 0.000, 0.000, 0.000, 15:43:42.787
107, -459.75, 10.70, 4.71, 6.71, 0.000, 0.000, 0.000, 15:43:42.788
108, -153.71, 2.06, 16.30, 19.39, 0.000, 0.000, 0.000, 15:43:42.788
109, 386.18, 9.50, 14.02, 12.46, 0.000, 0.000, 0.000, 15:43:42.810
110, -228.09, 10.37, 5.65, 7.88, 0.000, 0.000, 0.000, 15:43:42.810
111, -406.40, 4.27, 15.58, 13.86, 0.000, 0.000, 0.000, 15:43:42.810
112, 334.79, 9.36, 12.65, 14.51, 0.000, 0.000, 0.000, 15:43:42.811
113, 99.16, 11.72, 1.29, 7.15, 0.000, 0.000, 0.000, 15:43:42.832
114, -529.42, 11.28, 9.37, 15.17, 0.000, 0.000, 0.000, 15:43:42.833
115, 128.88, -2.04, 12.17, 18.18, 0.000, 0.000, 0.000, 15:43:42.833
116, 304.58, 9.62, 6.83, 8.73, 0.000, 0.000, 0.000, 15:43:42.833
117, -459.50, 14.66, 11.02, 10.88, 0.000, 0.000, 0.000, 15:43:42.855
118, -166.88, -0.70, 18.38, 17.65, 0.000, 0.000, 0.000, 15:43:42.855
119, 401.10, 5.98, 9.56, 10.91, 0.000, 0.000, 0.000, 15:43:42.855
120, -201.58, 16.37, 8.31, 6.02, 0.000, 0.000, 0.000, 15:43:42.855
121, -409.65, 7.01, 15.50, 16.67, 0.000, 0.000, 0.000, 15:43:42.856
122, 332.83, 7.75, 14.54, 14.71, 0.000, 0.000, 0.000, 15:43:42.856
123, 88.59, 12.80, 5.36, 8.97, 0.000, 0.000, 0.000, 15:43:42.877
124, -532.23, 4.37, 12.82, 12.72, 0.000, 0.000, 0.000, 15:43:42.877
125, 130.58, 5.09, 15.33, 14.54, 0.000, 0.000, 0.000, 15:43:42.900
126, 302.42, 9.39, 10.17, 9.36, 0.000, 0.000, 0.000, 15:43:42.900
127, -464.49, 12.55, 6.85, 7.57, 0.000, 0.000, 0.000, 15:43:42.900
128, -136.26, 5.58, 16.52, 17.50, 0.000, 0.000, 0.000, 15:43:42.901
129, 397.52, 8.00, 10.76, 12.10, 0.000, 0.000, 0.000, 15:43:42.901
130, -210.83, 19.56, 4.27, 2.53, 0.000, 0.000, 0.000, 15:43:42.901
131, -408.29, 8.36, 17.21, 14.67, 0.000, 0.000, 0.000, 15:43:42.922
132, 331.94, 10.07, 10.70, 14.90, 0.000, 0.000, 0.000, 15:43:42.922
133, 74.71, 12.99, 5.42, 7.85, 0.000, 0.000, 0.000, 15:43:42.923
134, -536.36, 2.95, 8.73, 16.15, 0.000, 0.000, 0.000, 15:43:42.923
135, 140.94, 2.26, 15.54, 16.69, 0.000, 0.000, 0.000, 15:43:42.945
136, 312.52, 9.25, 11.39, 10.39, 0.000, 0.000, 0.000, 15:43:42.945
137, -452.00, 12.22, 4.57, 7.75, 0.000, 0.000, 0.000, 15:43:42.945
138, -149.38, 4.18, 19.71, 16.83, 0.000, 0.000, 0.000, 15:43:42.945
139, 383.72, 9.78, 14.60, 14.46, 0.000, 0.000, 0.000, 15:43:42.946
140, -216.36, 16.40, 7.77, 5.98, 0.000, 0.000, 0.000, 15:43:42.946
141, -399.30, 4.03, 16.82, 15.93, 0.000, 0.000, 0.000, 15:43:42.967
142, 333.55, 3.84, 8.24, 16.24, 0.000, 0.000, 0.000, 15:43:42.967
143, 83.20, 11.29, 5.29, 9.38, 0.000, 0.000, 0.000, 15:43:42.968
144, -522.23, 7.32, 15.91, 5.89, 0.000, 0.000, 0.000, 15:43:42.968
145, 130.23, 3.10, 14.10, 10.10, 0.000, 0.000, 0.000, 15:43:42.990
146, 302.80, 8.71, 7.61, 11.20, 0.000, 0.000, 0.000, 15:43:42.990
147, -458.11, 18.91, 6.37, 8.28, 0.000, 0.000, 0.000, 15:43:42.990
148, -160.19, 5.27, 18.63, 19.21, 0.000, 0.000, 0.000, 15:43:42.990
149, 381.21, 7.20, 9.24, 15.59, 0.000, 0.000, 0.000, 15:43:43.012
150, -200.45, 18.64, 3.05, 4.47, 0.000, 0.000, 0.000, 15:43:43.012
151, -404.40, -0.83, 17.99, 14.06, 0.000, 0.000, 0.000, 15:43:43.013
152, 326.44, 5.22, 11.71, 13.65, 0.000, 0.000, 0.000, 15:43:43.013
153, 80.62, 12.71, 10.93, 8.27, 0.000, 0.000, 0.000, 15:43:43.035
154, -536.26, 6.52, 11.58, 12.26, 0.000, 0.000, 0.000, 15:43:43.035
155, 129.07, 2.28, 14.84, 16.98, 0.000, 0.000, 0.000, 15:43:43.035
156, 305.96, 12.33, 8.68, 12.73, 0.000, 0.000, 0.000, 15:43:43.035
157, -467.50, 11.00, 7.54, 5.72, 0.000, 0.000, 0.000, 15:43:43.036
158, -158.54, 4.35, 16.45, 14.63, 0.000, 0.000, 0.000, 15:43:43.036
159, 405.88, 8.35, 10.74, 11.52, 0.000, 0.000, 0.000, 15:43:43.057
160, -210.54, 9.89, 3.64, 5.68, 0.000, 0.000, 0.000, 15:43:43.058
161, -416.22, 3.01, 17.12, 17.12, 0.000, 0.000, 0.000, 15:43:43.058
162, 327.16, 6.36, 13.53, 19.42, 0.000, 0.000, 0.000, 15:43:43.058
163, 94.21, 16.02, 6.83, 7.74, 0.000, 0.000, 0.000, 15:43:43.080
164, -524.44, 10.94, 12.09, 9.85, 0.000, 0.000, 0.000, 15:43:43.080
165, 140.59, 3.68, 16.10, 18.53, 0.000, 0.000, 0.000, 15:43:43.080
166, 312.64, 9.99, 6.80, 9.86, 0.000, 0.000, 0.000, 15:43:43.080
167, -445.72, 12.48, 5.47, 7.68, 0.000, 0.000, 0.000, 15:43:43.102
168, -132.08, 7.96, 17.67, 16.67, 0.000, 0.000, 0.000, 15:43:43.103
169, 429.66, 1.56, 9.42, 12.26, 0.000, 0.000, 0.000, 15:43:43.103
170, -181.05, 12.65, 3.90, 4.67, 0.000, 0.000, 0.000, 15:43:43.103
171, -412.83, 3.35, 17.66, 14.47, 0.000, 0.000, 0.000, 15:43:43.125
172, 320.90, 4.35, 14.50, 15.48, 0.000, 0.000, 0.000, 15:43:43.125
173, 81.25, 11.22, 6.23, 8.34, 0.000, 0.000, 0.000, 15:43:43.126
174, -558.44, 10.14, 10.23, 13.68, 0.000, 0.000, 0.000, 15:43:43.126
175, 105.40, 5.82, 17.82, 16.44, 0.000, 0.000, 0.000, 15:43:43.126
176, 280.90, 7.76, 8.52, 7.75, 0.000, 0.000, 0.000, 15:43:43.127
177, -490.62, 14.06, 7.91, 8.62, 0.000, 0.000, 0.000, 15:43:43.148
178, -190.84, 2.76, 17.59, 19.38, 0.000, 0.000, 0.000, 15:43:43.148
179, 406.50, 5.17, 7.99, 13.62, 0.000, 0.000, 0.000, 15:43:43.149
180, -193.40, 13.58, 1.12, 6.11, 0.000, 0.000, 0.000, 15:43:43.149
181, -405.64, 4.13, 18.84, 13.94, 0.000, 0.000, 0.000, 15:43:43.170
182, 333.29, 6.68, 14.56, 13.66, 0.000, 0.000, 0.000, 15:43:43.170
183, 90.30, 16.35, 7.51, 5.13, 0.000, 0.000, 0.000, 15:43:43.170
184, -529.37, 9.39, 12.66, 13.50, 0.000, 0.000, 0.000, 15:43:43.170
185, 135.29, -1.22, 15.30, 15.84, 0.000, 0.000, 0.000, 15:43:43.192
186, 310.62, 17.14, 9.59, 12.33, 0.000, 0.000, 0.000, 15:43:43.193
187, -448.46, 6.36, 5.23, 10.53, 0.000, 0.000, 0.000, 15:43:43.193
188, -148.12, 2.80, 20.15, 19.84, 0.000, 0.000, 0.000, 15:43:43.193
189, 402.47, 6.37, 13.38, 15.07, 0.000, 0.000, 0.000, 15:43:43.215
190, -218.69, 15.64, 5.27, 6.19, 0.000, 0.000, 0.000, 15:43:43.216
191, -405.57, 4.18, 15.20, 16.00, 0.000, 0.000, 0.000, 15:43:43.216
192, 338.14, 2.94, 10.32, 11.23, 0.000, 0.000, 0.000, 15:43:43.216
