%OpenBCI Raw EEG Data
%
%Sample Rate = 200.0 Hz
%First Column = SampleIndex
%Last Column = Timestamp 
%Other Columns = EEG data in microvolts followed by Accel Data (in G) interleaved with Aux Data
0, -444.50, 0.21, 21.02, 22.94, 0.000, 0.000, 0.000, 14:57:56.311
1, 382.13, 11.03, 10.67, 10.20, 0.000, 0.000, 0.000, 14:57:56.334
2, 300.86, 16.26, 3.20, 8.49, 0.000, 0.000, 0.000, 14:57:56.335
3, -538.69, 10.04, 17.00, 16.50, 0.000, 0.000, 0.000, 14:57:56.335
4, 154.26, -2.15, 17.72, 12.59, 0.000, 0.000, 0.000, 14:57:56.336
5, 486.65, 17.55, 6.31, 9.07, 0.000, 0.000, 0.000, 14:57:56.337
6, -357.01, 9.55, 11.16, 8.99, 0.000, 0.000, 0.000, 14:57:56.338
7, -208.68, 0.75, 19.22, 18.91, 0.000, 0.000, 0.000, 14:57:56.338
8, 538.83, 10.43, 9.62, 9.26, 0.000, 0.000, 0.000, 14:57:56.339
9, -49.54, 11.05, 6.65, 10.06, 0.000, 0.000, 0.000, 14:57:56.355
10, -451.84, 3.37, 22.18, 19.62, 0.000, 0.000, 0.000, 14:57:56.356
11, 420.59, 10.33, 7.18, 8.78, 0.000, 0.000, 0.000, 14:57:56.356
12, 270.82, 14.72, 1.00, 7.84, 0.000, 0.000, 0.000, 14:57:56.357
13, -514.83, 3.69, 18.93, 15.54, 0.000, 0.000, 0.000, 14:57:56.358
14, 138.25, 0.63, 13.43, 13.88, 0.000, 0.000, 0.000, 14:57:56.360
15, 509.88, 16.17, 5.79, 9.68, 0.000, 0.000, 0.000, 14:57:56.363
16, -363.06, 8.79, 11.77, 13.35, 0.000, 0.000, 0.000, 14:57:56.364
17, -200.27, 3.16, 17.33, 19.34, 0.000, 0.000, 0.000, 14:57:56.378
18, 520.97, 10.66, 7.62, 11.30, 0.000, 0.000, 0.000, 14:57:56.378
19, -32.24, 11.38, 5.07, 8.53, 0.000, 0.000, 0.000, 14:57:56.379
20, -449.84, 4.64, 16.33, 18.66, 0.000, 0.000, 0.000, 14:57:56.379
21, 417.68, 10.74, 11.81, 11.67, 0.000, 0.000, 0.000, 14:57:56.403
22, 262.28, 10.89, 5.78, 6.31, 0.000, 0.000, 0.000, 14:57:56.404
23, -505.29, 7.12, 20.83, 10.57, 0.000, 0.000, 0.000, 14:57:56.430
24, 140.29, 4.73, 14.52, 13.81, 0.000, 0.000, 0.000, 14:57:56.431
25, 511.94, 19.03, 4.16, 3.32, 0.000, 0.000, 0.000, 14:57:56.431
26, -380.99, 4.82, 9.57, 12.98, 0.000, 0.000, 0.000, 14:57:56.432
27, -182.90, 2.25, 15.38, 15.27, 0.000, 0.000, 0.000, 14:57:56.432
28, 551.03, 11.50, 6.87, 11.03, 0.000, 0.000, 0.000, 14:57:56.432
29, -60.51, 15.21, 9.23, 7.55, 0.000, 0.000, 0.000, 14:57:56.445
30, -446.78, 6.71, 19.93, 17.54, 0.000, 0.000, 0.000, 14:57:56.446
31, 418.02, 7.43, 10.02, 11.99, 0.000, 0.000, 0.000, 14:57:56.446
32, 274.27, 11.34, 8.18, 5.11, 0.000, 0.000, 0.000, 14:57:56.446
33, -524.37, 1.41, 12.56, 15.58, 0.000, 0.000, 0.000, 14:57:56.467
34, 144.38, 3.30, 10.85, 12.94, 0.000, 0.000, 0.000, 14:57:56.467
35, 495.81, 13.72, 6.75, 8.59, 0.000, 0.000, 0.000, 14:57:56.467
36, -366.96, 11.46, 8.96, 15.76, 0.000, 0.000, 0.000, 14:57:56.468
37, -216.45, -5.57, 19.34, 19.76, 0.000, 0.000, 0.000, 14:57:56.468
38, 547.46, 9.51, 6.92, 11.47, 0.000, 0.000, 0.000, 14:57:56.468
39, -88.62, 17.67, 7.36, 7.75, 0.000, 0.000, 0.000, 14:57:56.512
40, -452.87, -3.26, 20.05, 17.44, 0.000, 0.000, 0.000, 14:57:56.512
41, 404.13, 8.85, 8.80, 10.95, 0.000, 0.000, 0.000, 14:57:56.513
42, 255.83, 13.00, 5.32, 5.29, 0.000, 0.000, 0.000, 14:57:56.513
43, -526.45, 6.24, 10.01, 18.49, 0.000, 0.000, 0.000, 14:57:56.514
44, 122.30, 4.74, 15.72, 12.36, 0.000, 0.000, 0.000, 14:57:56.514
45, 504.00, 10.44, 5.25, 5.63, 0.000, 0.000, 0.000, 14:57:56.514
46, -375.91, 7.56, 9.16, 11.05, 0.000, 0.000, 0.000, 14:57:56.515
47, -196.76, 3.88, 16.46, 14.31, 0.000, 0.000, 0.000, 14:57:56.534
48, 550.38, 11.91, 8.46, 6.87, 0.000, 0.000, 0.000, 14:57:56.534
49, -59.91, 12.42, 6.61, 11.60, 0.000, 0.000, 0.000, 14:57:56.535
50, -453.33, 0.30, 18.39, 21.01, 0.000, 0.000, 0.000, 14:57:56.535
51, 403.04, 9.48, 9.25, 12.51, 0.000, 0.000, 0.000, 14:57:56.556
52, 284.68, 16.48, 4.73, 9.81, 0.000, 0.000, 0.000, 14:57:56.557
53, -553.71, 8.68, 18.54, 17.50, 0.000, 0.000, 0.000, 14:57:56.557
54, 155.52, 2.52, 13.75, 13.94, 0.000, 0.000, 0.000, 14:57:56.558
55, 477.69, 15.31, 3.46, 2.79, 0.000, 0.000, 0.000, 14:57:56.558
56, -394.63, 11.05, 9.98, 9.49, 0.000, 0.000, 0.000, 14:57:56.558
57, -175.58, 6.17, 18.80, 19.59, 0.000, 0.000, 0.000, 14:57:56.579
58, 526.22, 8.84, 6.38, 7.96, 0.000, 0.000, 0.000, 14:57:56.579
59, -45.15, 10.65, 6.20, 9.94, 0.000, 0.000, 0.000, 14:57:56.580
60, -449.55, 0.73, 17.09, 19.18, 0.000, 0.000, 0.000, 14:57:56.580
61, 403.58, 5.62, 10.66, 8.71, 0.000, 0.000, 0.000, 14:57:56.603
62, 293.70, 10.39, 4.85, 10.60, 0.000, 0.000, 0.000, 14:57:56.604
63, -556.89, 6.34, 13.48, 13.96, 0.000, 0.000, 0.000, 14:57:56.604
64, 139.18, 5.20, 15.01, 13.42, 0.000, 0.000, 0.000, 14:57:56.605
65, 492.08, 16.10, 7.15, 5.33, 0.000, 0.000, 0.000, 14:57:56.625
66, -377.29, 14.74, 9.87, 12.03, 0.000, 0.000, 0.000, 14:57:56.625
67, -191.78, -2.59, 16.43, 15.35, 0.000, 0.000, 0.000, 14:57:56.626
68, 564.35, 10.66, 5.65, 10.33, 0.000, 0.000, 0.000, 14:57:56.626
69, -77.45, 16.59, 8.36, 10.81, 0.000, 0.000, 0.000, 14:57:56.646
70, -443.35, 1.28, 21.17, 15.75, 0.000, 0.000, 0.000, 14:57:56.647
71, 407.48, 8.66, 8.13, 7.95, 0.000, 0.000, 0.000, 14:57:56.647
72, 263.10, 14.23, 3.61, 10.97, 0.000, 0.000, 0.000, 14:57:56.648
73, -516.25, 2.67, 15.57, 16.09, 0.000, 0.000, 0.000, 14:57:56.648
74, 117.60, 6.00, 14.69, 17.50, 0.000, 0.000, 0.000, 14:57:56.648
75, 512.11, 14.72, 4.47, 11.55, 0.000, 0.000, 0.000, 14:57:56.669
76, -382.73, 5.39, 9.92, 11.04, 0.000, 0.000, 0.000, 14:57:56.669
77, -196.53, -2.88, 15.23, 13.74, 0.000, 0.000, 0.000, 14:57:56.670
78, 549.23, 12.74, 6.28, 9.51, 0.000, 0.000, 0.000, 14:57:56.670
79, -83.27, 13.99, 6.76, 7.15, 0.000, 0.000, 0.000, 14:57:56.691
80, -440.07, 2.26, 19.26, 17.94, 0.000, 0.000, 0.000, 14:57:56.692
81, 426.82, 8.58, 8.67, 9.80, 0.000, 0.000, 0.000, 14:57:56.692
82, 270.40, 13.83, 7.28, 5.27, 0.000, 0.000, 0.000, 14:57:56.693
83, -536.03, 3.05, 14.62, 13.67, 0.000, 0.000, 0.000, 14:57:56.714
84, 152.73, 3.83, 13.64, 11.76, 0.000, 0.000, 0.000, 14:57:56.714
85, 465.24, 10.98, 7.40, 8.12, 0.000, 0.000, 0.000, 14:57:56.715
86, -341.46, 8.65, 11.24, 12.56, 0.000, 0.000, 0.000, 14:57:56.715
87, -190.63, -0.52, 19.58, 18.74, 0.000, 0.000, 0.000, 14:57:56.736
88, 536.86, 12.43, 7.04, 7.13, 0.000, 0.000, 0.000, 14:57:56.737
89, -50.13, 15.72, 7.64, 7.89, 0.000, 0.000, 0.000, 14:57:56.737
90, -481.57, 0.40, 18.39, 14.31, 0.000, 0.000, 0.000, 14:57:56.738
91, 416.42, 8.04, 8.63, 8.42, 0.000, 0.000, 0.000, 14:57:56.738
92, 290.76, 15.91, 2.17, 8.40, 0.000, 0.000, 0.000, 14:57:56.738
93, -539.29, 10.45, 15.17, 17.77, 0.000, 0.000, 0.000, 14:57:56.759
94, 153.96, 1.08, 15.46, 18.36, 0.000, 0.000, 0.000, 14:57:56.760
95, 496.90, 11.77, 3.55, 2.37, 0.000, 0.000, 0.000, 14:57:56.760
96, -397.54, 10.87, 12.30, 10.79, 0.000, 0.000, 0.000, 14:57:56.760
97, -186.10, -0.35, 16.81, 19.43, 0.000, 0.000, 0.000, 14:57:56.782
98, 537.37, 12.94, 5.60, 6.03, 0.000, 0.000, 0.000, 14:57:56.782
99, -68.81, 15.88, 9.10, 1.73, 0.000, 0.000, 0.000, 14:57:56.782
100, -454.24, 3.62, 20.65, 19.24, 0.000, 0.000, 0.000, 14:57:56.783
101, 398.39, 11.26, 8.52, 10.78, 0.000, 0.000, 0.000, 14:57:56.804
102, 268.06, 18.94, 3.60, 6.26, 0.000, 0.000, 0.000, 14:57:56.805
103, -544.14, 1.41, 17.78, 17.30, 0.000, 0.000, 0.000, 14:57:56.805
104, 155.71, 2.06, 11.86, 16.79, 0.000, 0.000, 0.000, 14:57:56.806
105, 486.50, 14.70, 4.24, 6.57, 0.000, 0.000, 0.000, 14:57:56.826
106, -377.36, 13.08, 8.85, 11.31, 0.000, 0.000, 0.000, 14:57:56.827
107, -191.91, -2.34, 15.97, 20.78, 0.000, 0.000, 0.000, 14:57:56.828
108, 545.99, 10.42, 4.55, 8.47, 0.000, 0.000, 0.000, 14:57:56.828
109, -88.81, 13.55, 6.61, 9.03, 0.000, 0.000, 0.000, 14:57:56.830
110, -439.33, 3.44, 22.96, 24.26, 0.000, 0.000, 0.000, 14:57:56.830
111, 402.18, 12.34, 12.49, 10.77, 0.000, 0.000, 0.000, 14:57:56.849
112, 276.60, 11.34, 4.81, 5.08, 0.000, 0.000, 0.000, 14:57:56.850
113, -542.80, 4.58, 17.19, 12.41, 0.000, 0.000, 0.000, 14:57:56.850
114, 177.42, 5.19, 12.92, 12.94, 0.000, 0.000, 0.000, 14:57:56.850
115, 476.47, 16.03, 6.81, 7.49, 0.000, 0.000, 0.000, 14:57:56.871
116, -357.57, 12.05, 10.94, 15.24, 0.000, 0.000, 0.000, 14:57:56.872
117, -210.38, 4.81, 19.24, 17.13, 0.000, 0.000, 0.000, 14:57:56.873
118, 563.28, 10.34, 6.54, 13.50, 0.000, 0.000, 0.000, 14:57:56.873
119, -73.05, 15.03, 7.38, 10.46, 0.000, 0.000, 0.000, 14:57:56.894
120, -442.68, 7.99, 19.44, 16.78, 0.000, 0.000, 0.000, 14:57:56.895
121, 403.72, 4.97, 11.98, 14.17, 0.000, 0.000, 0.000, 14:57:56.895
122, 283.06, 15.83, 9.71, 10.33, 0.000, 0.000, 0.000, 14:57:56.896
123, -553.91, 7.97, 17.50, 14.94, 0.000, 0.000, 0.000, 14:57:56.917
124, 157.86, 4.05, 13.02, 11.31, 0.000, 0.000, 0.000, 14:57:56.918
125, 476.35, 9.87, 8.03, 9.65, 0.000, 0.000, 0.000, 14:57:56.920
126, -374.74, 8.76, 9.12, 11.86, 0.000, 0.000, 0.000, 14:57:56.922
127, -198.73, -3.04, 17.44, 17.83, 0.000, 0.000, 0.000, 14:57:56.924
128, 560.24, 10.35, 1.59, 5.02, 0.000, 0.000, 0.000, 14:57:56.925
129, -61.69, 16.77, 6.43, 3.95, 0.000, 0.000, 0.000, 14:57:56.940
130, -430.51, -6.15, 19.40, 15.54, 0.000, 0.000, 0.000, 14:57:56.940
131, 419.30, 10.45, 8.88, 12.74, 0.000, 0.000, 0.000, 14:57:56.941
132, 293.46, 16.99, 3.96, 1.77, 0.000, 0.000, 0.000, 14:57:56.941
133, -547.31, 9.84, 18.37, 16.86, 0.000, 0.000, 0.000, 14:57:56.962
134, 157.88, 0.63, 15.66, 13.12, 0.000, 0.000, 0.000, 14:57:56.962
135, 492.59, 11.81, 2.34, 7.30, 0.000, 0.000, 0.000, 14:57:56.963
136, -366.18, 14.25, 7.65, 10.73, 0.000, 0.000, 0.000, 14:57:56.963
137, -211.53, -0.03, 17.31, 18.56, 0.000, 0.000, 0.000, 14:57:56.984
138, 555.61, 14.05, 3.66, 5.52, 0.000, 0.000, 0.000, 14:57:56.985
139, -83.84, 9.07, 6.83, 12.11, 0.000, 0.000, 0.000, 14:57:56.985
140, -449.09, 0.85, 19.05, 17.89, 0.000, 0.000, 0.000, 14:57:56.985
141, 398.45, 12.30, 8.64, 11.41, 0.000, 0.000, 0.000, 14:57:57.007
142, 294.98, 14.21, 4.90, 5.69, 0.000, 0.000, 0.000, 14:57:57.007
143, -550.62, 3.09, 17.45, 17.04, 0.000, 0.000, 0.000, 14:57:57.008
144, 152.10, 7.58, 14.69, 12.93, 0.000, 0.000, 0.000, 14:57:57.008
145, 474.28, 12.77, 6.22, 5.94, 0.000, 0.000, 0.000, 14:57:57.008
146, -384.50, 10.26, 7.73, 14.54, 0.000, 0.000, 0.000, 14:57:57.009
147, -207.97, 5.66, 16.53, 13.30, 0.000, 0.000, 0.000, 14:57:57.029
148, 555.41, 5.38, 9.36, 11.17, 0.000, 0.000, 0.000, 14:57:57.029
149, -63.02, 14.83, 5.28, 9.33, 0.000, 0.000, 0.000, 14:57:57.030
150, -434.56, 3.68, 21.13, 18.68, 0.000, 0.000, 0.000, 14:57:57.030
151, 414.38, 6.74, 8.86, 12.80, 0.000, 0.000, 0.000, 14:57:57.051
152, 274.90, 11.55, 6.10, 6.98, 0.000, 0.000, 0.000, 14:57:57.052
153, -570.23, 5.29, 15.32, 17.09, 0.000, 0.000, 0.000, 14:57:57.052
154, 169.69, -0.28, 13.04, 17.46, 0.000, 0.000, 0.000, 14:57:57.052
155, 492.11, 13.03, 7.83, 5.58, 0.000, 0.000, 0.000, 14:57:57.074
156, -369.55, 12.97, 6.88, 8.78, 0.000, 0.000, 0.000, 14:57:57.074
157, -192.63, -0.56, 18.78, 18.88, 0.000, 0.000, 0.000, 14:57:57.074
158, 557.46, 10.58, 10.63, 8.11, 0.000, 0.000, 0.000, 14:57:57.075
159, -87.27, 13.96, 6.29, 8.93, 0.000, 0.000, 0.000, 14:57:57.096
160, -435.74, -0.76, 19.28, 18.84, 0.000, 0.000, 0.000, 14:57:57.097
161, 409.69, 12.34, 10.47, 12.68, 0.000, 0.000, 0.000, 14:57:57.097
162, 284.61, 14.62, 7.87, 2.97, 0.000, 0.000, 0.000, 14:57:57.098
163, -554.48, 0.72, 17.37, 13.29, 0.000, 0.000, 0.000, 14:57:57.098
164, 148.57, 5.64, 12.18, 10.75, 0.000, 0.000, 0.000, 14:57:57.099
165, 521.67, 16.84, 6.54, 7.69, 0.000, 0.000, 0.000, 14:57:57.119
166, -383.57, 9.62, 11.19, 12.57, 0.000, 0.000, 0.000, 14:57:57.120
167, -153.55, 1.57, 16.79, 17.18, 0.000, 0.000, 0.000, 14:57:57.120
168, 578.10, 9.71, 8.86, 5.14, 0.000, 0.000, 0.000, 14:57:57.120
169, -81.62, 15.22, 5.74, 4.71, 0.000, 0.000, 0.000, 14:57:57.141
170, -460.79, -1.00, 18.42, 16.98, 0.000, 0.000, 0.000, 14:57:57.142
171, 415.29, 5.73, 9.93, 10.55, 0.000, 0.000, 0.000, 14:57:57.142
172, 254.31, 12.99, 4.93, 9.18, 0.000, 0.000, 0.000, 14:57:57.142
173, -563.86, 7.16, 16.85, 18.95, 0.000, 0.000, 0.000, 14:57:57.164
174, 128.94, 10.20, 11.58, 17.03, 0.000, 0.000, 0.000, 14:57:57.164
175, 483.40, 12.22, 6.09, 5.78, 0.000, 0.000, 0.000, 14:57:57.165
176, -389.40, 8.74, 10.15, 6.68, 0.000, 0.000, 0.000, 14:57:57.165
177, -198.65, 0.60, 19.89, 20.48, 0.000, 0.000, 0.000, 14:57:57.187
178, 551.14, 9.03, 4.46, 11.44, 0.000, 0.000, 0.000, 14:57:57.187
179, -71.15, 10.11, 4.56, 7.14, 0.000, 0.000, 0.000, 14:57:57.188
180, -443.43, 1.76, 19.21, 18.47, 0.000, 0.000, 0.000, 14:57:57.188
181, 423.27, 11.07, 7.90, 12.76, 0.000, 0.000, 0.000, 14:57:57.188
182, 279.39, 20.62, 4.49, 8.16, 0.000, 0.000, 0.000, 14:57:57.188
183, -536.75, 9.36, 16.24, 14.59, 0.000, 0.000, 0.000, 14:57:57.209
184, 165.92, -0.07, 12.30, 15.00, 0.000, 0.000, 0.000, 14:57:57.210
185, 477.63, 11.96, 5.74, 8.06, 0.000, 0.000, 0.000, 14:57:57.210
186, -374.78, 6.84, 10.06, 12.33, 0.000, 0.000, 0.000, 14:57:57.211
187, -180.88, 2.96, 19.21, 17.80, 0.000, 0.000, 0.000, 14:57:57.231
188, 550.86, 13.71, 4.70, 3.48, 0.000, 0.000, 0.000, 14:57:57.232
189, -73.31, 16.29, 6.62, 7.65, 0.000, 0.000, 0.000, 14:57:57.232
190, -449.99, -1.83, 23.97, 22.45, 0.000, 0.000, 0.000, 14:57:57.232
191, 407.98, 8.12, 10.74, 10.66, 0.000, 0.000, 0.000, 14:57:57.254
192, 277.11, 19.83, 3.30, 4.85, 0.000, 0.000, 0.000, 14:57:57.254
193, -529.41, 0.61, 14.47, 14.75, 0.000, 0.000, 0.000, 14:57:57.255
194, 148.49, 8.02, 10.58, 14.16, 0.000, 0.000, 0.000, 14:57:57.255
195, 505.90, 13.88, 8.56, 7.52, 0.000, 0.000, 0.000, 14:57:57.276
196, -386.55, 11.98, 10.37, 15.84, 0.000, 0.000, 0.000, 14:57:57.277
197, -198.95, -0.66, 19.68, 20.81, 0.000, 0.000, 0.000, 14:57:57.277
198, 564.34, 12.01, 4.29, 5.70, 0.000, 0.000, 0.000, 14:57:57.278
199, -81.84, 10.53, 5.29, 3.18, 0.000, 0.000, 0.000, 14:57:57.278
200, -440.23, 2.30, 15.41, 14.75, 0.000, 0.000, 0.000, 14:57:57.278
0, 410.82, 9.05, 11.55, 12.48, 0.000, 0.000, 0.000, 14:57:57.300
1, 269.97, 12.38, 4.27, 5.17, 0.000, 0.000, 0.000, 14:57:57.300
2, -515.62, 5.23, 15.59, 17.17, 0.000, 0.000, 0.000, 14:57:57.300
3, 150.48, 7.32, 14.86, 15.00, 0.000, 0.000, 0.000, 14:57:57.322
4, 511.34, 13.62, 4.52, 7.78, 0.000, 0.000, 0.000, 14:57:57.323
5, -366.55, 8.05, 4.81, 8.60, 0.000, 0.000, 0.000, 14:57:57.323
6, -198.07, 1.10, 21.35, 21.65, 0.000, 0.000, 0.000, 14:57:57.323
7, 560.49, 9.97, 6.55, 8.46, 0.000, 0.000, 0.000, 14:57:57.323
8, -48.77, 12.33, 3.39, 7.43, 0.000, 0.000, 0.000, 14:57:57.324
9, -450.09, 4.63, 18.00, 18.08, 0.000, 0.000, 0.000, 14:57:57.344
10, 416.36, 7.30, 6.70, 9.06, 0.000, 0.000, 0.000, 14:57:57.344
11, 277.52, 15.97, 4.89, 6.58, 0.000, 0.000, 0.000, 14:57:57.345
12, -536.75, 2.44, 22.27, 16.89, 0.000, 0.000, 0.000, 14:57:57.345
13, 168.82, 6.40, 17.92, 17.86, 0.000, 0.000, 0.000, 14:57:57.366
14, 512.78, 10.39, 5.97, 6.39, 0.000, 0.000, 0.000, 14:57:57.367
15, -380.38, 10.97, 11.08, 13.46, 0.000, 0.000, 0.000, 14:57:57.367
16, -194.61, 2.51, 19.07, 16.74, 0.000, 0.000, 0.000, 14:57:57.367
17, 565.84, 13.72, 7.60, 8.93, 0.000, 0.000, 0.000, 14:57:57.389
18, -85.31, 15.17, 3.68, 4.85, 0.000, 0.000, 0.000, 14:57:57.389
19, -452.40, -7.53, 21.55, 15.15, 0.000, 0.000, 0.000, 14:57:57.390
20, 420.90, 8.26, 8.24, 11.60, 0.000, 0.000, 0.000, 14:57:57.390
21, 294.66, 14.94, 2.70, 11.35, 0.000, 0.000, 0.000, 14:57:57.411
22, -551.58, 6.31, 18.82, 13.47, 0.000, 0.000, 0.000, 14:57:57.412
23, 167.50, 2.92, 12.09, 10.43, 0.000, 0.000, 0.000, 14:57:57.412
24, 456.93, 12.22, 6.98, 10.66, 0.000, 0.000, 0.000, 14:57:57.412
25, -361.05, 11.65, 7.94, 13.20, 0.000, 0.000, 0.000, 14:57:57.413
26, -211.24, 2.15, 19.54, 20.78, 0.000, 0.000, 0.000, 14:57:57.414
27, 531.11, 15.47, 4.44, 10.30, 0.000, 0.000, 0.000, 14:57:57.434
28, -72.68, 10.99, 8.79, 5.51, 0.000, 0.000, 0.000, 14:57:57.434
29, -468.57, -1.63, 18.66, 16.24, 0.000, 0.000, 0.000, 14:57:57.435
30, 405.47, 10.25, 10.55, 13.06, 0.000, 0.000, 0.000, 14:57:57.435
31, 281.92, 12.57, 7.48, 7.55, 0.000, 0.000, 0.000, 14:57:57.457
32, -541.48, 2.07, 14.27, 20.36, 0.000, 0.000, 0.000, 14:57:57.457
33, 137.77, 4.35, 16.72, 16.00, 0.000, 0.000, 0.000, 14:57:57.457
34, 497.34, 14.91, 0.94, 12.32, 0.000, 0.000, 0.000, 14:57:57.458
35, -388.07, 8.18, 8.22, 8.77, 0.000, 0.000, 0.000, 14:57:57.479
36, -197.80, 2.66, 17.78, 12.80, 0.000, 0.000, 0.000, 14:57:57.479
37, 542.36, 10.02, 10.18, 10.04, 0.000, 0.000, 0.000, 14:57:57.479
38, -78.08, 15.39, 7.14, 6.03, 0.000, 0.000, 0.000, 14:57:57.480
39, -453.58, 0.26, 17.21, 18.56, 0.000, 0.000, 0.000, 14:57:57.502
40, 430.47, 6.06, 7.70, 13.65, 0.000, 0.000, 0.000, 14:57:57.502
41, 275.51, 14.00, 6.65, 6.07, 0.000, 0.000, 0.000, 14:57:57.503
42, -538.37, 3.44, 16.32, 16.54, 0.000, 0.000, 0.000, 14:57:57.503
43, 138.72, 4.78, 12.61, 16.15, 0.000, 0.000, 0.000, 14:57:57.504
44, 504.46, 15.88, 4.20, 4.75, 0.000, 0.000, 0.000, 14:57:57.504
45, -382.19, 10.85, 4.68, 12.36, 0.000, 0.000, 0.000, 14:57:57.524
46, -199.94, -2.17, 15.89, 19.78, 0.000, 0.000, 0.000, 14:57:57.524
47, 546.49, 12.95, 7.45, 9.59, 0.000, 0.000, 0.000, 14:57:57.525
48, -81.03, 13.31, 4.46, 7.33, 0.000, 0.000, 0.000, 14:57:57.525
49, -470.44, 6.32, 17.45, 18.80, 0.000, 0.000, 0.000, 14:57:57.546
50, 443.84, 9.68, 14.06, 10.16, 0.000, 0.000, 0.000, 14:57:57.547
51, 280.73, 15.73, 8.74, 7.33, 0.000, 0.000, 0.000, 14:57:57.547
52, -536.07, 6.44, 15.69, 13.61, 0.000, 0.000, 0.000, 14:57:57.548
53, 138.95, 7.07, 13.14, 11.31, 0.000, 0.000, 0.000, 14:57:57.569
54, 507.04, 17.23, 5.08, 3.93, 0.000, 0.000, 0.000, 14:57:57.569
55, -396.89, 3.77, 10.08, 10.27, 0.000, 0.000, 0.000, 14:57:57.570
56, -180.36, -0.09, 18.39, 18.32, 0.000, 0.000, 0.000, 14:57:57.570
57, 549.68, 10.49, 7.16, 10.10, 0.000, 0.000, 0.000, 14:57:57.592
58, -95.27, 14.66, 7.24, 10.85, 0.000, 0.000, 0.000, 14:57:57.592
59, -440.24, -2.63, 18.03, 18.50, 0.000, 0.000, 0.000, 14:57:57.593
60, 412.32, 12.16, 7.52, 9.48, 0.000, 0.000, 0.000, 14:57:57.594
61, 269.84, 13.18, 1.49, 7.54, 0.000, 0.000, 0.000, 14:57:57.594
62, -528.69, 2.20, 16.43, 16.87, 0.000, 0.000, 0.000, 14:57:57.595
63, 143.32, 6.62, 13.64, 14.33, 0.000, 0.000, 0.000, 14:57:57.614
64, 498.99, 9.16, 8.29, 5.32, 0.000, 0.000, 0.000, 14:57:57.614
65, -394.42, 11.22, 11.15, 12.98, 0.000, 0.000, 0.000, 14:57:57.615
66, -183.47, 2.39, 16.06, 15.76, 0.000, 0.000, 0.000, 14:57:57.615
67, 553.81, 11.47, 7.89, 11.58, 0.000, 0.000, 0.000, 14:57:57.636
68, -92.02, 10.05, 7.99, 8.56, 0.000, 0.000, 0.000, 14:57:57.637
69, -465.77, 4.10, 18.14, 16.16, 0.000, 0.000, 0.000, 14:57:57.637
70, 433.77, 8.91, 9.16, 13.16, 0.000, 0.000, 0.000, 14:57:57.637
71, 289.51, 17.94, 4.82, 7.54, 0.000, 0.000, 0.000, 14:57:57.659
72, -559.83, 9.73, 17.29, 18.85, 0.000, 0.000, 0.000, 14:57:57.659
73, 168.00, -0.32, 10.66, 15.30, 0.000, 0.000, 0.000, 14:57:57.660
74, 484.09, 14.21, 5.30, 5.85, 0.000, 0.000, 0.000, 14:57:57.660
75, -367.73, 9.96, 9.14, 8.97, 0.000, 0.000, 0.000, 14:57:57.681
76, -201.31, -0.19, 18.58, 20.75, 0.000, 0.000, 0.000, 14:57:57.682
77, 551.12, 11.57, 7.49, 7.78, 0.000, 0.000, 0.000, 14:57:57.682
78, -57.17, 16.44, 6.65, 5.48, 0.000, 0.000, 0.000, 14:57:57.682
79, -452.19, -3.39, 19.31, 16.10, 0.000, 0.000, 0.000, 14:57:57.683
80, 423.08, 3.44, 6.97, 10.14, 0.000, 0.000, 0.000, 14:57:57.683
81, 278.33, 18.13, 6.18, 8.38, 0.000, 0.000, 0.000, 14:57:57.704
82, -548.61, 1.28, 20.73, 18.03, 0.000, 0.000, 0.000, 14:57:57.704
83, 157.81, 6.34, 14.38, 12.65, 0.000, 0.000, 0.000, 14:57:57.705
84, 489.78, 12.76, 4.89, 6.42, 0.000, 0.000, 0.000, 14:57:57.705
85, -375.64, 9.92, 11.88, 12.64, 0.000, 0.000, 0.000, 14:57:57.726
86, -207.05, 4.22, 18.68, 17.57, 0.000, 0.000, 0.000, 14:57:57.727
87, 560.79, 8.49, 6.19, 6.33, 0.000, 0.000, 0.000, 14:57:57.727
88, -86.49, 12.53, 6.19, 12.10, 0.000, 0.000, 0.000, 14:57:57.727
89, -449.78, -0.13, 18.44, 14.81, 0.000, 0.000, 0.000, 14:57:57.749
90, 419.22, 14.53, 7.51, 12.42, 0.000, 0.000, 0.000, 14:57:57.749
91, 264.26, 11.76, 2.75, 7.43, 0.000, 0.000, 0.000, 14:57:57.749
92, -547.55, 2.70, 13.49, 16.54, 0.000, 0.000, 0.000, 14:57:57.750
93, 152.90, 7.80, 13.70, 18.28, 0.000, 0.000, 0.000, 14:57:57.771
94, 505.13, 14.51, 5.22, 6.48, 0.000, 0.000, 0.000, 14:57:57.772
95, -385.51, 9.03, 11.00, 8.08, 0.000, 0.000, 0.000, 14:57:57.772
96, -192.01, 2.44, 17.88, 18.49, 0.000, 0.000, 0.000, 14:57:57.772
97, 563.30, 10.62, 6.85, 8.16, 0.000, 0.000, 0.000, 14:57:57.773
98, -68.16, 16.13, 7.94, 4.53, 0.000, 0.000, 0.000, 14:57:57.773
99, -467.31, 1.42, 18.58, 17.68, 0.000, 0.000, 0.000, 14:57:57.794
100, 423.26, 3.60, 7.28, 8.71, 0.000, 0.000, 0.000, 14:57:57.794
101, 264.27, 16.67, 5.84, 5.69, 0.000, 0.000, 0.000, 14:57:57.816
102, -519.06, 6.99, 17.14, 16.08, 0.000, 0.000, 0.000, 14:57:57.817
103, 149.19, 6.63, 15.86, 11.20, 0.000, 0.000, 0.000, 14:57:57.817
104, 510.54, 10.29, 6.18, 9.50, 0.000, 0.000, 0.000, 14:57:57.817
105, -382.97, 9.36, 11.18, 15.11, 0.000, 0.000, 0.000, 14:57:57.818
106, -188.77, -2.15, 16.86, 23.09, 0.000, 0.000, 0.000, 14:57:57.818
107, 536.62, 11.07, 8.70, 6.03, 0.000, 0.000, 0.000, 14:57:57.839
108, -63.66, 17.70, 5.31, 4.56, 0.000, 0.000, 0.000, 14:57:57.839
109, -460.34, -0.08, 17.86, 16.39, 0.000, 0.000, 0.000, 14:57:57.840
110, 430.43, 7.27, 8.19, 11.34, 0.000, 0.000, 0.000, 14:57:57.840
111, 249.50, 16.16, 7.76, 4.44, 0.000, 0.000, 0.000, 14:57:57.862
112, -527.95, 3.70, 18.41, 14.19, 0.000, 0.000, 0.000, 14:57:57.862
113, 150.15, 6.27, 14.12, 16.09, 0.000, 0.000, 0.000, 14:57:57.863
114, 509.51, 11.82, 5.47, 6.77, 0.000, 0.000, 0.000, 14:57:57.863
115, -402.27, 9.42, 6.58, 10.06, 0.000, 0.000, 0.000, 14:57:57.863
116, -191.81, 3.88, 18.47, 20.74, 0.000, 0.000, 0.000, 14:57:57.863
117, 549.43, 16.61, 10.89, 11.83, 0.000, 0.000, 0.000, 14:57:57.884
118, -42.03, 11.09, 7.90, 9.43, 0.000, 0.000, 0.000, 14:57:57.884
119, -484.80, 0.20, 17.79, 18.87, 0.000, 0.000, 0.000, 14:57:57.885
120, 428.50, 8.01, 7.78, 13.85, 0.000, 0.000, 0.000, 14:57:57.885
121, 249.84, 12.69, 7.73, 7.38, 0.000, 0.000, 0.000, 14:57:57.907
122, -531.86, 3.25, 18.65, 16.61, 0.000, 0.000, 0.000, 14:57:57.907
123, 135.58, 4.89, 13.76, 12.39, 0.000, 0.000, 0.000, 14:57:57.907
124, 512.83, 14.98, 4.51, 8.31, 0.000, 0.000, 0.000, 14:57:57.907
125, -388.22, 13.96, 8.79, 15.18, 0.000, 0.000, 0.000, 14:57:57.929
126, -196.95, 3.71, 14.72, 17.82, 0.000, 0.000, 0.000, 14:57:57.930
127, 533.10, 11.05, 7.73, 8.03, 0.000, 0.000, 0.000, 14:57:57.930
128, -64.42, 13.46, 7.79, 9.42, 0.000, 0.000, 0.000, 14:57:57.930
129, -475.31, 3.10, 19.60, 15.92, 0.000, 0.000, 0.000, 14:57:57.952
130, 424.32, 9.01, 8.10, 5.99, 0.000, 0.000, 0.000, 14:57:57.953
131, 274.43, 14.77, 2.60, 11.06, 0.000, 0.000, 0.000, 14:57:57.953
132, -546.81, 7.30, 15.47, 14.91, 0.000, 0.000, 0.000, 14:57:57.953
133, 145.36, 3.09, 15.72, 13.57, 0.000, 0.000, 0.000, 14:57:57.954
134, 520.34, 9.14, 3.21, 6.33, 0.000, 0.000, 0.000, 14:57:57.954
135, -384.84, 15.43, 8.14, 9.73, 0.000, 0.000, 0.000, 14:57:57.974
136, -209.31, -1.59, 18.09, 18.14, 0.000, 0.000, 0.000, 14:57:57.975
137, 561.10, 11.65, 7.35, 6.36, 0.000, 0.000, 0.000, 14:57:57.975
138, -57.71, 12.10, 3.22, 10.25, 0.000, 0.000, 0.000, 14:57:57.975
139, -477.83, 5.06, 18.24, 17.16, 0.000, 0.000, 0.000, 14:57:57.997
140, 432.49, 5.76, 12.26, 14.25, 0.000, 0.000, 0.000, 14:57:57.997
141, 282.04, 10.19, 7.35, 6.17, 0.000, 0.000, 0.000, 14:57:57.997
142, -553.86, 2.85, 17.14, 12.84, 0.000, 0.000, 0.000, 14:57:57.997
143, 157.73, 6.17, 18.44, 15.53, 0.000, 0.000, 0.000, 14:57:58.021
144, 507.12, 13.87, 2.96, 9.32, 0.000, 0.000, 0.000, 14:57:58.021
145, -393.37, 5.04, 11.45, 10.36, 0.000, 0.000, 0.000, 14:57:58.022
146, -196.08, 0.36, 16.97, 16.63, 0.000, 0.000, 0.000, 14:57:58.022
147, 563.58, 11.06, 6.15, 9.86, 0.000, 0.000, 0.000, 14:57:58.041
148, -67.75, 12.08, 5.94, 8.05, 0.000, 0.000, 0.000, 14:57:58.042
149, -470.38, 3.74, 18.14, 20.12, 0.000, 0.000, 0.000, 14:57:58.042
150, 399.91, 11.11, 8.73, 14.00, 0.000, 0.000, 0.000, 14:57:58.043
151, 292.59, 13.31, 6.68, 4.02, 0.000, 0.000, 0.000, 14:57:58.043
152, -546.96, 5.75, 16.49, 18.89, 0.000, 0.000, 0.000, 14:57:58.043
153, 145.22, 7.59, 16.46, 11.98, 0.000, 0.000, 0.000, 14:57:58.064
154, 515.13, 8.53, 3.12, 5.32, 0.000, 0.000, 0.000, 14:57:58.064
155, -394.63, 11.84, 5.51, 7.05, 0.000, 0.000, 0.000, 14:57:58.065
156, -195.33, 0.20, 19.27, 16.12, 0.000, 0.000, 0.000, 14:57:58.065
157, 557.00, 9.33, 10.54, 6.84, 0.000, 0.000, 0.000, 14:57:58.087
158, -68.54, 13.19, 6.56, 6.07, 0.000, 0.000, 0.000, 14:57:58.088
159, -470.58, 3.02, 17.54, 18.28, 0.000, 0.000, 0.000, 14:57:58.088
160, 421.45, 10.68, 6.01, 9.97, 0.000, 0.000, 0.000, 14:57:58.088
161, 285.68, 14.44, 6.87, 8.31, 0.000, 0.000, 0.000, 14:57:58.111
162, -557.02, 9.75, 13.30, 17.53, 0.000, 0.000, 0.000, 14:57:58.120
163, 138.67, -0.53, 15.17, 13.16, 0.000, 0.000, 0.000, 14:57:58.120
164, 503.41, 11.72, 4.00, 7.94, 0.000, 0.000, 0.000, 14:57:58.121
165, -381.12, 10.53, 7.33, 12.97, 0.000, 0.000, 0.000, 14:57:58.132
166, -214.19, -1.18, 19.45, 13.26, 0.000, 0.000, 0.000, 14:57:58.133
167, 585.85, 7.32, 9.65, 8.81, 0.000, 0.000, 0.000, 14:57:58.133
168, -55.57, 13.04, 6.01, 7.93, 0.000, 0.000, 0.000, 14:57:58.133
169, -447.92, 0.30, 17.50, 19.90, 0.000, 0.000, 0.000, 14:57:58.134
170, 423.89, 8.26, 11.93, 11.53, 0.000, 0.000, 0.000, 14:57:58.135
171, 278.19, 17.23, 4.78, 11.66, 0.000, 0.000, 0.000, 14:57:58.154
172, -556.71, 2.02, 12.87, 11.75, 0.000, 0.000, 0.000, 14:57:58.155
173, 125.66, 2.00, 12.60, 17.24, 0.000, 0.000, 0.000, 14:57:58.155
174, 484.75, 16.19, 7.98, 8.97, 0.000, 0.000, 0.000, 14:57:58.155
175, -396.12, 9.64, 10.14, 5.79, 0.000, 0.000, 0.000, 14:57:58.177
176, -211.77, 1.32, 18.32, 16.53, 0.000, 0.000, 0.000, 14:57:58.177
177, 540.68, 9.89, 8.17, 8.14, 0.000, 0.000, 0.000, 14:57:58.177
178, -72.38, 12.51, 5.56, 6.43, 0.000, 0.000, 0.000, 14:57:58.179
179, -453.36, -0.71, 17.19, 19.64, 0.000, 0.000, 0.000, 14:57:58.199
180, 405.84, 13.74, 13.90, 14.59, 0.000, 0.000, 0.000, 14:57:58.200
181, 304.90, 11.75, 7.20, 11.48, 0.000, 0.000, 0.000, 14:57:58.200
182, -548.42, 5.73, 15.03, 15.93, 0.000, 0.000, 0.000, 14:57:58.201
183, 156.98, 9.46, 14.07, 13.44, 0.000, 0.000, 0.000, 14:57:58.222
184, 516.27, 13.61, 5.51, 7.80, 0.000, 0.000, 0.000, 14:57:58.222
185, -372.38, 9.17, 8.58, 14.91, 0.000, 0.000, 0.000, 14:57:58.223
186, -222.66, 3.90, 19.37, 15.36, 0.000, 0.000, 0.000, 14:57:58.223
187, 567.31, 9.34, 8.94, 5.73, 0.000, 0.000, 0.000, 14:57:58.224
188, -55.15, 16.06, 2.86, 6.07, 0.000, 0.000, 0.000, 14:57:58.224
189, -471.09, 4.23, 18.47, 14.07, 0.000, 0.000, 0.000, 14:57:58.244
190, 426.78, 5.28, 12.52, 14.01, 0.000, 0.000, 0.000, 14:57:58.245
191, 290.15, 17.43, 7.24, 7.22, 0.000, 0.000, 0.000, 14:57:58.245
192, -551.36, 3.05, 15.91, 17.11, 0.000, 0.000, 0.000, 14:57:58.245
193, 127.67, 4.44, 12.64, 16.46, 0.000, 0.000, 0.000, 14:57:58.266
194, 534.15, 11.31, 5.39, 3.96, 0.000, 0.000, 0.000, 14:57:58.267
195, -381.54, 9.59, 11.87, 11.66, 0.000, 0.000, 0.000, 14:57:58.267
196, -209.77, -0.33, 19.91, 15.33, 0.000, 0.000, 0.000, 14:57:58.267
197, 568.25, 8.49, 8.23, 10.00, 0.000, 0.000, 0.000, 14:57:58.289
198, -39.03, 16.60, 8.54, 7.57, 0.000, 0.000, 0.000, 14:57:58.290
199, -473.62, -2.55, 18.72, 17.35, 0.000, 0.000, 0.000, 14:57:58.290
200, 423.03, 11.69, 7.44, 7.55, 0.000, 0.000, 0.000, 14:57:58.290
0, 292.39, 14.23, 3.75, 6.06, 0.000, 0.000, 0.000, 14:57:58.292
1, -572.86, 7.17, 17.39, 11.97, 0.000, 0.000, 0.000, 14:57:58.312
2, 137.70, 5.52, 11.65, 13.82, 0.000, 0.000, 0.000, 14:57:58.312
3, 533.92, 13.19, 5.20, 11.60, 0.000, 0.000, 0.000, 14:57:58.313
4, -386.09, 8.38, 8.43, 10.46, 0.000, 0.000, 0.000, 14:57:58.313
5, -226.68, 0.69, 22.20, 19.02, 0.000, 0.000, 0.000, 14:57:58.334
6, 562.92, 15.26, 5.83, 7.13, 0.000, 0.000, 0.000, 14:57:58.334
7, -52.31, 11.60, 6.78, 8.36, 0.000, 0.000, 0.000, 14:57:58.335
8, -480.21, -0.25, 20.31, 21.26, 0.000, 0.000, 0.000, 14:57:58.335
9, 436.97, 8.88, 9.71, 15.60, 0.000, 0.000, 0.000, 14:57:58.357
10, 298.99, 15.47, 4.49, 3.22, 0.000, 0.000, 0.000, 14:57:58.357
11, -552.86, -0.09, 15.55, 14.69, 0.000, 0.000, 0.000, 14:57:58.357
12, 128.33, 7.82, 10.43, 15.03, 0.000, 0.000, 0.000, 14:57:58.358
13, 549.50, 11.02, 6.93, 8.57, 0.000, 0.000, 0.000, 14:57:58.358
14, -369.69, 11.11, 10.26, 9.99, 0.000, 0.000, 0.000, 14:57:58.358
15, -224.53, 4.45, 15.38, 18.22, 0.000, 0.000, 0.000, 14:57:58.379
16, 579.21, 7.39, 6.03, 10.62, 0.000, 0.000, 0.000, 14:57:58.379
17, -40.98, 15.15, 6.32, 11.11, 0.000, 0.000, 0.000, 14:57:58.379
18, -504.16, 1.11, 18.36, 19.37, 0.000, 0.000, 0.000, 14:57:58.380
19, 424.05, 10.69, 10.67, 13.43, 0.000, 0.000, 0.000, 14:57:58.401
20, 339.12, 15.49, 4.41, 7.14, 0.000, 0.000, 0.000, 14:57:58.402
21, -564.78, 4.97, 16.32, 15.96, 0.000, 0.000, 0.000, 14:57:58.402
22, 119.00, 2.86, 15.78, 15.17, 0.000, 0.000, 0.000, 14:57:58.402
23, 555.91, 15.58, 8.05, 9.08, 0.000, 0.000, 0.000, 14:57:58.424
24, -368.36, 15.70, 10.48, 8.71, 0.000, 0.000, 0.000, 14:57:58.424
25, -259.32, -3.04, 21.64, 20.16, 0.000, 0.000, 0.000, 14:57:58.425
26, 580.99, 12.25, 8.13, 13.36, 0.000, 0.000, 0.000, 14:57:58.425
27, -26.93, 12.75, 8.49, 10.73, 0.000, 0.000, 0.000, 14:57:58.446
28, -518.61, 2.27, 20.66, 16.26, 0.000, 0.000, 0.000, 14:57:58.447
29, 406.08, 9.69, 10.45, 9.64, 0.000, 0.000, 0.000, 14:57:58.447
30, 333.88, 12.08, 6.59, 9.06, 0.000, 0.000, 0.000, 14:57:58.447
31, -596.18, 6.12, 10.39, 13.16, 0.000, 0.000, 0.000, 14:57:58.448
32, 94.19, 0.86, 14.21, 14.06, 0.000, 0.000, 0.000, 14:57:58.448
33, 560.23, 15.92, 7.00, 7.92, 0.000, 0.000, 0.000, 14:57:58.469
34, -368.08, 7.71, 6.02, 8.43, 0.000, 0.000, 0.000, 14:57:58.469
35, -302.43, 2.16, 20.32, 17.75, 0.000, 0.000, 0.000, 14:57:58.470
36, 565.74, 8.17, 5.85, 10.53, 0.000, 0.000, 0.000, 14:57:58.470
37, -19.39, 11.52, 7.27, 4.19, 0.000, 0.000, 0.000, 14:57:58.491
38, -525.10, 3.06, 15.59, 17.78, 0.000, 0.000, 0.000, 14:57:58.492
39, 401.18, 8.07, 6.57, 7.43, 0.000, 0.000, 0.000, 14:57:58.492
40, 358.52, 15.57, 5.74, 9.51, 0.000, 0.000, 0.000, 14:57:58.492
41, -598.95, 2.43, 15.41, 14.18, 0.000, 0.000, 0.000, 14:57:58.514
42, 89.12, 10.47, 12.47, 13.27, 0.000, 0.000, 0.000, 14:57:58.514
43, 543.84, 10.06, 7.69, 11.87, 0.000, 0.000, 0.000, 14:57:58.514
44, -345.12, 12.31, 8.97, 6.32, 0.000, 0.000, 0.000, 14:57:58.515
45, -304.45, 0.85, 14.61, 15.85, 0.000, 0.000, 0.000, 14:57:58.536
46, 589.02, 11.72, 9.47, 9.69, 0.000, 0.000, 0.000, 14:57:58.537
47, -20.75, 14.30, 3.43, 7.79, 0.000, 0.000, 0.000, 14:57:58.537
48, -513.33, 2.28, 16.26, 15.00, 0.000, 0.000, 0.000, 14:57:58.537
49, 388.29, 5.42, 11.54, 12.77, 0.000, 0.000, 0.000, 14:57:58.559
50, 378.38, 15.53, 4.24, 9.03, 0.000, 0.000, 0.000, 14:57:58.559
51, -596.06, 12.81, 18.00, 12.68, 0.000, 0.000, 0.000, 14:57:58.560
52, 100.32, -2.63, 13.40, 16.50, 0.000, 0.000, 0.000, 14:57:58.560
53, 552.59, 14.57, 9.09, 12.35, 0.000, 0.000, 0.000, 14:57:58.560
54, -355.10, 9.77, 9.37, 9.16, 0.000, 0.000, 0.000, 14:57:58.560
55, -299.37, 3.86, 19.32, 19.25, 0.000, 0.000, 0.000, 14:57:58.582
56, 617.74, 7.27, 8.24, 9.39, 0.000, 0.000, 0.000, 14:57:58.582
57, -21.45, 14.21, 6.75, 7.93, 0.000, 0.000, 0.000, 14:57:58.582
58, -523.03, 4.23, 15.00, 17.85, 0.000, 0.000, 0.000, 14:57:58.582
59, 392.52, 7.39, 11.16, 19.49, 0.000, 0.000, 0.000, 14:57:58.604
60, 389.27, 20.08, 5.64, 7.84, 0.000, 0.000, 0.000, 14:57:58.604
61, 385.11, 2.73, 16.76, 12.71, 0.000, 0.000, 0.000, 14:57:58.606
62, 1090.32, 1.85, 16.79, 11.32, 0.000, 0.000, 0.000, 14:57:58.606
63, 1529.35, 12.69, 6.65, 11.48, 0.000, 0.000, 0.000, 14:57:58.626
64, 638.36, 12.73, 10.11, 8.48, 0.000, 0.000, 0.000, 14:57:58.627
65, 674.65, 2.99, 17.86, 15.40, 0.000, 0.000, 0.000, 14:57:58.627
66, 1566.50, 7.80, 10.09, 10.28, 0.000, 0.000, 0.000, 14:57:58.628
67, 972.97, 10.15, 5.26, 4.88, 0.000, 0.000, 0.000, 14:57:58.628
68, 423.07, 1.80, 17.81, 12.79, 0.000, 0.000, 0.000, 14:57:58.628
69, 1396.26, 12.94, 16.53, 9.35, 0.000, 0.000, 0.000, 14:57:58.649
70, 1316.46, 9.40, 7.02, 11.25, 0.000, 0.000, 0.000, 14:57:58.650
71, 423.72, 0.33, 14.38, 17.97, 0.000, 0.000, 0.000, 14:57:58.650
72, 1042.62, 5.15, 11.58, 10.29, 0.000, 0.000, 0.000, 14:57:58.650
73, 1553.84, 15.24, 6.62, 10.29, 0.000, 0.000, 0.000, 14:57:58.671
74, 633.71, 11.45, 11.31, 6.50, 0.000, 0.000, 0.000, 14:57:58.672
75, 697.73, 3.12, 17.75, 18.78, 0.000, 0.000, 0.000, 14:57:58.672
76, 1572.70, 13.00, 8.69, 6.09, 0.000, 0.000, 0.000, 14:57:58.672
77, 978.49, 9.94, 5.67, 6.32, 0.000, 0.000, 0.000, 14:57:58.694
78, 465.21, 6.80, 18.23, 16.18, 0.000, 0.000, 0.000, 14:57:58.694
79, 1377.80, 5.77, 8.61, 12.71, 0.000, 0.000, 0.000, 14:57:58.695
80, 1343.10, 12.52, 6.78, 11.42, 0.000, 0.000, 0.000, 14:57:58.695
81, 396.19, 3.95, 13.60, 13.45, 0.000, 0.000, 0.000, 14:57:58.716
82, 1083.64, 5.78, 15.31, 16.43, 0.000, 0.000, 0.000, 14:57:58.717
83, 1561.28, 9.47, 6.49, 11.56, 0.000, 0.000, 0.000, 14:57:58.717
84, 607.05, 11.06, 7.81, 13.05, 0.000, 0.000, 0.000, 14:57:58.718
85, 679.33, 0.85, 15.28, 18.10, 0.000, 0.000, 0.000, 14:57:58.718
86, 1583.53, 9.56, 7.95, 6.43, 0.000, 0.000, 0.000, 14:57:58.718
87, 969.70, 16.17, 6.56, 6.29, 0.000, 0.000, 0.000, 14:57:58.739
88, 438.31, -0.43, 15.02, 15.34, 0.000, 0.000, 0.000, 14:57:58.739
89, 1377.25, 7.50, 10.27, 10.93, 0.000, 0.000, 0.000, 14:57:58.740
90, 1352.40, 12.17, 7.75, 10.77, 0.000, 0.000, 0.000, 14:57:58.740
91, 379.74, 8.50, 13.60, 16.13, 0.000, 0.000, 0.000, 14:57:58.761
92, 1076.45, 5.19, 16.47, 13.26, 0.000, 0.000, 0.000, 14:57:58.762
93, 1557.31, 14.86, 4.66, 9.08, 0.000, 0.000, 0.000, 14:57:58.762
94, 613.29, 8.93, 10.62, 9.47, 0.000, 0.000, 0.000, 14:57:58.762
95, 697.52, 4.78, 13.27, 17.41, 0.000, 0.000, 0.000, 14:57:58.784
96, 1572.71, 15.15, 7.31, 9.27, 0.000, 0.000, 0.000, 14:57:58.785
97, 957.78, 7.30, 4.14, 8.45, 0.000, 0.000, 0.000, 14:57:58.785
98, 421.52, 2.23, 18.34, 20.09, 0.000, 0.000, 0.000, 14:57:58.785
99, 430.56, 7.32, 12.73, 14.34, 0.000, 0.000, 0.000, 14:57:58.806
100, 379.83, 9.64, 5.28, 10.17, 0.000, 0.000, 0.000, 14:57:58.807
101, -575.59, 8.50, 12.90, 16.84, 0.000, 0.000, 0.000, 14:57:58.807
102, 83.56, 8.00, 9.24, 11.13, 0.000, 0.000, 0.000, 14:57:58.807
103, 578.46, 13.57, 8.33, 9.25, 0.000, 0.000, 0.000, 14:57:58.808
104, -373.29, 11.39, 9.39, 9.42, 0.000, 0.000, 0.000, 14:57:58.808
105, -298.07, 3.18, 17.55, 18.32, 0.000, 0.000, 0.000, 14:57:58.829
106, 600.54, 7.67, 11.94, 11.86, 0.000, 0.000, 0.000, 14:57:58.829
107, -7.69, 12.78, 3.70, 7.26, 0.000, 0.000, 0.000, 14:57:58.830
108, -536.16, 4.01, 15.71, 15.54, 0.000, 0.000, 0.000, 14:57:58.830
109, 402.11, 7.71, 9.98, 6.24, 0.000, 0.000, 0.000, 14:57:58.851
110, 359.43, 11.71, 5.08, 8.13, 0.000, 0.000, 0.000, 14:57:58.852
111, -598.29, 4.15, 16.87, 17.87, 0.000, 0.000, 0.000, 14:57:58.852
112, 98.80, 1.59, 12.66, 15.04, 0.000, 0.000, 0.000, 14:57:58.852
113, 570.16, 14.72, 5.87, 8.84, 0.000, 0.000, 0.000, 14:57:58.874
114, -352.83, 14.36, 11.09, 9.71, 0.000, 0.000, 0.000, 14:57:58.875
115, -284.70, -2.62, 18.03, 15.13, 0.000, 0.000, 0.000, 14:57:58.875
116, 603.44, 9.81, 11.06, 11.47, 0.000, 0.000, 0.000, 14:57:58.875
117, -9.30, 17.20, 6.78, 4.96, 0.000, 0.000, 0.000, 14:57:58.896
118, -533.76, 5.05, 12.12, 13.51, 0.000, 0.000, 0.000, 14:57:58.897
119, 395.26, 5.76, 8.56, 9.38, 0.000, 0.000, 0.000, 14:57:58.897
120, 376.45, 13.03, 7.57, 3.56, 0.000, 0.000, 0.000, 14:57:58.897
121, -579.71, 5.39, 16.14, 17.01, 0.000, 0.000, 0.000, 14:57:58.898
122, 94.31, 6.16, 12.78, 15.49, 0.000, 0.000, 0.000, 14:57:58.898
123, 571.37, 14.09, 9.73, 6.76, 0.000, 0.000, 0.000, 14:57:58.919
124, -362.77, 8.87, 8.22, 11.65, 0.000, 0.000, 0.000, 14:57:58.919
125, -301.31, -0.25, 17.62, 14.29, 0.000, 0.000, 0.000, 14:57:58.920
126, 590.00, 10.29, 8.12, 10.25, 0.000, 0.000, 0.000, 14:57:58.920
127, -3.90, 14.32, 4.95, 6.74, 0.000, 0.000, 0.000, 14:57:58.941
128, -550.01, 1.11, 15.21, 17.27, 0.000, 0.000, 0.000, 14:57:58.942
129, 403.24, 8.07, 12.01, 12.97, 0.000, 0.000, 0.000, 14:57:58.942
130, 341.31, 15.90, 7.73, 5.07, 0.000, 0.000, 0.000, 14:57:58.942
131, -580.13, 6.68, 13.97, 18.55, 0.000, 0.000, 0.000, 14:57:58.964
132, 96.93, 10.23, 14.34, 9.11, 0.000, 0.000, 0.000, 14:57:58.964
133, 548.71, 9.27, 7.03, 7.16, 0.000, 0.000, 0.000, 14:57:58.965
134, -352.95, 8.84, 12.33, 8.16, 0.000, 0.000, 0.000, 14:57:58.965
135, -299.33, 1.96, 17.88, 21.43, 0.000, 0.000, 0.000, 14:57:58.986
136, 581.25, 12.79, 5.36, 9.56, 0.000, 0.000, 0.000, 14:57:58.987
137, -4.97, 10.51, 5.05, 4.07, 0.000, 0.000, 0.000, 14:57:58.987
138, -529.68, 4.79, 16.12, 16.99, 0.000, 0.000, 0.000, 14:57:58.987
139, 400.25, 8.68, 15.38, 8.87, 0.000, 0.000, 0.000, 14:57:58.988
140, 363.43, 12.01, 5.74, 8.22, 0.000, 0.000, 0.000, 14:57:58.988
141, -591.71, 5.36, 16.02, 16.48, 0.000, 0.000, 0.000, 14:57:59.009
142, 99.23, 2.15, 18.07, 18.61, 0.000, 0.000, 0.000, 14:57:59.009
143, 555.23, 11.52, 9.86, 11.00, 0.000, 0.000, 0.000, 14:57:59.009
144, -363.83, 9.84, 8.43, 8.65, 0.000, 0.000, 0.000, 14:57:59.010
145, -291.93, 1.03, 16.82, 21.90, 0.000, 0.000, 0.000, 14:57:59.032
146, 597.55, 12.26, 9.30, 9.74, 0.000, 0.000, 0.000, 14:57:59.032
147, 1.90, 15.19, 7.49, 7.95, 0.000, 0.000, 0.000, 14:57:59.032
148, -532.23, 3.94, 17.73, 18.49, 0.000, 0.000, 0.000, 14:57:59.033
149, 402.38, 9.19, 8.71, 11.15, 0.000, 0.000, 0.000, 14:57:59.054
150, 390.75, 17.20, 4.21, 6.30, 0.000, 0.000, 0.000, 14:57:59.054
151, 387.63, 4.87, 17.36, 15.50, 0.000, 0.000, 0.000, 14:57:59.055
152, 1089.80, 2.32, 13.29, 17.51, 0.000, 0.000, 0.000, 14:57:59.055
153, 1571.29, 7.57, 6.85, 8.09, 0.000, 0.000, 0.000, 14:57:59.076
154, 622.96, 10.68, 6.78, 6.77, 0.000, 0.000, 0.000, 14:57:59.077
155, 722.50, 1.28, 18.05, 22.36, 0.000, 0.000, 0.000, 14:57:59.077
156, 1580.45, 12.38, 10.13, 12.26, 0.000, 0.000, 0.000, 14:57:59.077
157, 945.79, 12.12, 5.91, 11.22, 0.000, 0.000, 0.000, 14:57:59.077
158, 443.88, 2.47, 14.04, 15.77, 0.000, 0.000, 0.000, 14:57:59.078
159, 1357.12, 11.78, 12.99, 11.40, 0.000, 0.000, 0.000, 14:57:59.099
160, 1338.99, 10.20, 5.28, 11.27, 0.000, 0.000, 0.000, 14:57:59.099
161, 368.85, 8.15, 12.99, 13.75, 0.000, 0.000, 0.000, 14:57:59.100
162, 1064.76, 7.22, 13.25, 12.44, 0.000, 0.000, 0.000, 14:57:59.100
163, 1549.25, 13.56, 8.04, 7.78, 0.000, 0.000, 0.000, 14:57:59.121
164, 598.13, 10.16, 5.90, 8.60, 0.000, 0.000, 0.000, 14:57:59.122
165, 708.67, 4.89, 19.04, 17.37, 0.000, 0.000, 0.000, 14:57:59.122
166, 1575.06, 8.15, 6.19, 10.35, 0.000, 0.000, 0.000, 14:57:59.122
167, 968.19, 12.17, 5.37, 11.59, 0.000, 0.000, 0.000, 14:57:59.144
168, 450.70, 5.79, 18.23, 15.33, 0.000, 0.000, 0.000, 14:57:59.144
169, 1395.34, 3.45, 13.67, 12.27, 0.000, 0.000, 0.000, 14:57:59.144
170, 1338.96, 13.04, 5.42, 5.97, 0.000, 0.000, 0.000, 14:57:59.145
171, 401.39, 5.41, 18.22, 15.60, 0.000, 0.000, 0.000, 14:57:59.167
172, 1069.97, 2.68, 13.12, 11.32, 0.000, 0.000, 0.000, 14:57:59.167
173, 1568.27, 9.93, 6.21, 10.66, 0.000, 0.000, 0.000, 14:57:59.167
174, 595.24, 16.06, 7.39, 10.93, 0.000, 0.000, 0.000, 14:57:59.168
175, 715.74, -0.04, 16.64, 17.07, 0.000, 0.000, 0.000, 14:57:59.168
176, 1584.22, 9.85, 11.31, 8.96, 0.000, 0.000, 0.000, 14:57:59.168
177, 982.87, 19.58, 9.50, 10.41, 0.000, 0.000, 0.000, 14:57:59.189
178, 439.58, -1.11, 13.80, 18.65, 0.000, 0.000, 0.000, 14:57:59.189
179, 1397.98, 8.96, 11.74, 13.58, 0.000, 0.000, 0.000, 14:57:59.190
180, 1330.72, 10.22, 7.72, 10.99, 0.000, 0.000, 0.000, 14:57:59.190
181, 395.09, 6.95, 12.79, 14.31, 0.000, 0.000, 0.000, 14:57:59.211
182, 1080.19, 3.88, 11.38, 12.19, 0.000, 0.000, 0.000, 14:57:59.212
183, 1577.02, 13.36, 9.03, 8.77, 0.000, 0.000, 0.000, 14:57:59.212
184, 619.40, 12.46, 8.39, 6.00, 0.000, 0.000, 0.000, 14:57:59.212
185, 706.11, 1.60, 17.55, 13.12, 0.000, 0.000, 0.000, 14:57:59.234
186, 1572.41, 12.95, 9.36, 9.36, 0.000, 0.000, 0.000, 14:57:59.234
187, 969.32, 8.66, 4.11, 8.02, 0.000, 0.000, 0.000, 14:57:59.235
188, 427.82, -0.76, 15.60, 17.87, 0.000, 0.000, 0.000, 14:57:59.235
189, 1390.60, 7.03, 12.87, 9.58, 0.000, 0.000, 0.000, 14:57:59.257
190, 1328.49, 17.18, 4.06, 8.91, 0.000, 0.000, 0.000, 14:57:59.257
191, 406.51, 10.04, 12.62, 16.62, 0.000, 0.000, 0.000, 14:57:59.257
192, 1063.78, 5.01, 13.18, 15.93, 0.000, 0.000, 0.000, 14:57:59.257
193, 1574.84, 12.53, 8.05, 6.97, 0.000, 0.000, 0.000, 14:57:59.258
194, 622.79, 9.60, 6.74, 8.53, 0.000, 0.000, 0.000, 14:57:59.258
195, 672.09, 6.96, 14.88, 16.99, 0.000, 0.000, 0.000, 14:57:59.279
196, 1603.71, 8.68, 7.94, 14.81, 0.000, 0.000, 0.000, 14:57:59.279
197, 970.47, 14.75, 6.94, 7.57, 0.000, 0.000, 0.000, 14:57:59.279
198, 448.19, 5.94, 17.47, 17.06, 0.000, 0.000, 0.000, 14:57:59.279
199, 1403.33, 9.30, 12.16, 11.07, 0.000, 0.000, 0.000, 14:57:59.301
200, 1365.21, 7.96, 3.19, 6.45, 0.000, 0.000, 0.000, 14:57:59.302
0, -595.46, 6.49, 15.21, 13.53, 0.000, 0.000, 0.000, 14:57:59.302
1, 90.07, 3.78, 14.17, 14.12, 0.000, 0.000, 0.000, 14:57:59.302
2, 582.93, 7.82, 8.89, 4.81, 0.000, 0.000, 0.000, 14:57:59.303
3, -348.12, 14.89, 10.42, 6.72, 0.000, 0.000, 0.000, 14:57:59.324
4, -289.04, 1.58, 21.28, 16.71, 0.000, 0.000, 0.000, 14:57:59.324
5, 603.07, 6.53, 9.88, 8.46, 0.000, 0.000, 0.000, 14:57:59.324
6, -9.19, 15.60, 5.71, 12.79, 0.000, 0.000, 0.000, 14:57:59.325
7, -540.63, -0.11, 16.57, 21.42, 0.000, 0.000, 0.000, 14:57:59.346
8, 401.87, 10.26, 8.88, 10.66, 0.000, 0.000, 0.000, 14:57:59.347
9, 370.93, 9.73, 6.47, 6.58, 0.000, 0.000, 0.000, 14:57:59.347
10, -587.24, 1.65, 17.40, 14.25, 0.000, 0.000, 0.000, 14:57:59.347
11, 87.97, 6.09, 13.11, 13.29, 0.000, 0.000, 0.000, 14:57:59.369
12, 591.34, 18.32, 7.29, 9.48, 0.000, 0.000, 0.000, 14:57:59.369
13, -372.06, 7.11, 10.97, 12.94, 0.000, 0.000, 0.000, 14:57:59.370
14, -281.05, 3.60, 14.51, 16.10, 0.000, 0.000, 0.000, 14:57:59.370
15, 590.70, 7.30, 7.85, 11.26, 0.000, 0.000, 0.000, 14:57:59.391
16, -14.76, 12.15, 5.85, 8.68, 0.000, 0.000, 0.000, 14:57:59.391
17, -553.79, 3.19, 19.04, 14.41, 0.000, 0.000, 0.000, 14:57:59.392
18, 398.45, 9.80, 11.98, 9.24, 0.000, 0.000, 0.000, 14:57:59.392
19, 361.80, 18.00, 9.76, 9.00, 0.000, 0.000, 0.000, 14:57:59.393
20, -594.68, 3.15, 15.21, 14.05, 0.000, 0.000, 0.000, 14:57:59.393
21, 116.49, 8.52, 11.10, 15.81, 0.000, 0.000, 0.000, 14:57:59.414
22, 518.74, 9.99, 9.03, 11.12, 0.000, 0.000, 0.000, 14:57:59.415
23, -361.67, 9.05, 6.58, 9.27, 0.000, 0.000, 0.000, 14:57:59.415
24, -302.16, 2.04, 18.53, 16.72, 0.000, 0.000, 0.000, 14:57:59.415
25, 582.24, 9.48, 10.29, 7.35, 0.000, 0.000, 0.000, 14:57:59.436
26, 16.76, 11.02, 5.99, 5.87, 0.000, 0.000, 0.000, 14:57:59.437
27, -562.93, 4.70, 16.99, 18.27, 0.000, 0.000, 0.000, 14:57:59.437
28, 396.57, 9.32, 13.73, 5.15, 0.000, 0.000, 0.000, 14:57:59.438
29, 364.54, 12.35, 4.17, 7.00, 0.000, 0.000, 0.000, 14:57:59.459
30, -596.48, 11.33, 12.10, 12.89, 0.000, 0.000, 0.000, 14:57:59.459
31, 94.73, -0.88, 13.31, 16.15, 0.000, 0.000, 0.000, 14:57:59.459
32, 547.03, 11.01, 4.14, 8.25, 0.000, 0.000, 0.000, 14:57:59.460
33, -360.70, 11.85, 8.52, 13.82, 0.000, 0.000, 0.000, 14:57:59.482
34, -270.47, 0.70, 18.01, 19.07, 0.000, 0.000, 0.000, 14:57:59.482
35, 574.86, 7.25, 7.63, 9.94, 0.000, 0.000, 0.000, 14:57:59.482
36, -1.04, 17.81, 3.19, 6.79, 0.000, 0.000, 0.000, 14:57:59.482
37, -545.82, 6.78, 16.38, 16.60, 0.000, 0.000, 0.000, 14:57:59.483
38, 428.69, 8.46, 9.66, 10.56, 0.000, 0.000, 0.000, 14:57:59.483
39, 332.84, 16.14, 3.77, 8.14, 0.000, 0.000, 0.000, 14:57:59.504
40, -577.25, 1.04, 14.72, 15.96, 0.000, 0.000, 0.000, 14:57:59.504
41, 95.66, 5.52, 19.88, 13.67, 0.000, 0.000, 0.000, 14:57:59.505
42, 589.28, 12.50, 8.72, 8.73, 0.000, 0.000, 0.000, 14:57:59.505
43, -386.46, 11.72, 8.84, 11.24, 0.000, 0.000, 0.000, 14:57:59.526
44, -285.04, -0.17, 17.16, 19.93, 0.000, 0.000, 0.000, 14:57:59.527
45, 605.83, 9.44, 9.20, 8.30, 0.000, 0.000, 0.000, 14:57:59.527
46, -23.65, 12.04, 10.24, 6.39, 0.000, 0.000, 0.000, 14:57:59.527
47, -539.33, 1.29, 18.42, 22.96, 0.000, 0.000, 0.000, 14:57:59.549
48, 408.20, 13.26, 11.28, 13.07, 0.000, 0.000, 0.000, 14:57:59.549
49, 359.22, 9.39, 8.67, 8.51, 0.000, 0.000, 0.000, 14:57:59.550
50, -573.19, 5.29, 15.49, 17.11, 0.000, 0.000, 0.000, 14:57:59.550
51, 88.05, 7.69, 12.80, 12.41, 0.000, 0.000, 0.000, 14:57:59.572
52, 589.93, 11.42, 3.64, 4.39, 0.000, 0.000, 0.000, 14:57:59.572
53, -387.81, 6.83, 11.05, 9.05, 0.000, 0.000, 0.000, 14:57:59.572
54, -257.56, 5.08, 17.12, 14.63, 0.000, 0.000, 0.000, 14:57:59.573
55, 564.12, 11.24, 8.40, 8.44, 0.000, 0.000, 0.000, 14:57:59.573
56, -11.29, 15.92, 6.34, 9.99, 0.000, 0.000, 0.000, 14:57:59.573
57, -508.40, 9.49, 16.20, 19.11, 0.000, 0.000, 0.000, 14:57:59.594
58, 394.99, 2.17, 6.42, 13.22, 0.000, 0.000, 0.000, 14:57:59.594
59, 354.83, 9.32, 6.94, 8.11, 0.000, 0.000, 0.000, 14:57:59.595
60, -586.82, 6.20, 17.12, 19.63, 0.000, 0.000, 0.000, 14:57:59.595
61, 109.99, 3.23, 17.16, 12.43, 0.000, 0.000, 0.000, 14:57:59.617
62, 545.97, 10.27, 7.14, 5.87, 0.000, 0.000, 0.000, 14:57:59.617
63, -367.85, 9.26, 8.20, 11.85, 0.000, 0.000, 0.000, 14:57:59.639
64, -287.03, 0.62, 19.31, 18.15, 0.000, 0.000, 0.000, 14:57:59.639
65, 605.93, 8.61, 4.40, 8.18, 0.000, 0.000, 0.000, 14:57:59.640
66, -51.73, 9.67, 5.05, 6.91, 0.000, 0.000, 0.000, 14:57:59.640
67, -532.09, 5.88, 14.69, 15.52, 0.000, 0.000, 0.000, 14:57:59.640
68, 417.03, 9.02, 8.55, 9.67, 0.000, 0.000, 0.000, 14:57:59.640
69, 364.91, 13.80, 6.74, 7.85, 0.000, 0.000, 0.000, 14:57:59.641
70, -585.70, 9.13, 17.12, 14.26, 0.000, 0.000, 0.000, 14:57:59.641
71, 101.99, 7.21, 15.75, 12.92, 0.000, 0.000, 0.000, 14:57:59.662
72, 556.58, 10.55, 5.44, 7.49, 0.000, 0.000, 0.000, 14:57:59.662
73, -368.38, 14.43, 6.93, 10.11, 0.000, 0.000, 0.000, 14:57:59.665
74, -267.03, 2.04, 15.46, 15.20, 0.000, 0.000, 0.000, 14:57:59.666
75, 613.57, 12.68, 5.69, 8.97, 0.000, 0.000, 0.000, 14:57:59.685
76, -27.93, 9.43, 5.09, 7.99, 0.000, 0.000, 0.000, 14:57:59.685
77, -511.13, 3.44, 19.96, 19.90, 0.000, 0.000, 0.000, 14:57:59.686
78, 408.49, 7.43, 11.07, 14.21, 0.000, 0.000, 0.000, 14:57:59.686
79, 364.81, 15.92, 4.17, 7.45, 0.000, 0.000, 0.000, 14:57:59.706
80, -589.55, 4.70, 16.81, 14.94, 0.000, 0.000, 0.000, 14:57:59.707
81, 112.58, 4.67, 14.77, 12.94, 0.000, 0.000, 0.000, 14:57:59.707
82, 566.96, 9.90, 7.83, 10.36, 0.000, 0.000, 0.000, 14:57:59.707
83, -368.56, 11.12, 10.04, 11.11, 0.000, 0.000, 0.000, 14:57:59.729
84, -285.23, 8.52, 16.90, 19.04, 0.000, 0.000, 0.000, 14:57:59.729
85, 596.14, 7.23, 7.07, 10.58, 0.000, 0.000, 0.000, 14:57:59.729
86, -30.83, 13.70, 4.73, 6.27, 0.000, 0.000, 0.000, 14:57:59.730
87, -530.70, 0.07, 20.74, 19.03, 0.000, 0.000, 0.000, 14:57:59.751
88, 414.54, 2.66, 12.39, 15.57, 0.000, 0.000, 0.000, 14:57:59.752
89, 341.30, 13.32, 4.44, 11.92, 0.000, 0.000, 0.000, 14:57:59.752
90, -593.52, 7.70, 17.33, 15.22, 0.000, 0.000, 0.000, 14:57:59.752
91, 94.35, 5.99, 12.59, 13.81, 0.000, 0.000, 0.000, 14:57:59.753
92, 577.78, 10.28, 8.10, 11.05, 0.000, 0.000, 0.000, 14:57:59.753
93, -377.41, 15.29, 10.77, 11.91, 0.000, 0.000, 0.000, 14:57:59.774
94, -278.43, 0.03, 13.83, 18.58, 0.000, 0.000, 0.000, 14:57:59.774
95, 610.30, 10.46, 6.73, 10.81, 0.000, 0.000, 0.000, 14:57:59.775
96, -36.94, 13.70, 2.75, 11.13, 0.000, 0.000, 0.000, 14:57:59.775
97, -562.79, 4.91, 15.96, 17.70, 0.000, 0.000, 0.000, 14:57:59.796
98, -558.60, 4.82, 14.44, 9.26, 0.000, 0.000, 0.000, 14:57:59.797
99, -609.75, 13.19, 9.02, 8.97, 0.000, 0.000, 0.000, 14:57:59.798
100, -1570.59, 2.73, 16.20, 16.74, 0.000, 0.000, 0.000, 14:57:59.798
101, -872.68, 6.11, 12.43, 16.19, 0.000, 0.000, 0.000, 14:57:59.819
102, -400.72, 15.27, 4.33, 8.79, 0.000, 0.000, 0.000, 14:57:59.819
103, -1349.09, 10.27, 8.43, 9.70, 0.000, 0.000, 0.000, 14:57:59.820
104, -1249.31, 1.91, 19.46, 16.43, 0.000, 0.000, 0.000, 14:57:59.820
105, -386.01, 10.63, 9.18, 8.35, 0.000, 0.000, 0.000, 14:57:59.841
106, -1005.26, 16.11, 9.74, 6.48, 0.000, 0.000, 0.000, 14:57:59.841
107, -1517.52, 0.07, 16.24, 16.32, 0.000, 0.000, 0.000, 14:57:59.842
108, -561.30, 12.16, 8.96, 10.86, 0.000, 0.000, 0.000, 14:57:59.842
109, -618.84, 12.46, 7.59, 8.39, 0.000, 0.000, 0.000, 14:57:59.843
110, -1565.88, 6.81, 13.93, 14.87, 0.000, 0.000, 0.000, 14:57:59.843
111, -877.89, 11.30, 12.47, 12.78, 0.000, 0.000, 0.000, 14:57:59.864
112, -411.97, 7.49, 8.12, 11.04, 0.000, 0.000, 0.000, 14:57:59.864
113, -1349.40, 10.70, 9.92, 10.55, 0.000, 0.000, 0.000, 14:57:59.865
114, -1223.61, 2.47, 19.32, 18.88, 0.000, 0.000, 0.000, 14:57:59.865
115, -386.66, 8.47, 8.92, 5.33, 0.000, 0.000, 0.000, 14:57:59.887
116, -1013.45, 15.11, 4.47, 11.60, 0.000, 0.000, 0.000, 14:57:59.887
117, -1501.08, 0.72, 17.40, 14.97, 0.000, 0.000, 0.000, 14:57:59.887
118, -564.77, 4.89, 11.28, 13.13, 0.000, 0.000, 0.000, 14:57:59.887
119, -639.78, 13.62, 5.25, 6.23, 0.000, 0.000, 0.000, 14:57:59.909
120, -1573.40, 7.89, 16.94, 13.10, 0.000, 0.000, 0.000, 14:57:59.909
121, -883.66, 0.25, 12.93, 14.94, 0.000, 0.000, 0.000, 14:57:59.910
122, -406.48, 11.94, 6.05, 8.14, 0.000, 0.000, 0.000, 14:57:59.910
123, -1354.90, 10.43, 12.68, 9.68, 0.000, 0.000, 0.000, 14:57:59.932
124, -1249.91, -1.95, 18.79, 14.53, 0.000, 0.000, 0.000, 14:57:59.932
125, -401.77, 8.34, 7.86, 10.57, 0.000, 0.000, 0.000, 14:57:59.932
126, -1004.75, 13.39, 4.56, 6.61, 0.000, 0.000, 0.000, 14:57:59.933
127, -1508.19, 9.09, 16.70, 15.89, 0.000, 0.000, 0.000, 14:57:59.933
128, -570.48, 7.95, 7.66, 11.20, 0.000, 0.000, 0.000, 14:57:59.933
129, -621.70, 14.86, 6.93, 10.58, 0.000, 0.000, 0.000, 14:57:59.954
130, -1563.58, 0.56, 15.89, 18.56, 0.000, 0.000, 0.000, 14:57:59.954
131, -860.22, 5.88, 15.05, 12.63, 0.000, 0.000, 0.000, 14:57:59.955
132, -416.01, 11.53, 5.52, 8.15, 0.000, 0.000, 0.000, 14:57:59.955
133, -1360.31, 11.02, 10.03, 8.75, 0.000, 0.000, 0.000, 14:57:59.976
134, -1262.96, 1.46, 16.34, 18.73, 0.000, 0.000, 0.000, 14:57:59.977
135, -397.16, 11.23, 6.01, 8.55, 0.000, 0.000, 0.000, 14:57:59.977
136, -1021.10, 15.37, 5.13, 7.61, 0.000, 0.000, 0.000, 14:57:59.977
137, -1505.08, 1.91, 18.47, 15.71, 0.000, 0.000, 0.000, 14:58:00.000
138, -567.97, 14.84, 10.25, 8.67, 0.000, 0.000, 0.000, 14:58:00.000
139, -631.49, 8.18, 5.39, 7.03, 0.000, 0.000, 0.000, 14:58:00.001
140, -1554.34, 4.79, 15.50, 16.90, 0.000, 0.000, 0.000, 14:58:00.001
141, -856.76, 5.71, 14.29, 13.60, 0.000, 0.000, 0.000, 14:58:00.021
142, -401.45, 13.96, 6.20, 5.94, 0.000, 0.000, 0.000, 14:58:00.022
143, -1332.34, 9.13, 7.66, 15.77, 0.000, 0.000, 0.000, 14:58:00.044
144, -1225.73, 4.60, 15.74, 15.86, 0.000, 0.000, 0.000, 14:58:00.044
145, -382.58, 7.79, 7.30, 8.15, 0.000, 0.000, 0.000, 14:58:00.044
146, -1017.90, 15.44, 8.56, 10.25, 0.000, 0.000, 0.000, 14:58:00.044
147, -1515.52, -2.49, 18.81, 16.78, 0.000, 0.000, 0.000, 14:58:00.045
148, -582.50, 7.30, 11.11, 12.33, 0.000, 0.000, 0.000, 14:58:00.046
149, -648.28, 13.38, 5.39, 10.28, 0.000, 0.000, 0.000, 14:58:00.069
150, -1585.97, 8.21, 14.53, 12.69, 0.000, 0.000, 0.000, 14:58:00.070
151, -872.06, 6.25, 9.92, 12.22, 0.000, 0.000, 0.000, 14:58:00.070
152, -419.90, 14.44, 7.98, 8.67, 0.000, 0.000, 0.000, 14:58:00.070
153, -1366.04, 8.34, 11.99, 13.52, 0.000, 0.000, 0.000, 14:58:00.070
154, -1251.99, 4.23, 18.55, 19.67, 0.000, 0.000, 0.000, 14:58:00.070
155, -379.33, 11.59, 8.93, 8.50, 0.000, 0.000, 0.000, 14:58:00.090
156, -1022.76, 21.03, 7.07, 8.79, 0.000, 0.000, 0.000, 14:58:00.091
157, -1500.70, 2.33, 15.51, 17.45, 0.000, 0.000, 0.000, 14:58:00.091
158, -562.87, 5.61, 9.60, 8.05, 0.000, 0.000, 0.000, 14:58:00.091
159, -622.55, 14.97, 9.62, 9.13, 0.000, 0.000, 0.000, 14:58:00.113
160, -1573.28, 4.50, 16.33, 16.64, 0.000, 0.000, 0.000, 14:58:00.115
161, -872.94, 6.66, 17.67, 16.46, 0.000, 0.000, 0.000, 14:58:00.116
162, -427.72, 13.05, 8.16, 7.07, 0.000, 0.000, 0.000, 14:58:00.116
163, -1353.54, 9.12, 11.62, 6.58, 0.000, 0.000, 0.000, 14:58:00.116
164, -1234.79, 3.74, 16.43, 18.47, 0.000, 0.000, 0.000, 14:58:00.116
165, -401.47, 10.98, 5.10, 13.23, 0.000, 0.000, 0.000, 14:58:00.136
166, -1009.28, 10.83, 1.43, 11.89, 0.000, 0.000, 0.000, 14:58:00.136
167, -1505.28, 3.48, 14.45, 20.27, 0.000, 0.000, 0.000, 14:58:00.136
168, -551.57, 11.14, 7.10, 12.56, 0.000, 0.000, 0.000, 14:58:00.137
169, -635.76, 12.93, 6.77, 3.46, 0.000, 0.000, 0.000, 14:58:00.157
170, -1569.08, 8.20, 15.27, 14.94, 0.000, 0.000, 0.000, 14:58:00.157
171, -855.93, 1.00, 13.12, 13.84, 0.000, 0.000, 0.000, 14:58:00.159
172, -410.36, 10.09, 7.43, 7.16, 0.000, 0.000, 0.000, 14:58:00.160
173, -1352.11, 11.72, 10.82, 13.30, 0.000, 0.000, 0.000, 14:58:00.180
174, -1245.73, 7.54, 16.64, 16.02, 0.000, 0.000, 0.000, 14:58:00.180
175, -373.98, 5.51, 12.06, 9.18, 0.000, 0.000, 0.000, 14:58:00.181
176, -1003.79, 11.15, 7.53, 7.25, 0.000, 0.000, 0.000, 14:58:00.181
177, -1498.23, 1.77, 16.53, 22.62, 0.000, 0.000, 0.000, 14:58:00.202
178, -557.85, 4.87, 8.19, 11.80, 0.000, 0.000, 0.000, 14:58:00.202
179, -645.29, 15.36, 6.98, 7.04, 0.000, 0.000, 0.000, 14:58:00.204
180, -1560.66, 9.35, 13.67, 14.90, 0.000, 0.000, 0.000, 14:58:00.204
181, -863.81, 6.56, 15.10, 13.48, 0.000, 0.000, 0.000, 14:58:00.204
182, -396.02, 13.40, 5.77, 6.52, 0.000, 0.000, 0.000, 14:58:00.204
183, -1361.12, 15.01, 8.78, 8.15, 0.000, 0.000, 0.000, 14:58:00.224
184, -1247.39, -0.59, 17.44, 13.85, 0.000, 0.000, 0.000, 14:58:00.225
185, -383.39, 4.54, 10.17, 12.27, 0.000, 0.000, 0.000, 14:58:00.226
186, -995.39, 10.03, 7.47, 8.63, 0.000, 0.000, 0.000, 14:58:00.226
187, -1515.83, 2.28, 13.96, 17.29, 0.000, 0.000, 0.000, 14:58:00.257
188, -550.48, 6.09, 10.46, 11.79, 0.000, 0.000, 0.000, 14:58:00.257
189, -618.38, 15.01, 4.49, 6.53, 0.000, 0.000, 0.000, 14:58:00.258
190, -1568.26, 3.92, 14.91, 14.41, 0.000, 0.000, 0.000, 14:58:00.258
191, -866.07, 2.36, 12.07, 16.05, 0.000, 0.000, 0.000, 14:58:00.269
192, -387.22, 17.16, 4.48, 1.22, 0.000, 0.000, 0.000, 14:58:00.269
193, -1352.10, 7.01, 10.98, 9.28, 0.000, 0.000, 0.000, 14:58:00.270
194, -1235.78, 1.63, 16.74, 16.86, 0.000, 0.000, 0.000, 14:58:00.270
195, -381.52, 11.05, 7.95, 10.56, 0.000, 0.000, 0.000, 14:58:00.291
196, -996.03, 14.42, 8.69, 8.47, 0.000, 0.000, 0.000, 14:58:00.291
197, -1517.66, -0.85, 17.29, 19.18, 0.000, 0.000, 0.000, 14:58:00.292
198, -561.49, 7.59, 12.21, 13.38, 0.000, 0.000, 0.000, 14:58:00.292
199, -623.69, 17.33, 7.09, 9.10, 0.000, 0.000, 0.000, 14:58:00.293
200, -1564.48, 7.39, 17.34, 12.50, 0.000, 0.000, 0.000, 14:58:00.293
0, 90.42, 10.86, 17.64, 14.39, 0.000, 0.000, 0.000, 14:58:00.314
1, 586.65, 7.75, 4.36, 9.59, 0.000, 0.000, 0.000, 14:58:00.314
2, -386.18, 4.30, 9.24, 10.16, 0.000, 0.000, 0.000, 14:58:00.315
3, -271.02, 1.61, 15.96, 20.26, 0.000, 0.000, 0.000, 14:58:00.336
4, 578.76, 14.66, 8.97, 8.21, 0.000, 0.000, 0.000, 14:58:00.337
5, -36.52, 14.08, 7.64, 5.69, 0.000, 0.000, 0.000, 14:58:00.340
6, -521.16, 3.10, 17.49, 14.18, 0.000, 0.000, 0.000, 14:58:00.341
7, 412.81, 8.51, 8.94, 13.67, 0.000, 0.000, 0.000, 14:58:00.341
8, 370.31, 13.25, 8.11, 5.40, 0.000, 0.000, 0.000, 14:58:00.341
9, -582.30, 11.11, 13.29, 16.52, 0.000, 0.000, 0.000, 14:58:00.359
10, 90.12, 2.15, 15.14, 16.31, 0.000, 0.000, 0.000, 14:58:00.359
11, 566.60, 9.52, 6.88, 7.86, 0.000, 0.000, 0.000, 14:58:00.360
12, -376.97, 14.19, 10.52, 10.20, 0.000, 0.000, 0.000, 14:58:00.360
13, -282.81, 1.44, 17.93, 13.02, 0.000, 0.000, 0.000, 14:58:00.381
14, 598.84, 3.59, 3.30, 11.93, 0.000, 0.000, 0.000, 14:58:00.382
15, -31.05, 12.30, 5.37, 9.16, 0.000, 0.000, 0.000, 14:58:00.382
16, -532.15, 2.47, 18.13, 16.00, 0.000, 0.000, 0.000, 14:58:00.382
17, 412.62, 9.57, 10.62, 11.77, 0.000, 0.000, 0.000, 14:58:00.404
18, 352.39, 20.04, 8.22, 2.62, 0.000, 0.000, 0.000, 14:58:00.404
19, -604.93, 0.49, 12.86, 15.33, 0.000, 0.000, 0.000, 14:58:00.404
20, 103.45, 4.21, 11.62, 15.62, 0.000, 0.000, 0.000, 14:58:00.405
21, 584.10, 13.81, 8.00, 6.09, 0.000, 0.000, 0.000, 14:58:00.428
22, 581.35, 12.83, 10.45, 8.84, 0.000, 0.000, 0.000, 14:58:00.428
23, 690.85, 0.87, 14.52, 16.63, 0.000, 0.000, 0.000, 14:58:00.429
24, 1562.03, 9.70, 8.24, 9.41, 0.000, 0.000, 0.000, 14:58:00.429
25, 940.68, 9.38, 5.36, 6.47, 0.000, 0.000, 0.000, 14:58:00.430
26, 431.68, 1.89, 17.24, 14.62, 0.000, 0.000, 0.000, 14:58:00.430
27, 1410.69, 12.33, 10.77, 7.80, 0.000, 0.000, 0.000, 14:58:00.449
28, 1288.98, 13.89, 8.43, 9.85, 0.000, 0.000, 0.000, 14:58:00.449
29, 415.64, 3.42, 13.70, 14.43, 0.000, 0.000, 0.000, 14:58:00.450
30, 1045.11, 7.27, 12.23, 16.32, 0.000, 0.000, 0.000, 14:58:00.450
31, 1557.34, 14.19, 7.84, 13.55, 0.000, 0.000, 0.000, 14:58:00.471
32, 615.62, 8.48, 9.05, 14.49, 0.000, 0.000, 0.000, 14:58:00.472
33, 674.64, 0.73, 17.44, 15.07, 0.000, 0.000, 0.000, 14:58:00.472
34, 1602.10, 10.60, 8.22, 10.34, 0.000, 0.000, 0.000, 14:58:00.472
35, 940.04, 15.17, 6.66, 5.44, 0.000, 0.000, 0.000, 14:58:00.496
36, 472.56, 5.98, 15.99, 19.60, 0.000, 0.000, 0.000, 14:58:00.496
37, 1363.04, 1.51, 12.16, 11.83, 0.000, 0.000, 0.000, 14:58:00.497
38, 1340.67, 16.08, 6.52, 6.17, 0.000, 0.000, 0.000, 14:58:00.498
39, 387.15, 5.77, 11.95, 16.38, 0.000, 0.000, 0.000, 14:58:00.516
40, 1068.58, 2.80, 13.75, 13.30, 0.000, 0.000, 0.000, 14:58:00.517
41, 1548.35, 9.01, 5.93, 13.65, 0.000, 0.000, 0.000, 14:58:00.517
42, 644.01, 13.69, 9.02, 7.29, 0.000, 0.000, 0.000, 14:58:00.517
43, 703.00, 4.45, 20.79, 15.72, 0.000, 0.000, 0.000, 14:58:00.518
44, 1545.61, 10.42, 8.87, 11.43, 0.000, 0.000, 0.000, 14:58:00.518
45, 972.52, 13.29, 6.42, 11.52, 0.000, 0.000, 0.000, 14:58:00.539
46, 472.46, -3.19, 15.72, 14.95, 0.000, 0.000, 0.000, 14:58:00.539
47, 1373.71, 9.21, 15.37, 8.12, 0.000, 0.000, 0.000, 14:58:00.562
48, 1323.77, 15.89, 5.67, 9.31, 0.000, 0.000, 0.000, 14:58:00.562
49, 432.63, 7.56, 15.85, 20.76, 0.000, 0.000, 0.000, 14:58:00.563
50, 1075.09, 3.60, 15.11, 13.02, 0.000, 0.000, 0.000, 14:58:00.563
51, 1546.11, 13.91, 9.52, 11.93, 0.000, 0.000, 0.000, 14:58:00.563
52, 617.73, 13.79, 8.84, 10.69, 0.000, 0.000, 0.000, 14:58:00.563
53, 710.31, 3.69, 12.39, 13.92, 0.000, 0.000, 0.000, 14:58:00.584
54, 1562.10, 13.59, 9.01, 16.19, 0.000, 0.000, 0.000, 14:58:00.584
55, 954.77, 9.93, 5.67, 6.11, 0.000, 0.000, 0.000, 14:58:00.585
56, 463.04, -0.31, 15.93, 15.76, 0.000, 0.000, 0.000, 14:58:00.585
57, 1391.54, 9.73, 9.73, 13.06, 0.000, 0.000, 0.000, 14:58:00.606
58, 1332.54, 11.76, 7.06, 7.61, 0.000, 0.000, 0.000, 14:58:00.606
59, 408.87, 4.78, 16.09, 14.11, 0.000, 0.000, 0.000, 14:58:00.607
60, 1078.79, 5.65, 13.02, 12.47, 0.000, 0.000, 0.000, 14:58:00.607
61, 1548.09, 11.92, 6.07, 7.07, 0.000, 0.000, 0.000, 14:58:00.607
62, 581.50, 9.52, 9.80, 9.86, 0.000, 0.000, 0.000, 14:58:00.608
63, 739.67, 6.16, 18.22, 16.23, 0.000, 0.000, 0.000, 14:58:00.629
64, 1553.49, 7.59, 9.16, 8.78, 0.000, 0.000, 0.000, 14:58:00.629
65, 948.72, 16.27, 7.45, 8.54, 0.000, 0.000, 0.000, 14:58:00.629
66, 448.16, 0.52, 16.73, 20.66, 0.000, 0.000, 0.000, 14:58:00.630
67, 1424.17, 7.35, 11.97, 14.10, 0.000, 0.000, 0.000, 14:58:00.651
68, 1300.58, 12.87, 2.66, 8.46, 0.000, 0.000, 0.000, 14:58:00.652
69, 422.25, 3.18, 13.62, 14.95, 0.000, 0.000, 0.000, 14:58:00.652
70, 1089.08, 4.09, 14.13, 12.35, 0.000, 0.000, 0.000, 14:58:00.652
71, 1545.26, 11.00, 3.38, 6.05, 0.000, 0.000, 0.000, 14:58:00.674
72, 1539.47, 13.31, 14.85, 10.30, 0.000, 0.000, 0.000, 14:58:00.674
73, 1714.87, -6.79, 17.52, 18.32, 0.000, 0.000, 0.000, 14:58:00.674
74, 2560.90, 10.36, 8.20, 10.05, 0.000, 0.000, 0.000, 14:58:00.674
75, 1926.08, 13.07, 7.99, 8.84, 0.000, 0.000, 0.000, 14:58:00.696
76, 1421.26, -0.46, 17.48, 18.95, 0.000, 0.000, 0.000, 14:58:00.696
77, 2387.49, 5.45, 8.14, 9.72, 0.000, 0.000, 0.000, 14:58:00.697
78, 2298.01, 18.93, 4.40, 9.84, 0.000, 0.000, 0.000, 14:58:00.697
79, 1335.65, 8.24, 15.38, 13.45, 0.000, 0.000, 0.000, 14:58:00.698
80, 2066.88, 7.61, 15.67, 15.16, 0.000, 0.000, 0.000, 14:58:00.698
81, 2529.34, 19.82, 9.20, 9.89, 0.000, 0.000, 0.000, 14:58:00.719
82, 1584.54, 10.90, 7.92, 10.74, 0.000, 0.000, 0.000, 14:58:00.719
83, 1689.37, 1.23, 15.53, 16.82, 0.000, 0.000, 0.000, 14:58:00.720
84, 2594.70, 12.08, 10.48, 9.55, 0.000, 0.000, 0.000, 14:58:00.720
85, 1914.32, 15.06, 7.50, 10.79, 0.000, 0.000, 0.000, 14:58:00.741
86, 1439.54, -3.03, 15.25, 12.66, 0.000, 0.000, 0.000, 14:58:00.741
87, 2381.81, 7.94, 7.67, 13.79, 0.000, 0.000, 0.000, 14:58:00.742
88, 2315.66, 15.44, 5.54, 7.31, 0.000, 0.000, 0.000, 14:58:00.742
89, 1383.94, 5.03, 16.46, 11.39, 0.000, 0.000, 0.000, 14:58:00.764
90, 2066.84, 8.45, 14.02, 11.59, 0.000, 0.000, 0.000, 14:58:00.764
91, 2518.00, 9.46, 3.36, 10.77, 0.000, 0.000, 0.000, 14:58:00.786
92, 1589.08, 11.99, 9.41, 7.13, 0.000, 0.000, 0.000, 14:58:00.787
93, 1666.53, 0.62, 20.07, 16.67, 0.000, 0.000, 0.000, 14:58:00.787
94, 2582.85, 10.47, 10.31, 10.33, 0.000, 0.000, 0.000, 14:58:00.788
95, 1924.00, 12.56, 7.06, 5.36, 0.000, 0.000, 0.000, 14:58:00.788
96, 1458.98, 4.27, 19.68, 17.67, 0.000, 0.000, 0.000, 14:58:00.788
97, 2358.81, 5.29, 9.13, 10.80, 0.000, 0.000, 0.000, 14:58:00.809
98, 2324.12, 12.58, 12.74, 5.06, 0.000, 0.000, 0.000, 14:58:00.809
99, 1353.51, 8.08, 13.99, 16.21, 0.000, 0.000, 0.000, 14:58:00.809
100, 2093.42, 5.56, 13.42, 15.87, 0.000, 0.000, 0.000, 14:58:00.810
101, 2505.76, 11.34, 4.01, 8.22, 0.000, 0.000, 0.000, 14:58:00.810
102, 1590.79, 10.50, 8.14, 9.34, 0.000, 0.000, 0.000, 14:58:00.810
103, 1694.06, 3.32, 15.17, 17.71, 0.000, 0.000, 0.000, 14:58:00.831
104, 2578.49, 7.13, 9.94, 7.98, 0.000, 0.000, 0.000, 14:58:00.831
105, 1920.05, 10.96, 6.39, 7.49, 0.000, 0.000, 0.000, 14:58:00.832
106, 1424.80, 2.99, 16.62, 16.76, 0.000, 0.000, 0.000, 14:58:00.832
107, 2393.95, 4.77, 10.92, 14.19, 0.000, 0.000, 0.000, 14:58:00.854
108, 2300.10, 21.19, 6.42, 7.02, 0.000, 0.000, 0.000, 14:58:00.854
109, 1377.67, 2.67, 14.04, 14.21, 0.000, 0.000, 0.000, 14:58:00.855
110, 2055.52, 5.25, 12.24, 12.78, 0.000, 0.000, 0.000, 14:58:00.855
111, 2534.79, 9.68, 6.27, 7.41, 0.000, 0.000, 0.000, 14:58:00.876
112, 1567.12, 12.83, 11.02, 12.51, 0.000, 0.000, 0.000, 14:58:00.877
113, 1691.36, 2.99, 18.68, 18.58, 0.000, 0.000, 0.000, 14:58:00.877
114, 2541.72, 8.83, 8.19, 8.17, 0.000, 0.000, 0.000, 14:58:00.877
115, 1944.15, 12.12, 5.75, 5.27, 0.000, 0.000, 0.000, 14:58:00.878
116, 1415.45, 4.67, 15.09, 20.60, 0.000, 0.000, 0.000, 14:58:00.878
117, 2371.26, 12.31, 10.14, 8.88, 0.000, 0.000, 0.000, 14:58:00.899
118, 2316.17, 11.59, 3.66, 10.10, 0.000, 0.000, 0.000, 14:58:00.899
119, 1345.92, 5.87, 15.99, 13.86, 0.000, 0.000, 0.000, 14:58:00.900
120, 2088.91, 1.79, 11.60, 13.12, 0.000, 0.000, 0.000, 14:58:00.900
121, 2508.49, 13.97, 9.02, 13.13, 0.000, 0.000, 0.000, 14:58:00.921
122, 1564.01, 10.99, 11.48, 12.32, 0.000, 0.000, 0.000, 14:58:00.921
123, 1724.47, 1.83, 20.18, 19.02, 0.000, 0.000, 0.000, 14:58:00.922
124, 2549.54, 6.57, 4.24, 5.77, 0.000, 0.000, 0.000, 14:58:00.922
125, 1933.95, 12.49, 4.77, 7.53, 0.000, 0.000, 0.000, 14:58:00.944
126, 1422.18, 7.03, 14.45, 16.54, 0.000, 0.000, 0.000, 14:58:00.945
127, 2400.54, 4.09, 9.57, 10.65, 0.000, 0.000, 0.000, 14:58:00.945
128, 2268.06, 13.15, 3.81, 8.66, 0.000, 0.000, 0.000, 14:58:00.945
129, 1385.23, 2.83, 11.44, 11.67, 0.000, 0.000, 0.000, 14:58:00.967
130, 2107.04, 1.71, 13.87, 15.98, 0.000, 0.000, 0.000, 14:58:00.967
131, 2527.44, 13.36, 12.56, 5.27, 0.000, 0.000, 0.000, 14:58:00.968
132, 1554.67, 8.67, 9.97, 9.25, 0.000, 0.000, 0.000, 14:58:00.968
133, 1736.86, 1.55, 16.66, 13.07, 0.000, 0.000, 0.000, 14:58:00.968
134, 2572.46, 8.17, 10.22, 11.46, 0.000, 0.000, 0.000, 14:58:00.968
135, 1920.12, 18.56, 9.90, 10.22, 0.000, 0.000, 0.000, 14:58:00.989
136, 1475.52, -2.08, 17.48, 16.72, 0.000, 0.000, 0.000, 14:58:00.989
137, 2411.39, 9.17, 9.18, 12.57, 0.000, 0.000, 0.000, 14:58:00.989
138, 2274.45, 16.94, 7.94, 7.80, 0.000, 0.000, 0.000, 14:58:00.989
139, 1347.50, 4.85, 12.82, 9.19, 0.000, 0.000, 0.000, 14:58:01.011
140, 2081.58, 5.25, 13.15, 17.49, 0.000, 0.000, 0.000, 14:58:01.012
141, 2497.70, 13.16, 8.24, 4.62, 0.000, 0.000, 0.000, 14:58:01.012
142, 1560.84, 7.39, 10.13, 8.58, 0.000, 0.000, 0.000, 14:58:01.012
143, 1707.46, 4.25, 18.65, 15.87, 0.000, 0.000, 0.000, 14:58:01.034
144, 2563.47, 16.74, 9.26, 11.05, 0.000, 0.000, 0.000, 14:58:01.034
145, 1893.21, 7.66, 6.34, 9.81, 0.000, 0.000, 0.000, 14:58:01.034
146, 1440.98, 2.83, 17.33, 15.88, 0.000, 0.000, 0.000, 14:58:01.035
147, 2403.59, 9.11, 8.49, 11.13, 0.000, 0.000, 0.000, 14:58:01.056
148, 2309.21, 13.34, 7.18, 6.76, 0.000, 0.000, 0.000, 14:58:01.056
149, 1353.97, 1.37, 16.07, 16.30, 0.000, 0.000, 0.000, 14:58:01.057
150, 2079.36, 4.97, 9.74, 9.77, 0.000, 0.000, 0.000, 14:58:01.057
151, 2553.76, 13.70, 5.24, 13.55, 0.000, 0.000, 0.000, 14:58:01.058
152, 1584.68, 14.46, 5.56, 12.18, 0.000, 0.000, 0.000, 14:58:01.058
153, 1704.11, 2.00, 15.67, 17.62, 0.000, 0.000, 0.000, 14:58:01.079
154, 2584.59, 8.06, 10.34, 9.99, 0.000, 0.000, 0.000, 14:58:01.079
155, 1927.28, 13.63, 8.23, 8.59, 0.000, 0.000, 0.000, 14:58:01.101
156, 1427.15, 3.57, 18.07, 15.20, 0.000, 0.000, 0.000, 14:58:01.102
157, 2394.83, 8.01, 9.81, 10.55, 0.000, 0.000, 0.000, 14:58:01.102
158, 2317.19, 12.68, 5.68, 7.21, 0.000, 0.000, 0.000, 14:58:01.102
159, 1355.57, 6.02, 15.18, 15.77, 0.000, 0.000, 0.000, 14:58:01.103
160, 2086.07, 6.90, 14.42, 13.10, 0.000, 0.000, 0.000, 14:58:01.103
161, 2535.81, 14.34, 8.46, 11.78, 0.000, 0.000, 0.000, 14:58:01.124
162, 1562.90, 13.19, 9.35, 10.74, 0.000, 0.000, 0.000, 14:58:01.124
163, 1693.33, -0.70, 18.99, 16.51, 0.000, 0.000, 0.000, 14:58:01.124
164, 2576.32, 6.39, 6.53, 6.23, 0.000, 0.000, 0.000, 14:58:01.124
165, 1910.01, 10.78, 7.80, 7.28, 0.000, 0.000, 0.000, 14:58:01.146
166, 1454.08, 4.49, 16.59, 17.78, 0.000, 0.000, 0.000, 14:58:01.147
167, 2338.83, 10.17, 12.22, 14.67, 0.000, 0.000, 0.000, 14:58:01.147
168, 2332.31, 16.70, 6.16, 3.88, 0.000, 0.000, 0.000, 14:58:01.147
169, 1382.63, 4.89, 14.70, 16.07, 0.000, 0.000, 0.000, 14:58:01.148
170, 2042.42, 4.92, 15.25, 13.34, 0.000, 0.000, 0.000, 14:58:01.148
171, 2541.34, 16.06, 5.43, 10.86, 0.000, 0.000, 0.000, 14:58:01.169
172, 1582.70, 9.62, 8.58, 10.75, 0.000, 0.000, 0.000, 14:58:01.169
173, 1727.26, 2.94, 13.91, 16.85, 0.000, 0.000, 0.000, 14:58:01.170
174, 2493.10, 8.00, 5.68, 8.05, 0.000, 0.000, 0.000, 14:58:01.170
175, 1933.46, 10.72, 11.02, 8.32, 0.000, 0.000, 0.000, 14:58:01.192
176, 1468.17, -0.23, 18.64, 18.68, 0.000, 0.000, 0.000, 14:58:01.192
177, 2400.01, 8.51, 14.28, 10.40, 0.000, 0.000, 0.000, 14:58:01.192
178, 2324.63, 12.00, 6.60, 6.32, 0.000, 0.000, 0.000, 14:58:01.192
179, 1389.06, 7.36, 13.89, 16.45, 0.000, 0.000, 0.000, 14:58:01.214
180, 2071.70, 8.75, 12.54, 10.11, 0.000, 0.000, 0.000, 14:58:01.214
181, 2521.91, 4.98, 8.02, 11.09, 0.000, 0.000, 0.000, 14:58:01.215
182, 1592.69, 11.66, 9.66, 12.41, 0.000, 0.000, 0.000, 14:58:01.215
183, 1696.20, 2.24, 14.03, 19.15, 0.000, 0.000, 0.000, 14:58:01.236
184, 2560.14, 9.56, 10.59, 11.81, 0.000, 0.000, 0.000, 14:58:01.237
185, 1928.82, 10.09, 8.70, 6.51, 0.000, 0.000, 0.000, 14:58:01.237
186, 1461.85, 4.14, 20.24, 16.27, 0.000, 0.000, 0.000, 14:58:01.237
187, 2369.64, 10.18, 10.48, 17.04, 0.000, 0.000, 0.000, 14:58:01.238
188, 2308.74, 14.93, 1.98, 10.06, 0.000, 0.000, 0.000, 14:58:01.238
189, 1375.88, 8.48, 15.44, 17.41, 0.000, 0.000, 0.000, 14:58:01.260
190, 2065.53, 2.58, 14.69, 12.77, 0.000, 0.000, 0.000, 14:58:01.260
191, 2510.66, 11.96, 8.58, 9.98, 0.000, 0.000, 0.000, 14:58:01.261
192, 1604.32, 11.07, 8.31, 5.76, 0.000, 0.000, 0.000, 14:58:01.261
193, 1709.68, 1.33, 17.05, 18.22, 0.000, 0.000, 0.000, 14:58:01.281
194, 2539.86, 11.56, 9.31, 9.32, 0.000, 0.000, 0.000, 14:58:01.282
195, 1936.53, 11.56, 9.38, 6.39, 0.000, 0.000, 0.000, 14:58:01.304
196, 1442.27, 1.61, 18.97, 18.25, 0.000, 0.000, 0.000, 14:58:01.304
197, 2398.65, 7.31, 8.94, 11.96, 0.000, 0.000, 0.000, 14:58:01.304
198, 2261.58, 8.93, 5.60, 10.41, 0.000, 0.000, 0.000, 14:58:01.305
199, 1376.53, 9.43, 14.29, 12.75, 0.000, 0.000, 0.000, 14:58:01.305
200, 2061.84, 7.60, 14.03, 13.51, 0.000, 0.000, 0.000, 14:58:01.305
0, 557.65, 13.14, 4.98, 5.67, 0.000, 0.000, 0.000, 14:58:01.327
1, -395.81, 12.09, 11.47, 13.04, 0.000, 0.000, 0.000, 14:58:01.349
2, -266.22, 1.02, 18.51, 19.09, 0.000, 0.000, 0.000, 14:58:01.349
3, 597.14, 10.41, 10.40, 11.67, 0.000, 0.000, 0.000, 14:58:01.350
4, -51.63, 12.35, 8.10, 10.07, 0.000, 0.000, 0.000, 14:58:01.350
5, -529.20, 4.13, 17.54, 16.32, 0.000, 0.000, 0.000, 14:58:01.350
6, 415.46, 12.77, 5.92, 11.55, 0.000, 0.000, 0.000, 14:58:01.351
7, 337.75, 6.26, 8.22, 7.63, 0.000, 0.000, 0.000, 14:58:01.351
8, -627.64, 5.87, 13.09, 15.79, 0.000, 0.000, 0.000, 14:58:01.351
9, 130.67, 5.00, 12.14, 15.66, 0.000, 0.000, 0.000, 14:58:01.371
10, 570.25, 15.43, 10.08, 6.09, 0.000, 0.000, 0.000, 14:58:01.371
11, -395.23, 10.43, 12.60, 12.86, 0.000, 0.000, 0.000, 14:58:01.372
12, -256.85, 2.79, 19.95, 18.80, 0.000, 0.000, 0.000, 14:58:01.372
13, 577.21, 8.43, 8.94, 13.33, 0.000, 0.000, 0.000, 14:58:01.373
14, -16.91, 11.89, 4.53, 8.96, 0.000, 0.000, 0.000, 14:58:01.373
15, -542.08, 7.45, 16.87, 16.65, 0.000, 0.000, 0.000, 14:58:01.394
16, 425.67, 5.53, 8.84, 10.40, 0.000, 0.000, 0.000, 14:58:01.394
17, 359.35, 15.09, 5.92, 6.16, 0.000, 0.000, 0.000, 14:58:01.395
18, -575.11, 8.17, 15.07, 15.17, 0.000, 0.000, 0.000, 14:58:01.395
19, 105.43, 8.87, 13.37, 16.33, 0.000, 0.000, 0.000, 14:58:01.416
20, 554.55, 6.85, 3.87, 11.67, 0.000, 0.000, 0.000, 14:58:01.417
21, -369.03, 12.50, 8.52, 10.99, 0.000, 0.000, 0.000, 14:58:01.417
22, -257.47, 1.29, 16.33, 12.73, 0.000, 0.000, 0.000, 14:58:01.417
23, 575.68, 9.44, 8.71, 10.06, 0.000, 0.000, 0.000, 14:58:01.439
24, -30.10, 18.74, 7.46, 6.65, 0.000, 0.000, 0.000, 14:58:01.439
25, -506.75, -2.28, 18.00, 16.54, 0.000, 0.000, 0.000, 14:58:01.439
26, 403.59, 9.36, 11.97, 9.09, 0.000, 0.000, 0.000, 14:58:01.439
27, 344.63, 13.81, 6.01, 7.27, 0.000, 0.000, 0.000, 14:58:01.461
28, -581.20, 6.66, 16.52, 16.27, 0.000, 0.000, 0.000, 14:58:01.462
29, 99.51, 2.80, 15.31, 13.44, 0.000, 0.000, 0.000, 14:58:01.462
30, 559.15, 10.95, 5.85, 9.16, 0.000, 0.000, 0.000, 14:58:01.462
31, -353.93, 10.43, 7.87, 9.47, 0.000, 0.000, 0.000, 14:58:01.463
32, -259.18, 2.11, 19.05, 13.21, 0.000, 0.000, 0.000, 14:58:01.463
33, 609.16, 12.32, 9.06, 7.07, 0.000, 0.000, 0.000, 14:58:01.484
34, -51.59, 12.41, 7.43, 11.19, 0.000, 0.000, 0.000, 14:58:01.485
35, -521.29, -0.61, 14.70, 17.56, 0.000, 0.000, 0.000, 14:58:01.485
36, 398.78, 6.62, 10.04, 9.30, 0.000, 0.000, 0.000, 14:58:01.485
37, 344.59, 14.27, 1.93, 10.46, 0.000, 0.000, 0.000, 14:58:01.507
38, -599.61, 2.75, 14.55, 15.94, 0.000, 0.000, 0.000, 14:58:01.507
39, 111.69, 2.11, 13.58, 12.17, 0.000, 0.000, 0.000, 14:58:01.529
40, 558.08, 14.43, 7.58, 11.38, 0.000, 0.000, 0.000, 14:58:01.530
41, -387.15, 8.36, 10.64, 11.85, 0.000, 0.000, 0.000, 14:58:01.530
42, -263.00, -1.38, 15.16, 16.39, 0.000, 0.000, 0.000, 14:58:01.530
43, 592.77, 13.22, 11.50, 12.09, 0.000, 0.000, 0.000, 14:58:01.531
44, -50.36, 15.25, 7.26, 5.59, 0.000, 0.000, 0.000, 14:58:01.531
45, -522.51, 2.47, 13.82, 17.57, 0.000, 0.000, 0.000, 14:58:01.532
46, 419.78, 8.81, 14.04, 14.38, 0.000, 0.000, 0.000, 14:58:01.532
47, 333.40, 14.68, 4.71, 11.60, 0.000, 0.000, 0.000, 14:58:01.552
48, -592.60, 2.39, 11.65, 12.80, 0.000, 0.000, 0.000, 14:58:01.552
49, 145.48, 6.79, 11.67, 10.11, 0.000, 0.000, 0.000, 14:58:01.553
50, 575.77, 14.46, 5.64, 7.90, 0.000, 0.000, 0.000, 14:58:01.553
51, -404.17, 16.45, 8.68, 10.74, 0.000, 0.000, 0.000, 14:58:01.597
52, -241.17, -3.53, 17.97, 14.64, 0.000, 0.000, 0.000, 14:58:01.597
53, 587.41, 9.29, 6.73, 10.12, 0.000, 0.000, 0.000, 14:58:01.597
54, -52.94, 8.64, 6.03, 11.79, 0.000, 0.000, 0.000, 14:58:01.598
55, -547.18, 1.83, 16.86, 17.46, 0.000, 0.000, 0.000, 14:58:01.598
56, -519.07, 8.25, 7.72, 10.38, 0.000, 0.000, 0.000, 14:58:01.599
57, -656.47, 13.82, 8.20, 8.38, 0.000, 0.000, 0.000, 14:58:01.619
58, -1558.04, 8.45, 18.36, 17.90, 0.000, 0.000, 0.000, 14:58:01.619
59, -876.03, 7.76, 12.24, 16.44, 0.000, 0.000, 0.000, 14:58:01.620
60, -383.04, 8.90, 6.55, 10.73, 0.000, 0.000, 0.000, 14:58:01.620
61, -396.95, 13.10, 11.51, 10.50, 0.000, 0.000, 0.000, 14:58:01.621
62, -258.66, 2.55, 21.19, 16.42, 0.000, 0.000, 0.000, 14:58:01.621
63, 600.16, 10.13, 10.28, 6.19, 0.000, 0.000, 0.000, 14:58:01.641
64, -13.01, 14.89, 1.86, 5.09, 0.000, 0.000, 0.000, 14:58:01.642
65, -557.48, 0.21, 15.93, 14.64, 0.000, 0.000, 0.000, 14:58:01.642
66, -542.18, 5.44, 13.69, 12.54, 0.000, 0.000, 0.000, 14:58:01.642
67, -654.01, 12.29, 8.61, 9.02, 0.000, 0.000, 0.000, 14:58:01.643
68, -1573.60, 6.43, 13.53, 12.15, 0.000, 0.000, 0.000, 14:58:01.644
69, -880.19, 5.28, 10.75, 10.15, 0.000, 0.000, 0.000, 14:58:01.664
70, -405.92, 10.43, 6.26, 7.82, 0.000, 0.000, 0.000, 14:58:01.664
71, -1367.30, 8.88, 8.34, 13.31, 0.000, 0.000, 0.000, 14:58:01.665
72, -1240.80, -0.77, 16.16, 14.91, 0.000, 0.000, 0.000, 14:58:01.665
73, -358.77, 13.10, 6.67, 11.12, 0.000, 0.000, 0.000, 14:58:01.687
74, -1030.37, 16.39, 5.09, 11.03, 0.000, 0.000, 0.000, 14:58:01.687
75, -1483.09, 3.52, 19.96, 21.68, 0.000, 0.000, 0.000, 14:58:01.687
76, -549.27, 6.96, 9.39, 9.94, 0.000, 0.000, 0.000, 14:58:01.688
77, -636.77, 16.61, 8.40, 5.80, 0.000, 0.000, 0.000, 14:58:01.709
78, -1592.37, 11.50, 15.51, 13.42, 0.000, 0.000, 0.000, 14:58:01.710
79, -852.97, 1.29, 11.33, 13.13, 0.000, 0.000, 0.000, 14:58:01.710
80, -422.94, 12.97, 7.48, 8.05, 0.000, 0.000, 0.000, 14:58:01.710
81, -1358.06, 11.32, 9.70, 12.63, 0.000, 0.000, 0.000, 14:58:01.755
82, -1249.57, 2.33, 14.98, 17.33, 0.000, 0.000, 0.000, 14:58:01.755
83, -355.93, 9.97, 8.09, 6.63, 0.000, 0.000, 0.000, 14:58:01.776
84, -1039.25, 11.63, 5.56, 10.71, 0.000, 0.000, 0.000, 14:58:01.777
85, -1476.75, 4.39, 16.29, 20.32, 0.000, 0.000, 0.000, 14:58:01.778
86, -563.18, 4.73, 7.33, 10.93, 0.000, 0.000, 0.000, 14:58:01.778
87, -614.67, 11.55, 8.72, 4.58, 0.000, 0.000, 0.000, 14:58:01.778
88, -1585.31, 10.37, 18.94, 17.85, 0.000, 0.000, 0.000, 14:58:01.778
89, -857.47, 4.68, 11.32, 17.45, 0.000, 0.000, 0.000, 14:58:01.799
90, -422.37, 12.03, 5.28, 6.36, 0.000, 0.000, 0.000, 14:58:01.800
91, -1350.35, 11.13, 12.66, 5.10, 0.000, 0.000, 0.000, 14:58:01.800
92, -1249.97, -0.07, 17.18, 16.84, 0.000, 0.000, 0.000, 14:58:01.800
93, -373.26, 6.28, 8.59, 12.03, 0.000, 0.000, 0.000, 14:58:01.801
94, -1017.47, 9.55, 6.82, 10.01, 0.000, 0.000, 0.000, 14:58:01.801
95, -1496.07, 2.96, 20.57, 17.99, 0.000, 0.000, 0.000, 14:58:01.844
96, -568.68, 8.42, 10.12, 7.76, 0.000, 0.000, 0.000, 14:58:01.844
97, -634.41, 14.07, 6.77, 7.97, 0.000, 0.000, 0.000, 14:58:01.845
98, -1569.25, 7.76, 16.22, 14.49, 0.000, 0.000, 0.000, 14:58:01.845
99, -864.90, 4.69, 9.13, 15.84, 0.000, 0.000, 0.000, 14:58:01.846
100, -419.91, 10.62, 4.27, 4.11, 0.000, 0.000, 0.000, 14:58:01.846
101, -1377.12, 9.30, 9.12, 10.18, 0.000, 0.000, 0.000, 14:58:01.846
102, -1234.04, 4.15, 20.38, 16.51, 0.000, 0.000, 0.000, 14:58:01.847
103, -374.41, 9.50, 7.81, 10.54, 0.000, 0.000, 0.000, 14:58:01.866
104, -1012.54, 13.98, 7.63, 6.41, 0.000, 0.000, 0.000, 14:58:01.867
105, -1538.45, -0.84, 17.54, 17.38, 0.000, 0.000, 0.000, 14:58:01.867
106, -1504.73, 11.38, 11.91, 15.95, 0.000, 0.000, 0.000, 14:58:01.867
107, -1631.04, 13.43, 5.73, 4.17, 0.000, 0.000, 0.000, 14:58:01.867
108, -2555.02, 3.01, 14.11, 15.20, 0.000, 0.000, 0.000, 14:58:01.867
109, -1849.74, 4.62, 12.86, 14.08, 0.000, 0.000, 0.000, 14:58:01.868
110, -1377.49, 9.69, 4.11, 10.41, 0.000, 0.000, 0.000, 14:58:01.868
111, -1390.81, 12.82, 8.62, 13.82, 0.000, 0.000, 0.000, 14:58:01.889
112, -1232.24, 4.81, 17.53, 12.85, 0.000, 0.000, 0.000, 14:58:01.890
113, -356.40, 11.54, 7.97, 10.42, 0.000, 0.000, 0.000, 14:58:01.890
114, -1000.06, 13.31, 6.34, 7.26, 0.000, 0.000, 0.000, 14:58:01.890
115, -1525.45, 3.46, 16.43, 17.90, 0.000, 0.000, 0.000, 14:58:01.890
116, -1498.59, 7.99, 9.14, 11.07, 0.000, 0.000, 0.000, 14:58:01.890
117, -1590.06, 10.98, 2.21, 5.96, 0.000, 0.000, 0.000, 14:58:01.891
118, -2559.12, 7.09, 16.24, 13.58, 0.000, 0.000, 0.000, 14:58:01.891
119, -1861.65, 5.54, 16.86, 11.39, 0.000, 0.000, 0.000, 14:58:01.911
120, -1395.20, 15.62, 6.62, 6.77, 0.000, 0.000, 0.000, 14:58:01.912
121, -2369.37, 8.36, 10.31, 12.88, 0.000, 0.000, 0.000, 14:58:01.912
122, -2252.71, 3.69, 16.44, 17.76, 0.000, 0.000, 0.000, 14:58:01.912
123, -1354.98, 17.40, 8.25, 11.86, 0.000, 0.000, 0.000, 14:58:01.934
124, -2009.79, 9.33, 6.47, 9.67, 0.000, 0.000, 0.000, 14:58:01.934
125, -2520.94, 5.69, 16.91, 15.99, 0.000, 0.000, 0.000, 14:58:01.935
126, -2514.19, 10.84, 9.68, 14.32, 0.000, 0.000, 0.000, 14:58:01.935
127, -2587.25, 13.14, 8.92, 3.61, 0.000, 0.000, 0.000, 14:58:01.956
128, -3548.87, 5.89, 13.65, 13.41, 0.000, 0.000, 0.000, 14:58:01.957
129, -2814.57, 4.87, 11.18, 14.33, 0.000, 0.000, 0.000, 14:58:01.957
130, -2350.12, 11.88, 7.24, 10.85, 0.000, 0.000, 0.000, 14:58:01.957
131, -3324.19, 4.08, 11.32, 4.86, 0.000, 0.000, 0.000, 14:58:01.979
132, -3203.59, 5.37, 18.88, 15.05, 0.000, 0.000, 0.000, 14:58:01.979
133, -2329.43, 3.70, 8.54, 10.57, 0.000, 0.000, 0.000, 14:58:01.980
134, -2966.19, 16.15, 6.69, 9.41, 0.000, 0.000, 0.000, 14:58:01.980
135, -3471.92, -2.75, 18.59, 20.44, 0.000, 0.000, 0.000, 14:58:02.002
136, -2512.59, 6.42, 10.85, 12.73, 0.000, 0.000, 0.000, 14:58:02.002
137, -2585.09, 15.63, 2.25, 5.13, 0.000, 0.000, 0.000, 14:58:02.002
138, -3537.09, 5.08, 15.74, 12.50, 0.000, 0.000, 0.000, 14:58:02.002
139, -2840.67, 8.40, 12.06, 13.70, 0.000, 0.000, 0.000, 14:58:02.003
140, -2365.79, 16.30, 7.63, 12.05, 0.000, 0.000, 0.000, 14:58:02.003
141, -3311.13, 15.35, 11.97, 13.65, 0.000, 0.000, 0.000, 14:58:02.024
142, -3202.19, -1.62, 18.94, 20.51, 0.000, 0.000, 0.000, 14:58:02.025
143, -2340.39, 9.61, 10.09, 9.62, 0.000, 0.000, 0.000, 14:58:02.025
144, -2986.41, 11.43, 6.24, 5.02, 0.000, 0.000, 0.000, 14:58:02.026
145, -3462.90, 2.78, 18.31, 18.18, 0.000, 0.000, 0.000, 14:58:02.047
146, -2547.92, 7.96, 9.82, 10.79, 0.000, 0.000, 0.000, 14:58:02.047
147, -2580.02, 15.67, 4.15, 6.14, 0.000, 0.000, 0.000, 14:58:02.047
148, -3556.96, 6.35, 14.67, 15.01, 0.000, 0.000, 0.000, 14:58:02.047
149, -2807.68, 7.06, 11.90, 16.52, 0.000, 0.000, 0.000, 14:58:02.092
150, -2366.92, 18.20, 9.20, 8.23, 0.000, 0.000, 0.000, 14:58:02.092
151, -3343.77, 6.01, 10.77, 11.89, 0.000, 0.000, 0.000, 14:58:02.092
152, -3173.31, 2.25, 17.70, 15.91, 0.000, 0.000, 0.000, 14:58:02.093
153, -2354.72, 7.69, 9.07, 13.53, 0.000, 0.000, 0.000, 14:58:02.093
154, -2990.67, 9.90, 9.52, 8.79, 0.000, 0.000, 0.000, 14:58:02.093
155, -3447.93, 0.94, 16.46, 17.16, 0.000, 0.000, 0.000, 14:58:02.114
156, -2503.64, 3.91, 9.74, 10.41, 0.000, 0.000, 0.000, 14:58:02.114
157, -2608.83, 14.74, 2.85, 8.94, 0.000, 0.000, 0.000, 14:58:02.115
158, -3550.35, 7.67, 16.02, 13.23, 0.000, 0.000, 0.000, 14:58:02.115
159, -2794.73, 4.90, 15.59, 13.65, 0.000, 0.000, 0.000, 14:58:02.115
160, -2367.71, 10.49, 4.77, 7.89, 0.000, 0.000, 0.000, 14:58:02.116
161, -3330.68, 11.53, 6.52, 6.92, 0.000, 0.000, 0.000, 14:58:02.136
162, -3186.55, -1.16, 16.46, 13.62, 0.000, 0.000, 0.000, 14:58:02.137
163, -2314.45, 12.45, 8.16, 13.41, 0.000, 0.000, 0.000, 14:58:02.137
164, -3012.10, 12.49, 6.04, 9.72, 0.000, 0.000, 0.000, 14:58:02.137
165, -3438.84, 2.19, 18.64, 15.81, 0.000, 0.000, 0.000, 14:58:02.137
166, -2494.75, 8.03, 10.03, 9.15, 0.000, 0.000, 0.000, 14:58:02.138
167, -2607.52, 14.31, 5.20, 9.39, 0.000, 0.000, 0.000, 14:58:02.159
168, -3530.94, 7.47, 15.39, 15.84, 0.000, 0.000, 0.000, 14:58:02.159
169, -2808.39, -1.33, 13.66, 17.69, 0.000, 0.000, 0.000, 14:58:02.160
170, -2354.08, 9.88, 8.52, 10.30, 0.000, 0.000, 0.000, 14:58:02.160
171, -2383.41, 10.13, 7.69, 11.03, 0.000, 0.000, 0.000, 14:58:02.181
172, -2205.06, 4.39, 19.65, 17.90, 0.000, 0.000, 0.000, 14:58:02.182
173, -1353.26, 8.11, 9.90, 8.64, 0.000, 0.000, 0.000, 14:58:02.182
174, -1992.49, 11.10, 1.98, 7.84, 0.000, 0.000, 0.000, 14:58:02.182
175, -2516.44, -1.08, 19.39, 20.05, 0.000, 0.000, 0.000, 14:58:02.183
176, -2502.63, 5.89, 12.23, 12.18, 0.000, 0.000, 0.000, 14:58:02.183
177, -2608.43, 16.57, 6.21, 5.56, 0.000, 0.000, 0.000, 14:58:02.204
178, -3547.66, 10.08, 14.00, 9.97, 0.000, 0.000, 0.000, 14:58:02.204
179, -2828.89, 5.37, 14.88, 18.44, 0.000, 0.000, 0.000, 14:58:02.204
180, -2380.99, 9.62, 6.31, 9.32, 0.000, 0.000, 0.000, 14:58:02.205
181, -3350.84, 13.95, 12.75, 11.69, 0.000, 0.000, 0.000, 14:58:02.226
182, -3212.45, 2.76, 17.18, 15.40, 0.000, 0.000, 0.000, 14:58:02.227
183, -2323.34, 10.84, 7.78, 8.79, 0.000, 0.000, 0.000, 14:58:02.227
184, -2987.96, 13.09, 5.09, 8.39, 0.000, 0.000, 0.000, 14:58:02.227
185, -3464.75, 5.49, 17.36, 18.12, 0.000, 0.000, 0.000, 14:58:02.249
186, -2537.90, 12.73, 11.40, 7.36, 0.000, 0.000, 0.000, 14:58:02.249
187, -2581.58, 11.76, 5.07, 4.81, 0.000, 0.000, 0.000, 14:58:02.272
188, -3550.11, 5.54, 13.53, 14.92, 0.000, 0.000, 0.000, 14:58:02.272
189, -2819.58, 3.54, 13.82, 12.46, 0.000, 0.000, 0.000, 14:58:02.272
190, -2372.20, 13.34, 4.90, 8.56, 0.000, 0.000, 0.000, 14:58:02.273
191, -3338.89, 7.69, 6.15, 11.34, 0.000, 0.000, 0.000, 14:58:02.273
192, -3209.17, 1.74, 18.20, 16.99, 0.000, 0.000, 0.000, 14:58:02.273
193, -2328.56, 12.98, 10.17, 10.45, 0.000, 0.000, 0.000, 14:58:02.294
194, -2973.26, 12.56, 4.35, 6.63, 0.000, 0.000, 0.000, 14:58:02.295
195, -3489.99, 3.02, 17.43, 15.43, 0.000, 0.000, 0.000, 14:58:02.295
196, -3473.51, 7.85, 6.93, 12.57, 0.000, 0.000, 0.000, 14:58:02.295
197, -3613.91, 12.63, 7.66, 8.24, 0.000, 0.000, 0.000, 14:58:02.296
198, -4488.76, 7.56, 16.41, 14.50, 0.000, 0.000, 0.000, 14:58:02.296
199, -3797.85, 4.11, 13.27, 14.17, 0.000, 0.000, 0.000, 14:58:02.317
200, -3357.74, 8.84, 4.30, 9.11, 0.000, 0.000, 0.000, 14:58:02.317
0, -409.00, 8.92, 12.39, 15.26, 0.000, 0.000, 0.000, 14:58:02.317
1, -228.70, 0.09, 17.92, 15.62, 0.000, 0.000, 0.000, 14:58:02.318
2, 583.36, 10.36, 8.90, 12.00, 0.000, 0.000, 0.000, 14:58:02.318
3, -41.41, 14.40, 6.68, 9.61, 0.000, 0.000, 0.000, 14:58:02.339
4, -528.46, 0.88, 19.18, 17.16, 0.000, 0.000, 0.000, 14:58:02.339
5, -520.56, 8.36, 9.66, 11.50, 0.000, 0.000, 0.000, 14:58:02.339
6, -682.38, 15.60, 7.48, 5.05, 0.000, 0.000, 0.000, 14:58:02.339
7, -1573.89, 6.56, 13.89, 16.11, 0.000, 0.000, 0.000, 14:58:02.363
8, -849.45, 5.16, 13.31, 16.47, 0.000, 0.000, 0.000, 14:58:02.364
9, -428.19, 13.94, 5.14, 8.38, 0.000, 0.000, 0.000, 14:58:02.364
10, -1385.80, 10.40, 10.49, 10.32, 0.000, 0.000, 0.000, 14:58:02.364
11, -1220.80, 3.58, 18.31, 16.16, 0.000, 0.000, 0.000, 14:58:02.384
12, -383.03, 17.19, 10.10, 10.13, 0.000, 0.000, 0.000, 14:58:02.384
13, -1032.49, 8.83, 6.08, 7.15, 0.000, 0.000, 0.000, 14:58:02.385
14, -1503.99, 2.61, 15.86, 18.79, 0.000, 0.000, 0.000, 14:58:02.385
15, -542.12, 8.44, 9.75, 15.25, 0.000, 0.000, 0.000, 14:58:02.407
16, -649.73, 16.67, 3.06, 9.71, 0.000, 0.000, 0.000, 14:58:02.407
17, -1583.45, 8.45, 15.05, 15.27, 0.000, 0.000, 0.000, 14:58:02.408
18, -835.36, 6.22, 10.96, 15.05, 0.000, 0.000, 0.000, 14:58:02.408
19, -404.97, 12.66, 7.84, 11.01, 0.000, 0.000, 0.000, 14:58:02.408
20, -1379.00, 5.51, 11.21, 5.85, 0.000, 0.000, 0.000, 14:58:02.409
21, -1226.49, 1.37, 19.12, 19.42, 0.000, 0.000, 0.000, 14:58:02.429
22, -376.14, 6.14, 4.54, 11.21, 0.000, 0.000, 0.000, 14:58:02.429
23, -1039.71, 12.61, 3.72, 7.43, 0.000, 0.000, 0.000, 14:58:02.430
24, -1509.36, 3.13, 17.01, 14.31, 0.000, 0.000, 0.000, 14:58:02.430
25, -556.05, 6.30, 9.34, 11.14, 0.000, 0.000, 0.000, 14:58:02.451
26, -623.10, 16.00, 6.10, 6.53, 0.000, 0.000, 0.000, 14:58:02.451
27, -1587.12, 8.60, 12.45, 15.02, 0.000, 0.000, 0.000, 14:58:02.452
28, -837.79, 10.33, 15.55, 11.86, 0.000, 0.000, 0.000, 14:58:02.452
29, -425.88, 13.47, 10.28, 11.23, 0.000, 0.000, 0.000, 14:58:02.474
30, -1372.04, 15.72, 11.59, 6.19, 0.000, 0.000, 0.000, 14:58:02.475
31, -1275.46, -6.94, 20.93, 11.96, 0.000, 0.000, 0.000, 14:58:02.475
32, -368.43, 9.80, 6.90, 12.44, 0.000, 0.000, 0.000, 14:58:02.475
33, -1002.72, 10.40, 10.70, 10.65, 0.000, 0.000, 0.000, 14:58:02.497
34, -1497.08, 4.58, 11.78, 12.57, 0.000, 0.000, 0.000, 14:58:02.497
35, -555.83, 7.40, 5.21, 12.12, 0.000, 0.000, 0.000, 14:58:02.498
36, -629.65, 10.94, 6.44, 8.45, 0.000, 0.000, 0.000, 14:58:02.498
37, -1582.73, 7.04, 18.78, 14.45, 0.000, 0.000, 0.000, 14:58:02.498
38, -864.89, 4.74, 14.77, 13.87, 0.000, 0.000, 0.000, 14:58:02.498
39, -407.91, 13.30, 5.27, 7.08, 0.000, 0.000, 0.000, 14:58:02.519
40, -1359.11, 8.56, 10.71, 11.69, 0.000, 0.000, 0.000, 14:58:02.519
41, -1248.31, 2.05, 18.00, 19.99, 0.000, 0.000, 0.000, 14:58:02.519
42, -380.79, 9.91, 10.68, 11.41, 0.000, 0.000, 0.000, 14:58:02.520
43, -1026.09, 14.58, 5.25, 8.66, 0.000, 0.000, 0.000, 14:58:02.543
44, -1487.27, -2.34, 16.12, 19.02, 0.000, 0.000, 0.000, 14:58:02.543
45, -554.91, 4.65, 13.73, 9.72, 0.000, 0.000, 0.000, 14:58:02.543
46, -655.34, 11.53, 0.58, 5.08, 0.000, 0.000, 0.000, 14:58:02.543
47, -1557.74, 3.01, 12.75, 13.39, 0.000, 0.000, 0.000, 14:58:02.564
48, -853.47, 8.16, 10.94, 11.57, 0.000, 0.000, 0.000, 14:58:02.564
49, -408.14, 9.56, 5.46, 4.71, 0.000, 0.000, 0.000, 14:58:02.565
50, -430.53, 17.49, 8.46, 9.96, 0.000, 0.000, 0.000, 14:58:02.565
51, -240.28, 1.36, 18.23, 19.47, 0.000, 0.000, 0.000, 14:58:02.586
52, 623.41, 12.67, 7.63, 14.40, 0.000, 0.000, 0.000, 14:58:02.587
53, -34.44, 10.43, 6.44, 8.44, 0.000, 0.000, 0.000, 14:58:02.587
54, -523.12, 3.74, 18.09, 18.61, 0.000, 0.000, 0.000, 14:58:02.587
55, 437.23, 6.83, 9.95, 11.98, 0.000, 0.000, 0.000, 14:58:02.588
56, 329.72, 17.34, 4.54, 10.42, 0.000, 0.000, 0.000, 14:58:02.588
57, -586.36, 9.80, 16.34, 10.45, 0.000, 0.000, 0.000, 14:58:02.610
58, 109.60, 2.31, 15.95, 13.97, 0.000, 0.000, 0.000, 14:58:02.610
59, 589.19, 11.79, 8.14, 9.05, 0.000, 0.000, 0.000, 14:58:02.610
60, 561.31, 6.21, 10.39, 12.24, 0.000, 0.000, 0.000, 14:58:02.610
61, 733.94, 2.06, 16.44, 13.19, 0.000, 0.000, 0.000, 14:58:02.633
62, 1585.76, 10.22, 10.74, 11.19, 0.000, 0.000, 0.000, 14:58:02.633
63, 943.86, 13.84, 4.47, 10.24, 0.000, 0.000, 0.000, 14:58:02.633
64, 445.93, 0.81, 19.73, 12.35, 0.000, 0.000, 0.000, 14:58:02.633
65, 1417.15, 7.43, 9.82, 10.26, 0.000, 0.000, 0.000, 14:58:02.655
66, 1303.83, 14.96, 5.42, 9.15, 0.000, 0.000, 0.000, 14:58:02.655
67, 388.98, -0.82, 15.12, 18.95, 0.000, 0.000, 0.000, 14:58:02.656
68, 1089.95, 5.92, 15.24, 11.75, 0.000, 0.000, 0.000, 14:58:02.656
69, 1564.85, 14.90, 8.42, 12.55, 0.000, 0.000, 0.000, 14:58:02.676
70, 588.87, 12.76, 11.11, 9.46, 0.000, 0.000, 0.000, 14:58:02.677
71, 731.50, -1.05, 15.89, 17.06, 0.000, 0.000, 0.000, 14:58:02.677
72, 1581.99, 15.33, 7.91, 10.49, 0.000, 0.000, 0.000, 14:58:02.677
73, 921.56, 18.29, 9.48, 8.89, 0.000, 0.000, 0.000, 14:58:02.678
74, 474.01, 0.91, 16.66, 16.17, 0.000, 0.000, 0.000, 14:58:02.678
75, 1399.19, 12.01, 10.31, 15.75, 0.000, 0.000, 0.000, 14:58:02.699
76, 1319.14, 11.15, 7.03, 10.19, 0.000, 0.000, 0.000, 14:58:02.699
77, 372.03, 6.11, 17.93, 17.95, 0.000, 0.000, 0.000, 14:58:02.699
78, 1131.31, 2.92, 15.83, 15.27, 0.000, 0.000, 0.000, 14:58:02.699
79, 1550.66, 13.61, 8.85, 10.94, 0.000, 0.000, 0.000, 14:58:02.721
80, 607.63, 7.64, 11.20, 7.12, 0.000, 0.000, 0.000, 14:58:02.722
81, 730.29, 6.16, 19.69, 14.85, 0.000, 0.000, 0.000, 14:58:02.722
82, 1612.19, 10.54, 5.83, 10.13, 0.000, 0.000, 0.000, 14:58:02.722
83, 908.73, 13.44, 7.54, 9.97, 0.000, 0.000, 0.000, 14:58:02.744
84, 436.15, 5.13, 17.92, 17.50, 0.000, 0.000, 0.000, 14:58:02.744
85, 1385.23, 5.25, 9.34, 13.58, 0.000, 0.000, 0.000, 14:58:02.744
86, 1311.49, 14.11, 2.04, 6.18, 0.000, 0.000, 0.000, 14:58:02.745
87, 331.69, 5.46, 13.75, 11.70, 0.000, 0.000, 0.000, 14:58:02.767
88, 1114.45, 7.64, 13.68, 16.65, 0.000, 0.000, 0.000, 14:58:02.767
89, 1525.63, 9.15, 4.82, 9.02, 0.000, 0.000, 0.000, 14:58:02.768
90, 573.14, 11.12, 5.77, 10.99, 0.000, 0.000, 0.000, 14:58:02.768
91, 738.26, 0.77, 17.81, 18.32, 0.000, 0.000, 0.000, 14:58:02.769
92, 1582.92, 11.27, 7.43, 7.81, 0.000, 0.000, 0.000, 14:58:02.769
93, 933.55, 14.99, 6.07, 9.23, 0.000, 0.000, 0.000, 14:58:02.789
94, 481.32, 1.07, 16.04, 17.51, 0.000, 0.000, 0.000, 14:58:02.790
95, 1420.53, 7.66, 10.40, 11.56, 0.000, 0.000, 0.000, 14:58:02.790
96, 1300.87, 14.62, 6.41, 8.74, 0.000, 0.000, 0.000, 14:58:02.790
97, 390.14, 5.68, 13.46, 14.68, 0.000, 0.000, 0.000, 14:58:02.812
98, 1133.21, 3.84, 12.97, 10.21, 0.000, 0.000, 0.000, 14:58:02.812
99, 1542.54, 14.28, 8.54, 6.74, 0.000, 0.000, 0.000, 14:58:02.812
100, 572.86, 9.01, 7.02, 6.65, 0.000, 0.000, 0.000, 14:58:02.813
101, 766.10, 4.00, 15.22, 17.20, 0.000, 0.000, 0.000, 14:58:02.834
102, 1586.14, 12.12, 8.44, 9.41, 0.000, 0.000, 0.000, 14:58:02.835
103, 894.77, 8.39, 6.71, 8.44, 0.000, 0.000, 0.000, 14:58:02.835
104, 483.66, 1.54, 20.37, 16.04, 0.000, 0.000, 0.000, 14:58:02.835
105, 1450.02, 9.45, 13.21, 11.84, 0.000, 0.000, 0.000, 14:58:02.858
106, 1283.70, 15.16, 8.41, 10.25, 0.000, 0.000, 0.000, 14:58:02.858
107, 378.30, 8.07, 15.21, 18.97, 0.000, 0.000, 0.000, 14:58:02.859
108, 1136.00, 3.71, 16.52, 20.46, 0.000, 0.000, 0.000, 14:58:02.859
109, 1540.23, 7.31, 6.84, 9.06, 0.000, 0.000, 0.000, 14:58:02.859
110, 1536.05, 14.99, 11.65, 8.19, 0.000, 0.000, 0.000, 14:58:02.859
111, 1740.60, 0.98, 15.14, 16.47, 0.000, 0.000, 0.000, 14:58:02.880
112, 2583.33, 6.93, 3.84, 8.95, 0.000, 0.000, 0.000, 14:58:02.880
113, 1909.08, 10.76, 8.12, 8.64, 0.000, 0.000, 0.000, 14:58:02.880
114, 1431.24, 2.30, 17.91, 17.38, 0.000, 0.000, 0.000, 14:58:02.880
115, 2398.92, 8.20, 8.77, 13.03, 0.000, 0.000, 0.000, 14:58:02.904
116, 2279.74, 15.05, 6.37, 4.75, 0.000, 0.000, 0.000, 14:58:02.904
117, 1363.35, 9.27, 17.07, 13.64, 0.000, 0.000, 0.000, 14:58:02.904
118, 2096.58, 5.87, 11.66, 13.87, 0.000, 0.000, 0.000, 14:58:02.904
119, 2532.10, 12.43, 6.12, 5.96, 0.000, 0.000, 0.000, 14:58:02.924
120, 1553.65, 17.65, 10.79, 10.91, 0.000, 0.000, 0.000, 14:58:02.925
121, 1730.45, -4.08, 17.41, 18.49, 0.000, 0.000, 0.000, 14:58:02.925
122, 2591.75, 11.18, 6.69, 7.97, 0.000, 0.000, 0.000, 14:58:02.925
123, 1915.29, 6.67, 7.03, 5.53, 0.000, 0.000, 0.000, 14:58:02.947
124, 1432.89, 2.80, 18.71, 16.06, 0.000, 0.000, 0.000, 14:58:02.947
125, 1434.10, 6.79, 11.62, 10.59, 0.000, 0.000, 0.000, 14:58:02.947
126, 1325.07, 13.52, 4.84, 11.00, 0.000, 0.000, 0.000, 14:58:02.947
127, 396.58, 6.36, 18.47, 15.28, 0.000, 0.000, 0.000, 14:58:02.948
128, 1100.09, 5.67, 13.88, 15.07, 0.000, 0.000, 0.000, 14:58:02.948
129, 1565.61, 12.44, 7.88, 8.15, 0.000, 0.000, 0.000, 14:58:02.969
130, 599.09, 4.04, 10.57, 10.30, 0.000, 0.000, 0.000, 14:58:02.970
131, 740.91, 3.14, 20.70, 17.55, 0.000, 0.000, 0.000, 14:58:02.970
132, 1553.85, 10.42, 6.96, 10.43, 0.000, 0.000, 0.000, 14:58:02.970
133, 954.12, 14.31, 6.40, 2.39, 0.000, 0.000, 0.000, 14:58:02.992
134, 426.32, 2.28, 16.48, 16.17, 0.000, 0.000, 0.000, 14:58:02.992
135, 431.86, 8.02, 9.94, 10.16, 0.000, 0.000, 0.000, 14:58:02.992
136, 325.24, 15.97, 5.21, 7.87, 0.000, 0.000, 0.000, 14:58:02.992
137, -613.07, 5.80, 14.72, 16.38, 0.000, 0.000, 0.000, 14:58:03.015
138, 128.16, 8.60, 11.79, 12.66, 0.000, 0.000, 0.000, 14:58:03.015
139, 569.86, 7.50, 8.43, 7.35, 0.000, 0.000, 0.000, 14:58:03.015
140, -396.30, 11.23, 9.07, 13.85, 0.000, 0.000, 0.000, 14:58:03.016
141, -276.50, 1.88, 15.98, 13.90, 0.000, 0.000, 0.000, 14:58:03.037
142, 607.68, 11.04, 6.95, 7.83, 0.000, 0.000, 0.000, 14:58:03.037
143, -30.21, 10.80, 10.44, 9.31, 0.000, 0.000, 0.000, 14:58:03.038
144, -542.23, 3.95, 14.12, 18.55, 0.000, 0.000, 0.000, 14:58:03.039
145, 405.61, 8.86, 7.18, 9.59, 0.000, 0.000, 0.000, 14:58:03.039
146, 363.31, 10.37, 5.02, 10.02, 0.000, 0.000, 0.000, 14:58:03.039
147, -602.58, 11.65, 12.25, 16.28, 0.000, 0.000, 0.000, 14:58:03.059
148, 108.53, 1.30, 11.29, 15.37, 0.000, 0.000, 0.000, 14:58:03.060
149, 586.20, 12.67, 7.93, 8.64, 0.000, 0.000, 0.000, 14:58:03.061
150, 575.82, 7.83, 9.45, 9.76, 0.000, 0.000, 0.000, 14:58:03.061
151, 699.92, 4.64, 15.69, 12.94, 0.000, 0.000, 0.000, 14:58:03.082
152, 1581.98, 9.25, 8.42, 11.01, 0.000, 0.000, 0.000, 14:58:03.082
153, 949.43, 14.43, 1.20, 7.65, 0.000, 0.000, 0.000, 14:58:03.082
154, 427.22, 2.46, 15.67, 16.49, 0.000, 0.000, 0.000, 14:58:03.082
155, 1407.15, 10.68, 7.18, 13.18, 0.000, 0.000, 0.000, 14:58:03.104
156, 1310.86, 19.41, 7.87, 7.88, 0.000, 0.000, 0.000, 14:58:03.104
157, 377.32, 1.00, 16.05, 12.41, 0.000, 0.000, 0.000, 14:58:03.105
158, 1086.43, 3.39, 16.21, 16.21, 0.000, 0.000, 0.000, 14:58:03.105
159, 1557.20, 13.51, 8.43, 8.46, 0.000, 0.000, 0.000, 14:58:03.127
160, 606.45, 9.56, 10.92, 10.68, 0.000, 0.000, 0.000, 14:58:03.127
161, 726.45, -0.44, 17.90, 18.10, 0.000, 0.000, 0.000, 14:58:03.127
162, 1576.71, 9.73, 11.91, 7.34, 0.000, 0.000, 0.000, 14:58:03.128
163, 938.22, 10.09, 8.35, 12.20, 0.000, 0.000, 0.000, 14:58:03.128
164, 456.77, 1.49, 18.73, 18.12, 0.000, 0.000, 0.000, 14:58:03.128
165, 1403.65, 10.15, 9.69, 7.87, 0.000, 0.000, 0.000, 14:58:03.149
166, 1315.16, 13.53, 4.19, 9.86, 0.000, 0.000, 0.000, 14:58:03.150
167, 400.38, 8.60, 16.05, 14.74, 0.000, 0.000, 0.000, 14:58:03.150
168, 1100.86, 4.02, 14.58, 12.97, 0.000, 0.000, 0.000, 14:58:03.150
169, 1540.31, 11.32, 6.74, 7.76, 0.000, 0.000, 0.000, 14:58:03.172
170, 591.68, 10.56, 8.49, 14.83, 0.000, 0.000, 0.000, 14:58:03.172
171, 731.71, -1.16, 13.56, 15.11, 0.000, 0.000, 0.000, 14:58:03.172
172, 1586.26, 6.47, 5.14, 10.88, 0.000, 0.000, 0.000, 14:58:03.173
173, 931.26, 11.23, 10.29, 8.43, 0.000, 0.000, 0.000, 14:58:03.194
174, 457.51, 9.33, 17.67, 14.78, 0.000, 0.000, 0.000, 14:58:03.194
175, 1412.44, 4.48, 8.84, 11.76, 0.000, 0.000, 0.000, 14:58:03.194
176, 1280.57, 13.60, 7.28, 8.51, 0.000, 0.000, 0.000, 14:58:03.195
177, 405.48, 9.30, 15.54, 15.92, 0.000, 0.000, 0.000, 14:58:03.216
178, 1103.60, 6.08, 9.23, 12.24, 0.000, 0.000, 0.000, 14:58:03.217
179, 1571.50, 9.44, 6.99, 15.37, 0.000, 0.000, 0.000, 14:58:03.217
180, 1537.56, 11.20, 8.60, 10.59, 0.000, 0.000, 0.000, 14:58:03.217
181, 1739.99, 4.19, 16.73, 12.37, 0.000, 0.000, 0.000, 14:58:03.218
182, 2556.48, 9.64, 8.68, 10.81, 0.000, 0.000, 0.000, 14:58:03.218
183, 1896.22, 17.84, 5.50, 6.92, 0.000, 0.000, 0.000, 14:58:03.239
184, 1451.27, -0.63, 20.19, 16.07, 0.000, 0.000, 0.000, 14:58:03.239
185, 2375.61, 7.76, 12.64, 12.35, 0.000, 0.000, 0.000, 14:58:03.240
186, 2308.58, 15.21, 6.11, 6.01, 0.000, 0.000, 0.000, 14:58:03.240
187, 1360.76, 7.31, 17.23, 10.05, 0.000, 0.000, 0.000, 14:58:03.261
188, 2101.87, 0.76, 12.19, 14.14, 0.000, 0.000, 0.000, 14:58:03.262
189, 2495.24, 11.90, 5.54, 13.21, 0.000, 0.000, 0.000, 14:58:03.262
190, 1563.38, 12.05, 7.62, 8.30, 0.000, 0.000, 0.000, 14:58:03.262
191, 1734.79, 4.91, 19.14, 16.87, 0.000, 0.000, 0.000, 14:58:03.284
192, 2537.41, 16.46, 10.40, 7.30, 0.000, 0.000, 0.000, 14:58:03.284
193, 1908.55, 11.09, 6.43, 9.14, 0.000, 0.000, 0.000, 14:58:03.284
194, 1467.13, 4.02, 18.36, 17.22, 0.000, 0.000, 0.000, 14:58:03.285
195, 2378.66, 7.36, 14.31, 12.90, 0.000, 0.000, 0.000, 14:58:03.306
196, 2260.14, 14.91, 6.31, 8.51, 0.000, 0.000, 0.000, 14:58:03.307
197, 1370.16, 5.45, 18.56, 14.86, 0.000, 0.000, 0.000, 14:58:03.307
198, 2105.28, 6.73, 10.05, 12.23, 0.000, 0.000, 0.000, 14:58:03.308
199, 2501.01, 9.57, 3.53, 12.92, 0.000, 0.000, 0.000, 14:58:03.308
200, 1557.14, 10.09, 8.26, 6.71, 0.000, 0.000, 0.000, 14:58:03.308
0, -228.60, 4.32, 16.52, 17.78, 0.000, 0.000, 0.000, 14:58:03.329
1, 588.15, 7.92, 7.56, 9.16, 0.000, 0.000, 0.000, 14:58:03.329
2, -53.88, 10.94, 7.30, 9.98, 0.000, 0.000, 0.000, 14:58:03.330
3, -515.39, 0.89, 20.61, 17.24, 0.000, 0.000, 0.000, 14:58:03.352
4, 454.61, 7.65, 8.99, 13.34, 0.000, 0.000, 0.000, 14:58:03.352
5, 299.81, 11.23, 8.18, 8.96, 0.000, 0.000, 0.000, 14:58:03.352
6, -582.10, 5.43, 11.45, 12.91, 0.000, 0.000, 0.000, 14:58:03.352
7, 123.80, 3.48, 11.36, 14.85, 0.000, 0.000, 0.000, 14:58:03.352
8, 579.61, 16.16, 8.29, 5.03, 0.000, 0.000, 0.000, 14:58:03.352
9, 549.75, 11.79, 6.96, 8.85, 0.000, 0.000, 0.000, 14:58:03.374
10, 759.15, 0.27, 16.84, 17.07, 0.000, 0.000, 0.000, 14:58:03.375
11, 1569.24, 11.38, 11.14, 5.48, 0.000, 0.000, 0.000, 14:58:03.375
12, 937.11, 10.18, 6.01, 9.14, 0.000, 0.000, 0.000, 14:58:03.375
13, 438.76, 2.94, 17.35, 23.04, 0.000, 0.000, 0.000, 14:58:03.397
14, 447.14, 5.76, 11.84, 15.85, 0.000, 0.000, 0.000, 14:58:03.397
15, 318.07, 12.69, 6.26, 7.47, 0.000, 0.000, 0.000, 14:58:03.397
16, -584.11, 4.96, 11.21, 14.89, 0.000, 0.000, 0.000, 14:58:03.397
17, 155.49, 7.39, 14.34, 15.15, 0.000, 0.000, 0.000, 14:58:03.419
18, 542.10, 15.31, 8.86, 6.01, 0.000, 0.000, 0.000, 14:58:03.419
19, -408.23, 5.97, 9.42, 9.93, 0.000, 0.000, 0.000, 14:58:03.420
20, -243.77, 5.03, 17.50, 15.26, 0.000, 0.000, 0.000, 14:58:03.420
21, 614.47, 12.90, 7.12, 8.67, 0.000, 0.000, 0.000, 14:58:03.441
22, -59.16, 13.97, 7.89, 12.18, 0.000, 0.000, 0.000, 14:58:03.442
23, -500.00, 3.29, 17.18, 18.98, 0.000, 0.000, 0.000, 14:58:03.442
24, 440.95, 11.07, 10.90, 7.77, 0.000, 0.000, 0.000, 14:58:03.442
25, 338.51, 10.84, 5.27, 3.97, 0.000, 0.000, 0.000, 14:58:03.443
26, -620.57, 6.20, 13.62, 12.92, 0.000, 0.000, 0.000, 14:58:03.443
27, 140.54, 6.24, 16.86, 14.15, 0.000, 0.000, 0.000, 14:58:03.464
28, 563.84, 9.85, 8.74, 6.95, 0.000, 0.000, 0.000, 14:58:03.464
29, -396.11, 9.31, 6.29, 7.16, 0.000, 0.000, 0.000, 14:58:03.464
30, -263.39, -1.64, 18.99, 18.39, 0.000, 0.000, 0.000, 14:58:03.465
31, 622.97, 9.63, 7.99, 7.66, 0.000, 0.000, 0.000, 14:58:03.487
32, -83.46, 13.26, 9.48, 10.13, 0.000, 0.000, 0.000, 14:58:03.487
33, -490.66, 5.80, 16.62, 16.42, 0.000, 0.000, 0.000, 14:58:03.487
34, 402.10, 4.37, 9.91, 7.75, 0.000, 0.000, 0.000, 14:58:03.487
35, 348.79, 15.96, 2.60, 5.72, 0.000, 0.000, 0.000, 14:58:03.509
36, -609.39, 11.58, 11.57, 15.91, 0.000, 0.000, 0.000, 14:58:03.509
37, 140.65, 2.82, 12.15, 17.74, 0.000, 0.000, 0.000, 14:58:03.510
38, 556.57, 12.26, 4.57, 7.62, 0.000, 0.000, 0.000, 14:58:03.510
39, -390.91, 10.07, 9.62, 10.06, 0.000, 0.000, 0.000, 14:58:03.532
40, -247.66, 6.63, 17.45, 19.19, 0.000, 0.000, 0.000, 14:58:03.533
41, 596.73, 6.27, 10.82, 10.23, 0.000, 0.000, 0.000, 14:58:03.533
42, -65.05, 16.41, 9.16, 12.64, 0.000, 0.000, 0.000, 14:58:03.533
43, -514.61, 0.80, 19.13, 15.80, 0.000, 0.000, 0.000, 14:58:03.533
44, 435.03, 8.67, 12.97, 9.55, 0.000, 0.000, 0.000, 14:58:03.533
45, 320.40, 12.30, 6.41, 8.93, 0.000, 0.000, 0.000, 14:58:03.555
46, -575.34, 2.47, 11.66, 18.89, 0.000, 0.000, 0.000, 14:58:03.555
47, 145.26, 4.72, 14.93, 15.99, 0.000, 0.000, 0.000, 14:58:03.555
48, 568.72, 13.51, 5.77, 6.86, 0.000, 0.000, 0.000, 14:58:03.555
49, -393.47, 9.67, 10.02, 9.24, 0.000, 0.000, 0.000, 14:58:03.576
50, -215.61, -0.91, 16.11, 17.58, 0.000, 0.000, 0.000, 14:58:03.577
51, 620.40, 8.48, 9.90, 11.94, 0.000, 0.000, 0.000, 14:58:03.577
52, -31.59, 11.49, 9.41, 8.10, 0.000, 0.000, 0.000, 14:58:03.577
53, -523.50, 2.08, 16.13, 22.01, 0.000, 0.000, 0.000, 14:58:03.599
54, 439.66, 15.75, 7.69, 9.49, 0.000, 0.000, 0.000, 14:58:03.599
55, 305.42, 8.49, 3.80, 7.15, 0.000, 0.000, 0.000, 14:58:03.599
56, -591.38, 8.02, 14.70, 14.84, 0.000, 0.000, 0.000, 14:58:03.600
57, 108.51, 5.17, 12.58, 12.10, 0.000, 0.000, 0.000, 14:58:03.622
58, 556.78, 14.27, 3.64, 6.54, 0.000, 0.000, 0.000, 14:58:03.622
59, 518.05, 11.21, 7.03, 9.27, 0.000, 0.000, 0.000, 14:58:03.624
60, 728.44, 3.15, 16.24, 14.91, 0.000, 0.000, 0.000, 14:58:03.624
61, 1582.39, 10.39, 12.41, 11.93, 0.000, 0.000, 0.000, 14:58:03.624
62, 946.39, 12.56, 4.36, 5.31, 0.000, 0.000, 0.000, 14:58:03.625
63, 436.09, 6.05, 16.83, 17.58, 0.000, 0.000, 0.000, 14:58:03.644
64, 457.55, 5.52, 10.26, 13.54, 0.000, 0.000, 0.000, 14:58:03.644
65, 306.45, 14.41, 8.73, 5.63, 0.000, 0.000, 0.000, 14:58:03.644
66, -571.14, 5.00, 14.71, 13.90, 0.000, 0.000, 0.000, 14:58:03.645
67, 118.52, 6.97, 13.70, 17.89, 0.000, 0.000, 0.000, 14:58:03.666
68, 563.21, 12.45, 9.48, 5.63, 0.000, 0.000, 0.000, 14:58:03.667
69, -406.73, 11.37, 8.08, 8.38, 0.000, 0.000, 0.000, 14:58:03.667
70, -219.01, 1.12, 15.36, 14.87, 0.000, 0.000, 0.000, 14:58:03.667
71, 566.82, 11.50, 8.00, 10.20, 0.000, 0.000, 0.000, 14:58:03.689
72, -22.94, 21.29, 7.43, 10.31, 0.000, 0.000, 0.000, 14:58:03.689
73, -551.99, -2.13, 18.13, 22.16, 0.000, 0.000, 0.000, 14:58:03.689
74, -533.02, 10.07, 10.26, 8.70, 0.000, 0.000, 0.000, 14:58:03.690
75, -622.95, 14.32, 10.56, 8.10, 0.000, 0.000, 0.000, 14:58:03.711
76, -1599.49, 3.81, 15.17, 13.02, 0.000, 0.000, 0.000, 14:58:03.712
77, -841.05, 5.18, 15.41, 13.26, 0.000, 0.000, 0.000, 14:58:03.712
78, -384.40, 15.56, 8.83, 8.32, 0.000, 0.000, 0.000, 14:58:03.712
79, -403.84, 6.88, 7.04, 12.36, 0.000, 0.000, 0.000, 14:58:03.713
80, -262.44, 2.13, 15.60, 17.76, 0.000, 0.000, 0.000, 14:58:03.713
81, 611.31, 12.42, 11.96, 6.40, 0.000, 0.000, 0.000, 14:58:03.734
82, -40.48, 9.20, 8.21, 10.75, 0.000, 0.000, 0.000, 14:58:03.734
83, -530.64, 2.07, 16.49, 16.16, 0.000, 0.000, 0.000, 14:58:03.734
84, 433.82, 9.84, 12.29, 12.70, 0.000, 0.000, 0.000, 14:58:03.734
85, 347.58, 12.27, 5.32, 5.60, 0.000, 0.000, 0.000, 14:58:03.756
86, -600.15, 3.65, 11.81, 17.06, 0.000, 0.000, 0.000, 14:58:03.757
87, 129.95, 3.28, 10.31, 14.50, 0.000, 0.000, 0.000, 14:58:03.757
88, 580.99, 12.34, 7.01, 11.84, 0.000, 0.000, 0.000, 14:58:03.757
89, -376.08, 10.66, 12.67, 9.57, 0.000, 0.000, 0.000, 14:58:03.779
90, -268.19, 5.35, 14.79, 17.68, 0.000, 0.000, 0.000, 14:58:03.779
91, 620.59, 3.65, 5.98, 11.53, 0.000, 0.000, 0.000, 14:58:03.780
92, -50.21, 14.56, 8.41, 13.43, 0.000, 0.000, 0.000, 14:58:03.780
93, -514.63, 4.61, 15.97, 15.75, 0.000, 0.000, 0.000, 14:58:03.802
94, 431.47, 6.67, 10.89, 8.81, 0.000, 0.000, 0.000, 14:58:03.802
95, 349.64, 14.30, 7.36, 8.15, 0.000, 0.000, 0.000, 14:58:03.802
96, -572.85, 3.38, 15.77, 13.84, 0.000, 0.000, 0.000, 14:58:03.802
97, 137.86, 2.40, 12.64, 12.83, 0.000, 0.000, 0.000, 14:58:03.802
98, 564.08, 14.08, 6.79, 9.16, 0.000, 0.000, 0.000, 14:58:03.802
99, -394.73, 14.14, 9.47, 10.29, 0.000, 0.000, 0.000, 14:58:03.848
100, -229.79, 2.03, 20.37, 15.62, 0.000, 0.000, 0.000, 14:58:03.848
101, 605.56, 14.79, 8.70, 12.62, 0.000, 0.000, 0.000, 14:58:03.848
102, -53.46, 13.76, 7.03, 5.28, 0.000, 0.000, 0.000, 14:58:03.849
103, -497.03, 1.71, 19.19, 17.57, 0.000, 0.000, 0.000, 14:58:03.849
104, 431.69, 10.46, 10.49, 11.95, 0.000, 0.000, 0.000, 14:58:03.849
105, 316.11, 14.77, 7.81, 8.71, 0.000, 0.000, 0.000, 14:58:03.849
106, -583.62, 2.35, 14.81, 16.23, 0.000, 0.000, 0.000, 14:58:03.849
107, 130.02, 5.02, 9.23, 14.19, 0.000, 0.000, 0.000, 14:58:03.869
108, 555.19, 8.47, 4.74, 8.75, 0.000, 0.000, 0.000, 14:58:03.869
109, -399.13, 14.33, 9.96, 13.28, 0.000, 0.000, 0.000, 14:58:03.870
110, -226.12, 2.61, 17.56, 15.82, 0.000, 0.000, 0.000, 14:58:03.870
111, 591.61, 11.38, 4.49, 6.40, 0.000, 0.000, 0.000, 14:58:03.892
112, -71.31, 13.26, 7.48, 9.07, 0.000, 0.000, 0.000, 14:58:03.892
113, -509.98, 2.47, 15.98, 16.77, 0.000, 0.000, 0.000, 14:58:03.892
114, 443.20, 12.00, 8.45, 9.56, 0.000, 0.000, 0.000, 14:58:03.893
115, 287.87, 12.79, 6.05, 8.79, 0.000, 0.000, 0.000, 14:58:03.893
116, -590.42, 6.72, 15.23, 16.58, 0.000, 0.000, 0.000, 14:58:03.893
117, 121.79, 7.87, 11.47, 10.49, 0.000, 0.000, 0.000, 14:58:03.915
118, 571.13, 7.01, 3.50, 4.39, 0.000, 0.000, 0.000, 14:58:03.915
119, 553.82, 9.74, 8.26, 5.34, 0.000, 0.000, 0.000, 14:58:03.915
120, 734.77, 1.15, 15.28, 19.40, 0.000, 0.000, 0.000, 14:58:03.915
121, 1599.49, 11.96, 7.43, 5.49, 0.000, 0.000, 0.000, 14:58:03.937
122, 892.28, 7.34, 6.53, 5.80, 0.000, 0.000, 0.000, 14:58:03.937
123, 449.91, 0.90, 18.92, 16.95, 0.000, 0.000, 0.000, 14:58:03.937
124, 455.80, 8.06, 8.36, 8.19, 0.000, 0.000, 0.000, 14:58:03.937
125, 308.57, 12.80, 7.60, 8.16, 0.000, 0.000, 0.000, 14:58:03.959
126, -596.29, 14.07, 13.77, 17.09, 0.000, 0.000, 0.000, 14:58:03.959
127, 116.79, -2.85, 12.25, 16.07, 0.000, 0.000, 0.000, 14:58:03.959
128, 589.04, 15.93, 7.09, 6.89, 0.000, 0.000, 0.000, 14:58:03.959
129, 537.19, 10.98, 10.09, 11.73, 0.000, 0.000, 0.000, 14:58:03.981
130, 729.26, 4.05, 16.84, 17.14, 0.000, 0.000, 0.000, 14:58:03.981
131, 1622.07, 9.15, 7.50, 12.70, 0.000, 0.000, 0.000, 14:58:03.982
132, 928.98, 15.48, 10.94, 10.78, 0.000, 0.000, 0.000, 14:58:03.982
133, 423.35, 2.74, 20.66, 20.90, 0.000, 0.000, 0.000, 14:58:03.982
134, 450.53, 9.18, 10.02, 10.40, 0.000, 0.000, 0.000, 14:58:03.982
135, 339.11, 13.59, 6.13, 5.52, 0.000, 0.000, 0.000, 14:58:04.004
136, -627.92, -0.14, 16.74, 16.77, 0.000, 0.000, 0.000, 14:58:04.004
137, 156.76, 5.16, 9.50, 12.75, 0.000, 0.000, 0.000, 14:58:04.004
138, 571.29, 16.40, 5.77, 7.55, 0.000, 0.000, 0.000, 14:58:04.005
139, -397.87, 10.23, 11.25, 11.81, 0.000, 0.000, 0.000, 14:58:04.027
140, -272.01, 1.16, 18.62, 14.89, 0.000, 0.000, 0.000, 14:58:04.027
141, 633.50, 9.50, 10.25, 10.13, 0.000, 0.000, 0.000, 14:58:04.027
142, -81.28, 16.36, 4.11, 8.44, 0.000, 0.000, 0.000, 14:58:04.027
143, -508.76, -0.20, 17.45, 16.03, 0.000, 0.000, 0.000, 14:58:04.049
144, 423.38, 11.23, 11.45, 9.96, 0.000, 0.000, 0.000, 14:58:04.049
145, 328.74, 7.43, 7.20, 12.75, 0.000, 0.000, 0.000, 14:58:04.049
146, -597.91, 2.48, 15.59, 19.08, 0.000, 0.000, 0.000, 14:58:04.049
147, 130.78, 5.90, 14.42, 12.30, 0.000, 0.000, 0.000, 14:58:04.071
148, 558.68, 14.63, 7.82, 9.30, 0.000, 0.000, 0.000, 14:58:04.072
149, 553.32, 10.69, 11.70, 10.16, 0.000, 0.000, 0.000, 14:58:04.072
150, 747.84, 0.08, 18.80, 16.41, 0.000, 0.000, 0.000, 14:58:04.072
151, 1584.34, 6.08, 7.57, 9.55, 0.000, 0.000, 0.000, 14:58:04.094
152, 927.13, 11.28, 10.11, 10.52, 0.000, 0.000, 0.000, 14:58:04.094
153, 455.83, 5.23, 17.86, 18.74, 0.000, 0.000, 0.000, 14:58:04.094
154, 464.95, 7.03, 8.33, 7.16, 0.000, 0.000, 0.000, 14:58:04.094
155, 305.02, 11.97, 1.92, 8.96, 0.000, 0.000, 0.000, 14:58:04.095
156, -589.24, 1.78, 14.37, 16.88, 0.000, 0.000, 0.000, 14:58:04.095
157, 155.15, 3.02, 13.52, 17.19, 0.000, 0.000, 0.000, 14:58:04.117
158, 555.25, 13.65, 2.87, 8.00, 0.000, 0.000, 0.000, 14:58:04.117
159, -401.01, 11.06, 11.19, 9.63, 0.000, 0.000, 0.000, 14:58:04.117
160, -259.77, -0.23, 16.10, 16.51, 0.000, 0.000, 0.000, 14:58:04.117
161, 621.61, 9.98, 7.99, 10.21, 0.000, 0.000, 0.000, 14:58:04.139
162, -85.66, 18.82, 8.66, 9.44, 0.000, 0.000, 0.000, 14:58:04.139
163, -486.07, -0.53, 19.10, 17.38, 0.000, 0.000, 0.000, 14:58:04.139
164, 413.63, 5.23, 10.82, 15.77, 0.000, 0.000, 0.000, 14:58:04.139
165, 317.74, 15.07, 5.73, 6.58, 0.000, 0.000, 0.000, 14:58:04.162
166, -580.28, 9.23, 15.07, 10.18, 0.000, 0.000, 0.000, 14:58:04.162
167, 136.58, 2.58, 15.05, 15.59, 0.000, 0.000, 0.000, 14:58:04.162
168, 576.83, 19.02, 7.97, 10.31, 0.000, 0.000, 0.000, 14:58:04.162
169, 562.66, 11.61, 10.42, 10.02, 0.000, 0.000, 0.000, 14:58:04.163
170, 763.79, -0.04, 19.10, 20.73, 0.000, 0.000, 0.000, 14:58:04.163
171, 1557.08, 11.01, 8.69, 6.98, 0.000, 0.000, 0.000, 14:58:04.184
172, 935.34, 10.00, 4.41, 5.67, 0.000, 0.000, 0.000, 14:58:04.184
173, 482.64, 3.91, 16.71, 15.72, 0.000, 0.000, 0.000, 14:58:04.184
174, 1424.29, 6.46, 9.33, 12.58, 0.000, 0.000, 0.000, 14:58:04.184
175, 1264.05, 12.63, 8.72, 10.31, 0.000, 0.000, 0.000, 14:58:04.206
176, 424.93, 3.56, 10.44, 16.30, 0.000, 0.000, 0.000, 14:58:04.207
177, 1079.47, 4.01, 12.17, 13.25, 0.000, 0.000, 0.000, 14:58:04.207
178, 1543.23, 14.71, 8.10, 3.76, 0.000, 0.000, 0.000, 14:58:04.207
179, 582.39, 11.20, 9.96, 6.31, 0.000, 0.000, 0.000, 14:58:04.229
180, 750.78, 6.10, 17.58, 17.35, 0.000, 0.000, 0.000, 14:58:04.229
181, 1577.93, 8.51, 8.53, 12.55, 0.000, 0.000, 0.000, 14:58:04.230
182, 928.85, 14.60, 7.07, 10.78, 0.000, 0.000, 0.000, 14:58:04.230
183, 470.51, 2.08, 17.41, 20.12, 0.000, 0.000, 0.000, 14:58:04.252
184, 1412.98, 11.05, 10.50, 12.80, 0.000, 0.000, 0.000, 14:58:04.252
185, 1291.16, 11.53, 4.95, 5.80, 0.000, 0.000, 0.000, 14:58:04.274
186, 387.51, 7.49, 15.43, 15.59, 0.000, 0.000, 0.000, 14:58:04.274
187, 1117.11, 6.29, 11.62, 12.20, 0.000, 0.000, 0.000, 14:58:04.275
188, 1524.52, 13.09, 7.94, 7.23, 0.000, 0.000, 0.000, 14:58:04.275
189, 570.20, 11.37, 6.82, 11.82, 0.000, 0.000, 0.000, 14:58:04.275
190, 750.68, 5.14, 18.21, 18.76, 0.000, 0.000, 0.000, 14:58:04.275
191, 1593.23, 11.08, 10.16, 11.71, 0.000, 0.000, 0.000, 14:58:04.276
192, 898.99, 14.41, 9.93, 2.47, 0.000, 0.000, 0.000, 14:58:04.276
193, 470.74, 6.98, 16.11, 17.35, 0.000, 0.000, 0.000, 14:58:04.297
194, 1418.14, 7.41, 10.60, 10.21, 0.000, 0.000, 0.000, 14:58:04.297
195, 1289.90, 15.60, 7.70, 4.99, 0.000, 0.000, 0.000, 14:58:04.297
196, 372.84, 5.96, 19.62, 15.94, 0.000, 0.000, 0.000, 14:58:04.297
197, 1149.44, 5.62, 15.00, 14.23, 0.000, 0.000, 0.000, 14:58:04.320
198, 1528.60, 18.06, 8.96, 10.90, 0.000, 0.000, 0.000, 14:58:04.320
199, 562.37, 4.26, 6.98, 12.73, 0.000, 0.000, 0.000, 14:58:04.320
200, 739.18, 0.62, 14.80, 12.79, 0.000, 0.000, 0.000, 14:58:04.320
0, 632.16, 8.67, 9.12, 8.35, 0.000, 0.000, 0.000, 14:58:04.321
1, -90.97, 15.45, 4.17, 3.94, 0.000, 0.000, 0.000, 14:58:04.342
2, -504.26, -0.77, 15.41, 18.07, 0.000, 0.000, 0.000, 14:58:04.342
3, 455.47, 7.67, 10.71, 8.56, 0.000, 0.000, 0.000, 14:58:04.342
4, 316.72, 17.00, 7.15, 10.25, 0.000, 0.000, 0.000, 14:58:04.342
5, -597.26, 5.62, 12.72, 13.65, 0.000, 0.000, 0.000, 14:58:04.364
6, 156.74, 9.45, 8.31, 15.19, 0.000, 0.000, 0.000, 14:58:04.364
7, 567.22, 4.01, 7.25, 8.40, 0.000, 0.000, 0.000, 14:58:04.365
8, -408.54, 10.87, 12.90, 11.82, 0.000, 0.000, 0.000, 14:58:04.365
9, -251.83, -0.70, 18.82, 17.79, 0.000, 0.000, 0.000, 14:58:04.397
10, 602.14, 6.32, 7.33, 7.19, 0.000, 0.000, 0.000, 14:58:04.398
11, -54.50, 9.44, 9.95, 8.73, 0.000, 0.000, 0.000, 14:58:04.398
12, -516.48, 4.04, 15.98, 18.03, 0.000, 0.000, 0.000, 14:58:04.398
13, 445.83, 13.71, 7.15, 13.22, 0.000, 0.000, 0.000, 14:58:04.398
14, 306.68, 15.23, -0.34, 8.93, 0.000, 0.000, 0.000, 14:58:04.398
15, -587.95, 8.33, 18.57, 13.73, 0.000, 0.000, 0.000, 14:58:04.427
16, 134.75, 3.51, 13.90, 13.13, 0.000, 0.000, 0.000, 14:58:04.427
17, 581.00, 12.55, 6.86, 9.48, 0.000, 0.000, 0.000, 14:58:04.427
18, 558.14, 15.42, 9.86, 7.28, 0.000, 0.000, 0.000, 14:58:04.427
19, 769.62, 2.08, 16.30, 18.18, 0.000, 0.000, 0.000, 14:58:04.443
20, 1550.95, 7.48, 7.54, 9.58, 0.000, 0.000, 0.000, 14:58:04.443
21, 914.47, 13.21, 5.08, 8.35, 0.000, 0.000, 0.000, 14:58:04.443
22, 429.87, -0.99, 21.45, 18.98, 0.000, 0.000, 0.000, 14:58:04.443
23, 466.02, 9.48, 10.10, 11.43, 0.000, 0.000, 0.000, 14:58:04.460
24, 296.41, 18.69, 4.82, 7.85, 0.000, 0.000, 0.000, 14:58:04.460
25, -595.14, -3.27, 16.04, 18.82, 0.000, 0.000, 0.000, 14:58:04.460
26, 139.45, 2.48, 13.50, 17.60, 0.000, 0.000, 0.000, 14:58:04.460
27, 589.63, 11.10, 7.14, 7.59, 0.000, 0.000, 0.000, 14:58:04.476
28, 551.27, 11.44, 7.69, 8.97, 0.000, 0.000, 0.000, 14:58:04.477
29, 760.96, 0.35, 17.61, 16.48, 0.000, 0.000, 0.000, 14:58:04.477
30, 1591.23, 7.87, 3.09, 10.61, 0.000, 0.000, 0.000, 14:58:04.477
31, 949.83, 8.73, 3.88, 10.31, 0.000, 0.000, 0.000, 14:58:04.478
32, 467.83, 4.21, 16.88, 18.82, 0.000, 0.000, 0.000, 14:58:04.478
33, 468.54, 10.92, 10.92, 9.24, 0.000, 0.000, 0.000, 14:58:04.499
34, 330.14, 11.41, 9.08, 8.42, 0.000, 0.000, 0.000, 14:58:04.499
35, -566.71, 7.58, 13.79, 16.34, 0.000, 0.000, 0.000, 14:58:04.499
36, 132.30, 6.39, 10.41, 15.91, 0.000, 0.000, 0.000, 14:58:04.500
37, 531.62, 9.23, 8.06, 6.54, 0.000, 0.000, 0.000, 14:58:04.521
38, -432.47, 7.58, 8.41, 11.39, 0.000, 0.000, 0.000, 14:58:04.522
39, -241.80, 4.30, 20.66, 16.22, 0.000, 0.000, 0.000, 14:58:04.522
40, 596.52, 10.20, 5.74, 8.53, 0.000, 0.000, 0.000, 14:58:04.523
41, -86.07, 13.35, 5.75, 8.02, 0.000, 0.000, 0.000, 14:58:04.544
42, -512.67, 7.78, 20.09, 14.29, 0.000, 0.000, 0.000, 14:58:04.544
43, 422.27, 5.19, 11.45, 14.68, 0.000, 0.000, 0.000, 14:58:04.544
44, 319.62, 14.05, 7.13, 9.39, 0.000, 0.000, 0.000, 14:58:04.545
45, -611.73, 5.81, 17.52, 14.26, 0.000, 0.000, 0.000, 14:58:04.566
46, 169.55, 3.55, 9.60, 12.13, 0.000, 0.000, 0.000, 14:58:04.566
47, 537.00, 10.48, 5.84, 7.59, 0.000, 0.000, 0.000, 14:58:04.567
48, -405.31, 11.23, 8.79, 6.48, 0.000, 0.000, 0.000, 14:58:04.567
49, -258.64, 0.74, 14.04, 13.06, 0.000, 0.000, 0.000, 14:58:04.568
50, 628.36, 13.76, 12.66, 12.02, 0.000, 0.000, 0.000, 14:58:04.568
51, -81.64, 16.80, 6.71, 9.33, 0.000, 0.000, 0.000, 14:58:04.589
52, -514.08, -0.19, 17.31, 21.24, 0.000, 0.000, 0.000, 14:58:04.589
53, 448.14, 5.78, 10.26, 10.63, 0.000, 0.000, 0.000, 14:58:04.590
54, 323.00, 15.34, 6.20, 7.71, 0.000, 0.000, 0.000, 14:58:04.590
55, -582.21, 7.87, 14.00, 15.19, 0.000, 0.000, 0.000, 14:58:04.611
56, 123.85, 2.67, 11.46, 11.14, 0.000, 0.000, 0.000, 14:58:04.612
57, 589.44, 13.55, 7.46, 9.06, 0.000, 0.000, 0.000, 14:58:04.612
58, 575.99, 13.31, 10.06, 8.53, 0.000, 0.000, 0.000, 14:58:04.612
59, 721.11, 3.72, 18.64, 19.85, 0.000, 0.000, 0.000, 14:58:04.634
60, 1598.06, 16.61, 10.78, 11.55, 0.000, 0.000, 0.000, 14:58:04.634
61, 915.43, 9.88, 6.76, 7.15, 0.000, 0.000, 0.000, 14:58:04.634
62, 461.78, -1.71, 15.11, 14.03, 0.000, 0.000, 0.000, 14:58:04.635
63, 1422.60, 8.47, 10.13, 11.57, 0.000, 0.000, 0.000, 14:58:04.656
64, 1329.18, 12.78, 7.75, 9.88, 0.000, 0.000, 0.000, 14:58:04.656
65, 381.94, 5.99, 13.61, 19.08, 0.000, 0.000, 0.000, 14:58:04.679
66, 1091.59, 5.66, 16.61, 12.88, 0.000, 0.000, 0.000, 14:58:04.679
67, 1561.16, 13.34, 10.31, 6.48, 0.000, 0.000, 0.000, 14:58:04.679
68, 1549.08, 11.75, 11.31, 12.18, 0.000, 0.000, 0.000, 14:58:04.680
69, 1724.70, 11.14, 13.10, 15.30, 0.000, 0.000, 0.000, 14:58:04.681
70, 2564.89, 3.30, 8.66, 9.27, 0.000, 0.000, 0.000, 14:58:04.681
71, 1912.71, 11.87, 3.76, 5.25, 0.000, 0.000, 0.000, 14:58:04.702
72, 1436.92, 0.34, 17.86, 16.63, 0.000, 0.000, 0.000, 14:58:04.702
73, 2409.12, 8.16, 11.55, 11.63, 0.000, 0.000, 0.000, 14:58:04.702
74, 2300.72, 9.70, 5.10, 10.97, 0.000, 0.000, 0.000, 14:58:04.702
75, 1391.41, 7.86, 18.43, 20.26, 0.000, 0.000, 0.000, 14:58:04.703
76, 2062.91, 5.95, 13.66, 13.73, 0.000, 0.000, 0.000, 14:58:04.703
77, 2552.25, 7.42, 4.43, 7.89, 0.000, 0.000, 0.000, 14:58:04.724
78, 2540.31, 10.84, 9.93, 9.24, 0.000, 0.000, 0.000, 14:58:04.724
79, 2698.49, 0.03, 15.81, 16.55, 0.000, 0.000, 0.000, 14:58:04.724
80, 3547.63, 12.06, 6.91, 11.92, 0.000, 0.000, 0.000, 14:58:04.724
81, 2907.75, 13.81, 6.83, 5.80, 0.000, 0.000, 0.000, 14:58:04.746
82, 2421.59, 2.24, 18.95, 17.04, 0.000, 0.000, 0.000, 14:58:04.747
83, 3388.00, 5.68, 9.44, 9.35, 0.000, 0.000, 0.000, 14:58:04.747
84, 3260.78, 12.84, 7.45, 5.30, 0.000, 0.000, 0.000, 14:58:04.747
85, 2373.54, 5.74, 15.11, 16.20, 0.000, 0.000, 0.000, 14:58:04.748
86, 3092.79, 8.30, 12.03, 15.82, 0.000, 0.000, 0.000, 14:58:04.748
87, 3500.99, 11.15, 6.45, 4.87, 0.000, 0.000, 0.000, 14:58:04.769
88, 2546.01, 8.02, 11.11, 10.33, 0.000, 0.000, 0.000, 14:58:04.769
89, 2717.23, 3.16, 15.85, 17.24, 0.000, 0.000, 0.000, 14:58:04.769
90, 3525.35, 11.98, 5.95, 9.64, 0.000, 0.000, 0.000, 14:58:04.770
91, 2876.92, 15.45, 7.72, 8.24, 0.000, 0.000, 0.000, 14:58:04.791
92, 2446.24, 1.80, 18.50, 16.09, 0.000, 0.000, 0.000, 14:58:04.792
93, 3365.90, 5.81, 7.62, 12.25, 0.000, 0.000, 0.000, 14:58:04.792
94, 3245.37, 13.33, 7.23, 6.31, 0.000, 0.000, 0.000, 14:58:04.792
95, 2354.39, 6.89, 15.72, 14.77, 0.000, 0.000, 0.000, 14:58:04.814
96, 3093.61, 10.40, 13.35, 12.26, 0.000, 0.000, 0.000, 14:58:04.814
97, 3451.89, 7.83, 4.36, 11.07, 0.000, 0.000, 0.000, 14:58:04.814
98, 2531.20, 13.85, 14.42, 10.75, 0.000, 0.000, 0.000, 14:58:04.814
99, 2697.59, 2.89, 17.59, 16.09, 0.000, 0.000, 0.000, 14:58:04.836
100, 3546.94, 10.13, 8.42, 8.42, 0.000, 0.000, 0.000, 14:58:04.837
101, 2848.46, 14.21, 5.81, 7.54, 0.000, 0.000, 0.000, 14:58:04.837
102, 2417.14, 0.25, 15.36, 19.93, 0.000, 0.000, 0.000, 14:58:04.837
103, 2437.18, 9.08, 10.82, 10.53, 0.000, 0.000, 0.000, 14:58:04.859
104, 2235.02, 10.43, 6.00, 8.96, 0.000, 0.000, 0.000, 14:58:04.859
105, 1355.86, 12.46, 15.95, 11.58, 0.000, 0.000, 0.000, 14:58:04.860
106, 2107.36, -3.18, 14.51, 15.29, 0.000, 0.000, 0.000, 14:58:04.860
107, 2512.32, 14.20, 4.64, 11.66, 0.000, 0.000, 0.000, 14:58:04.860
108, 1536.42, 8.85, 11.02, 9.89, 0.000, 0.000, 0.000, 14:58:04.860
109, 1726.60, 1.79, 16.94, 16.15, 0.000, 0.000, 0.000, 14:58:04.881
110, 2578.39, 10.40, 11.46, 11.92, 0.000, 0.000, 0.000, 14:58:04.881
111, 1872.76, 11.06, 10.15, 9.29, 0.000, 0.000, 0.000, 14:58:04.882
112, 1438.11, 1.10, 16.60, 16.80, 0.000, 0.000, 0.000, 14:58:04.882
113, 1439.32, 10.28, 8.32, 11.01, 0.000, 0.000, 0.000, 14:58:04.904
114, 1302.85, 19.35, 3.42, 8.95, 0.000, 0.000, 0.000, 14:58:04.904
115, 348.52, -0.09, 14.40, 17.49, 0.000, 0.000, 0.000, 14:58:04.926
116, 1134.96, 5.79, 11.40, 13.62, 0.000, 0.000, 0.000, 14:58:04.927
117, 1545.44, 11.90, 4.66, 5.97, 0.000, 0.000, 0.000, 14:58:04.927
118, 1519.12, 15.57, 8.23, 10.30, 0.000, 0.000, 0.000, 14:58:04.927
119, 1731.52, 3.53, 18.34, 17.57, 0.000, 0.000, 0.000, 14:58:04.928
120, 2585.28, 11.68, 9.01, 11.11, 0.000, 0.000, 0.000, 14:58:04.928
121, 1888.82, 8.13, 6.09, 7.89, 0.000, 0.000, 0.000, 14:58:04.928
122, 1420.13, 0.77, 16.45, 17.28, 0.000, 0.000, 0.000, 14:58:04.928
123, 1437.59, 7.84, 13.29, 9.21, 0.000, 0.000, 0.000, 14:58:04.949
124, 1291.01, 12.99, 6.86, 5.47, 0.000, 0.000, 0.000, 14:58:04.949
125, 389.99, 5.35, 16.56, 14.39, 0.000, 0.000, 0.000, 14:58:04.949
126, 1105.00, 4.69, 13.30, 15.05, 0.000, 0.000, 0.000, 14:58:04.949
127, 1552.73, 14.31, 6.30, 12.32, 0.000, 0.000, 0.000, 14:58:04.971
128, 572.54, 11.54, 7.30, 12.03, 0.000, 0.000, 0.000, 14:58:04.972
129, 752.72, 3.05, 16.25, 19.58, 0.000, 0.000, 0.000, 14:58:04.972
130, 1594.99, 11.74, 9.35, 9.82, 0.000, 0.000, 0.000, 14:58:04.972
131, 901.28, 9.98, 9.25, 8.56, 0.000, 0.000, 0.000, 14:58:04.994
132, 476.57, 6.78, 17.71, 16.65, 0.000, 0.000, 0.000, 14:58:04.994
133, 1406.79, 1.85, 12.46, 11.83, 0.000, 0.000, 0.000, 14:58:04.994
134, 1321.12, 13.84, 9.26, 5.47, 0.000, 0.000, 0.000, 14:58:04.994
135, 365.02, 4.08, 17.34, 11.66, 0.000, 0.000, 0.000, 14:58:05.017
136, 1137.27, 4.80, 14.14, 10.23, 0.000, 0.000, 0.000, 14:58:05.017
137, 1527.80, 12.71, 4.82, 11.06, 0.000, 0.000, 0.000, 14:58:05.017
138, 572.95, 13.90, 7.92, 10.53, 0.000, 0.000, 0.000, 14:58:05.017
139, 748.28, 4.43, 12.60, 18.39, 0.000, 0.000, 0.000, 14:58:05.018
140, 1583.32, 9.31, 9.45, 8.95, 0.000, 0.000, 0.000, 14:58:05.018
141, 908.71, 15.45, 8.35, 7.23, 0.000, 0.000, 0.000, 14:58:05.039
142, 494.19, 2.25, 20.04, 19.04, 0.000, 0.000, 0.000, 14:58:05.039
143, 1406.61, 8.44, 8.75, 12.27, 0.000, 0.000, 0.000, 14:58:05.039
144, 1297.01, 14.47, 5.75, 6.64, 0.000, 0.000, 0.000, 14:58:05.040
145, 371.62, 6.33, 14.80, 16.85, 0.000, 0.000, 0.000, 14:58:05.061
146, 1112.37, 2.12, 14.39, 14.73, 0.000, 0.000, 0.000, 14:58:05.062
147, 1539.20, 14.59, 6.61, 8.50, 0.000, 0.000, 0.000, 14:58:05.062
148, 562.06, 14.09, 8.10, 7.17, 0.000, 0.000, 0.000, 14:58:05.062
149, 780.02, 1.13, 18.00, 15.91, 0.000, 0.000, 0.000, 14:58:05.084
150, 1551.66, 16.31, 12.17, 6.43, 0.000, 0.000, 0.000, 14:58:05.085
151, 929.99, 7.39, 9.90, 10.26, 0.000, 0.000, 0.000, 14:58:05.085
152, 460.57, 1.89, 16.83, 17.22, 0.000, 0.000, 0.000, 14:58:05.085
153, 1420.01, 6.30, 11.14, 11.29, 0.000, 0.000, 0.000, 14:58:05.106
154, 1294.73, 11.07, 7.65, 4.72, 0.000, 0.000, 0.000, 14:58:05.106
155, 395.69, 5.45, 17.75, 20.05, 0.000, 0.000, 0.000, 14:58:05.107
156, 1140.07, 8.08, 14.78, 17.12, 0.000, 0.000, 0.000, 14:58:05.107
157, 1523.29, 13.13, 3.98, 9.90, 0.000, 0.000, 0.000, 14:58:05.107
158, 549.92, 9.56, 8.00, 8.48, 0.000, 0.000, 0.000, 14:58:05.108
159, 748.66, 3.25, 14.34, 18.42, 0.000, 0.000, 0.000, 14:58:05.129
160, 1598.71, 7.12, 7.50, 11.26, 0.000, 0.000, 0.000, 14:58:05.129
161, 893.01, 8.46, 5.71, 2.43, 0.000, 0.000, 0.000, 14:58:05.129
162, 470.38, -0.00, 21.32, 17.90, 0.000, 0.000, 0.000, 14:58:05.129
163, 1435.32, 9.61, 15.25, 10.53, 0.000, 0.000, 0.000, 14:58:05.151
164, 1306.94, 12.99, 3.54, 11.33, 0.000, 0.000, 0.000, 14:58:05.151
165, 365.70, 7.74, 17.50, 15.04, 0.000, 0.000, 0.000, 14:58:05.174
166, 1134.90, 4.90, 13.67, 13.61, 0.000, 0.000, 0.000, 14:58:05.174
167, 1540.24, 15.85, 7.96, 11.71, 0.000, 0.000, 0.000, 14:58:05.196
168, 580.86, 16.44, 7.99, 7.10, 0.000, 0.000, 0.000, 14:58:05.196
169, 737.18, -3.78, 14.47, 17.06, 0.000, 0.000, 0.000, 14:58:05.197
170, 1611.86, 9.91, 6.91, 12.51, 0.000, 0.000, 0.000, 14:58:05.197
171, 903.22, 8.81, 8.14, 14.01, 0.000, 0.000, 0.000, 14:58:05.198
172, 462.85, -0.14, 15.74, 15.84, 0.000, 0.000, 0.000, 14:58:05.198
173, 1428.96, 11.50, 13.49, 10.94, 0.000, 0.000, 0.000, 14:58:05.219
174, 1306.96, 14.08, 4.93, 9.22, 0.000, 0.000, 0.000, 14:58:05.219
175, 361.64, 4.30, 9.36, 15.52, 0.000, 0.000, 0.000, 14:58:05.219
176, 1138.96, 6.88, 13.19, 12.03, 0.000, 0.000, 0.000, 14:58:05.220
177, 1529.28, 8.11, 10.10, 9.10, 0.000, 0.000, 0.000, 14:58:05.220
178, 549.71, 12.54, 8.71, 7.34, 0.000, 0.000, 0.000, 14:58:05.220
179, 731.64, 2.17, 13.33, 16.81, 0.000, 0.000, 0.000, 14:58:05.242
180, 1602.30, 9.15, 8.04, 8.84, 0.000, 0.000, 0.000, 14:58:05.242
181, 903.24, 14.66, 9.07, 7.62, 0.000, 0.000, 0.000, 14:58:05.242
182, 462.23, 1.24, 18.70, 17.84, 0.000, 0.000, 0.000, 14:58:05.242
183, 1428.26, 9.96, 9.72, 13.84, 0.000, 0.000, 0.000, 14:58:05.243
184, 1306.58, 16.64, 5.78, 9.72, 0.000, 0.000, 0.000, 14:58:05.243
185, 392.54, 5.18, 14.10, 14.59, 0.000, 0.000, 0.000, 14:58:05.264
