%OpenBCI Raw EEG Data
%
%Sample Rate = 200.0 Hz
%First Column = SampleIndex
%Last Column = Timestamp 
%Other Columns = EEG data in microvolts followed by Accel Data (in G) interleaved with Aux Data
0, 188.30, 6.47, 8.02, 12.33, 0.000, 0.000, 0.000, 15:18:01.069
1, -257.98, 8.42, 15.48, 18.31, 0.000, 0.000, 0.000, 15:18:01.069
2, -37.79, 11.81, 11.45, 10.87, 0.000, 0.000, 0.000, 15:18:01.069
3, 247.61, 9.59, 11.92, 11.84, 0.000, 0.000, 0.000, 15:18:01.069
4, -132.27, 11.83, 6.17, 11.21, 0.000, 0.000, 0.000, 15:18:01.070
5, -184.51, 8.54, 13.81, 17.48, 0.000, 0.000, 0.000, 15:18:01.090
6, 226.40, 10.23, 11.03, 10.90, 0.000, 0.000, 0.000, 15:18:01.091
7, 33.61, 10.08, 11.41, 10.58, 0.000, 0.000, 0.000, 15:18:01.091
8, -258.69, 8.52, 14.25, 9.56, 0.000, 0.000, 0.000, 15:18:01.091
9, 97.18, 11.84, 9.36, 13.46, 0.000, 0.000, 0.000, 15:18:01.092
10, 196.10, 9.71, 14.03, 12.59, 0.000, 0.000, 0.000, 15:18:01.092
11, -245.23, 9.52, 15.15, 14.96, 0.000, 0.000, 0.000, 15:18:01.114
12, -45.51, 13.07, 8.20, 12.60, 0.000, 0.000, 0.000, 15:18:01.114
13, 244.76, 7.90, 12.29, 15.07, 0.000, 0.000, 0.000, 15:18:01.114
14, -142.10, 11.02, 11.80, 9.71, 0.000, 0.000, 0.000, 15:18:01.114
15, -140.05, 8.54, 10.86, 10.31, 0.000, 0.000, 0.000, 15:18:01.136
16, 212.63, 7.75, 10.68, 11.52, 0.000, 0.000, 0.000, 15:18:01.136
17, 51.19, 10.25, 10.91, 12.02, 0.000, 0.000, 0.000, 15:18:01.136
18, -267.89, 10.67, 10.31, 14.26, 0.000, 0.000, 0.000, 15:18:01.136
19, 106.45, 11.17, 12.04, 9.45, 0.000, 0.000, 0.000, 15:18:01.136
20, 196.97, 10.40, 13.22, 14.29, 0.000, 0.000, 0.000, 15:18:01.137
21, -251.01, 13.82, 13.16, 15.68, 0.000, 0.000, 0.000, 15:18:01.158
22, -29.76, 4.90, 10.55, 10.68, 0.000, 0.000, 0.000, 15:18:01.158
23, 236.17, 14.51, 10.78, 11.50, 0.000, 0.000, 0.000, 15:18:01.158
24, -116.54, 12.29, 10.47, 12.35, 0.000, 0.000, 0.000, 15:18:01.159
25, -178.49, 8.04, 9.91, 8.47, 0.000, 0.000, 0.000, 15:18:01.203
26, 200.98, 7.42, 10.29, 7.44, 0.000, 0.000, 0.000, 15:18:01.203
27, 59.42, 12.84, 11.74, 10.33, 0.000, 0.000, 0.000, 15:18:01.203
28, -278.49, 8.02, 11.04, 14.67, 0.000, 0.000, 0.000, 15:18:01.204
29, 78.93, 9.35, 9.57, 12.51, 0.000, 0.000, 0.000, 15:18:01.204
30, 183.27, 9.16, 9.71, 13.89, 0.000, 0.000, 0.000, 15:18:01.205
31, -217.43, 10.73, 11.67, 10.01, 0.000, 0.000, 0.000, 15:18:01.226
32, -25.61, 7.46, 14.52, 10.81, 0.000, 0.000, 0.000, 15:18:01.226
33, 240.33, 7.87, 13.83, 12.98, 0.000, 0.000, 0.000, 15:18:01.248
34, -121.08, 10.67, 9.71, 11.71, 0.000, 0.000, 0.000, 15:18:01.248
35, -206.70, 3.93, 12.12, 11.55, 0.000, 0.000, 0.000, 15:18:01.248
36, 190.94, 15.00, 10.34, 10.66, 0.000, 0.000, 0.000, 15:18:01.248
37, 20.81, 9.66, 12.58, 11.01, 0.000, 0.000, 0.000, 15:18:01.249
38, -263.00, 5.78, 12.78, 12.87, 0.000, 0.000, 0.000, 15:18:01.249
39, 82.08, 6.78, 10.01, 13.00, 0.000, 0.000, 0.000, 15:18:01.270
40, 182.61, 12.49, 12.29, 14.19, 0.000, 0.000, 0.000, 15:18:01.271
41, -248.04, 5.82, 11.30, 11.75, 0.000, 0.000, 0.000, 15:18:01.271
42, -65.76, 7.38, 11.34, 9.87, 0.000, 0.000, 0.000, 15:18:01.271
43, 247.10, 6.01, 14.11, 13.30, 0.000, 0.000, 0.000, 15:18:01.272
44, -122.95, 9.25, 10.43, 7.67, 0.000, 0.000, 0.000, 15:18:01.272
45, -189.79, 12.07, 14.62, 11.76, 0.000, 0.000, 0.000, 15:18:01.273
46, 180.59, 10.69, 12.41, 12.13, 0.000, 0.000, 0.000, 15:18:01.273
47, 43.20, 10.86, 7.11, 13.18, 0.000, 0.000, 0.000, 15:18:01.293
48, -266.25, 10.19, 14.32, 17.22, 0.000, 0.000, 0.000, 15:18:01.293
49, 70.19, 16.41, 8.92, 9.88, 0.000, 0.000, 0.000, 15:18:01.293
50, 206.17, 9.73, 11.05, 14.07, 0.000, 0.000, 0.000, 15:18:01.294
51, -241.80, 10.33, 15.06, 12.94, 0.000, 0.000, 0.000, 15:18:01.315
52, -36.34, 11.49, 12.02, 13.20, 0.000, 0.000, 0.000, 15:18:01.315
53, 236.11, 5.69, 9.33, 13.25, 0.000, 0.000, 0.000, 15:18:01.338
54, -125.71, 11.08, 11.20, 13.95, 0.000, 0.000, 0.000, 15:18:01.338
55, -201.14, 9.70, 10.83, 14.09, 0.000, 0.000, 0.000, 15:18:01.339
56, 195.62, 7.86, 10.51, 8.18, 0.000, 0.000, 0.000, 15:18:01.339
57, 54.12, 18.57, 12.91, 13.53, 0.000, 0.000, 0.000, 15:18:01.339
58, -265.94, 2.71, 16.71, 13.59, 0.000, 0.000, 0.000, 15:18:01.340
59, 91.04, 8.53, 9.86, 12.38, 0.000, 0.000, 0.000, 15:18:01.340
60, 186.68, 8.24, 10.13, 15.36, 0.000, 0.000, 0.000, 15:18:01.340
61, -230.72, 9.61, 11.85, 13.24, 0.000, 0.000, 0.000, 15:18:01.383
62, -43.02, 14.39, 9.91, 13.13, 0.000, 0.000, 0.000, 15:18:01.383
63, 242.41, 8.64, 9.90, 13.90, 0.000, 0.000, 0.000, 15:18:01.383
64, -127.73, 8.21, 13.67, 13.87, 0.000, 0.000, 0.000, 15:18:01.383
65, -211.44, 13.10, 12.08, 14.25, 0.000, 0.000, 0.000, 15:18:01.384
66, 205.80, 5.49, 14.46, 15.97, 0.000, 0.000, 0.000, 15:18:01.384
67, 60.21, 13.96, 9.86, 8.69, 0.000, 0.000, 0.000, 15:18:01.405
68, -243.11, 6.10, 11.61, 12.56, 0.000, 0.000, 0.000, 15:18:01.406
69, 92.22, 10.80, 8.52, 11.65, 0.000, 0.000, 0.000, 15:18:01.406
70, 191.86, 14.53, 10.36, 8.17, 0.000, 0.000, 0.000, 15:18:01.406
71, -254.81, 2.31, 13.12, 13.44, 0.000, 0.000, 0.000, 15:18:01.428
72, -59.36, 7.64, 8.80, 9.29, 0.000, 0.000, 0.000, 15:18:01.428
73, 240.58, 8.22, 9.04, 16.57, 0.000, 0.000, 0.000, 15:18:01.429
74, -124.45, 10.47, 11.45, 13.37, 0.000, 0.000, 0.000, 15:18:01.429
75, -170.99, 13.33, 8.86, 11.08, 0.000, 0.000, 0.000, 15:18:01.429
76, 196.35, 2.95, 11.87, 8.70, 0.000, 0.000, 0.000, 15:18:01.429
77, 47.59, 8.66, 11.53, 8.30, 0.000, 0.000, 0.000, 15:18:01.430
78, -271.86, 8.88, 15.55, 12.77, 0.000, 0.000, 0.000, 15:18:01.430
79, 91.13, 14.08, 8.40, 10.18, 0.000, 0.000, 0.000, 15:18:01.451
80, 189.02, 9.42, 8.34, 14.86, 0.000, 0.000, 0.000, 15:18:01.451
81, -243.68, 7.53, 11.57, 14.42, 0.000, 0.000, 0.000, 15:18:01.451
82, -26.86, 10.74, 10.25, 10.11, 0.000, 0.000, 0.000, 15:18:01.451
83, 233.63, 11.40, 10.77, 11.45, 0.000, 0.000, 0.000, 15:18:01.473
84, -128.20, 14.03, 10.05, 14.03, 0.000, 0.000, 0.000, 15:18:01.473
85, -201.23, 1.27, 12.04, 11.93, 0.000, 0.000, 0.000, 15:18:01.474
86, 214.79, 10.60, 11.29, 12.34, 0.000, 0.000, 0.000, 15:18:01.474
87, 44.46, 10.60, 6.72, 10.09, 0.000, 0.000, 0.000, 15:18:01.495
88, -265.15, 9.71, 15.59, 13.61, 0.000, 0.000, 0.000, 15:18:01.497
89, 98.68, 10.53, 10.05, 10.01, 0.000, 0.000, 0.000, 15:18:01.518
90, 187.04, 9.29, 12.12, 12.76, 0.000, 0.000, 0.000, 15:18:01.518
91, -251.54, 7.71, 12.72, 13.15, 0.000, 0.000, 0.000, 15:18:01.518
92, -49.63, 10.74, 10.73, 10.99, 0.000, 0.000, 0.000, 15:18:01.518
93, 230.56, 18.25, 9.54, 9.39, 0.000, 0.000, 0.000, 15:18:01.519
94, -137.52, 4.44, 13.33, 10.05, 0.000, 0.000, 0.000, 15:18:01.519
95, -171.04, 11.96, 10.31, 13.89, 0.000, 0.000, 0.000, 15:18:01.563
96, 221.15, 12.11, 14.66, 9.94, 0.000, 0.000, 0.000, 15:18:01.563
97, 46.59, 12.30, 10.05, 10.71, 0.000, 0.000, 0.000, 15:18:01.563
98, -259.00, 6.51, 15.18, 15.15, 0.000, 0.000, 0.000, 15:18:01.564
99, 83.35, 8.44, 13.25, 13.87, 0.000, 0.000, 0.000, 15:18:01.564
100, 200.72, 7.95, 13.56, 10.51, 0.000, 0.000, 0.000, 15:18:01.565
101, -253.27, 11.92, 12.88, 13.38, 0.000, 0.000, 0.000, 15:18:01.586
102, -32.98, 6.38, 8.86, 10.84, 0.000, 0.000, 0.000, 15:18:01.586
103, 226.49, 15.44, 12.41, 12.24, 0.000, 0.000, 0.000, 15:18:01.586
104, -120.42, 10.01, 12.06, 14.84, 0.000, 0.000, 0.000, 15:18:01.586
105, -170.98, 6.48, 12.36, 13.81, 0.000, 0.000, 0.000, 15:18:01.587
106, 203.41, 7.57, 13.74, 14.80, 0.000, 0.000, 0.000, 15:18:01.587
107, 51.05, 10.59, 11.88, 14.62, 0.000, 0.000, 0.000, 15:18:01.608
108, -275.43, 9.37, 14.05, 10.39, 0.000, 0.000, 0.000, 15:18:01.608
109, 95.29, 8.58, 7.88, 11.32, 0.000, 0.000, 0.000, 15:18:01.609
110, 193.13, 9.81, 10.10, 12.01, 0.000, 0.000, 0.000, 15:18:01.609
111, -258.27, 10.15, 8.29, 14.67, 0.000, 0.000, 0.000, 15:18:01.609
112, -49.52, 12.25, 7.81, 9.85, 0.000, 0.000, 0.000, 15:18:01.609
113, 235.44, 9.02, 11.08, 12.83, 0.000, 0.000, 0.000, 15:18:01.610
114, -127.03, 10.45, 12.00, 5.79, 0.000, 0.000, 0.000, 15:18:01.610
115, -190.02, 7.66, 12.73, 11.68, 0.000, 0.000, 0.000, 15:18:01.631
116, 208.64, 7.12, 10.08, 10.72, 0.000, 0.000, 0.000, 15:18:01.631
117, 35.78, 12.83, 13.47, 10.28, 0.000, 0.000, 0.000, 15:18:01.631
118, -253.50, 10.39, 16.07, 13.59, 0.000, 0.000, 0.000, 15:18:01.631
119, 131.16, 9.94, 10.57, 12.03, 0.000, 0.000, 0.000, 15:18:01.653
120, 195.84, 13.30, 12.06, 10.07, 0.000, 0.000, 0.000, 15:18:01.653
121, -241.42, 5.91, 13.76, 12.60, 0.000, 0.000, 0.000, 15:18:01.653
122, -55.30, 10.70, 11.50, 8.38, 0.000, 0.000, 0.000, 15:18:01.653
123, 255.28, 5.91, 9.64, 7.08, 0.000, 0.000, 0.000, 15:18:01.675
124, -136.24, 8.07, 8.69, 10.10, 0.000, 0.000, 0.000, 15:18:01.676
125, -187.65, 4.23, 15.36, 13.76, 0.000, 0.000, 0.000, 15:18:01.676
126, 200.18, 11.38, 10.76, 9.13, 0.000, 0.000, 0.000, 15:18:01.676
127, 39.53, 8.56, 10.32, 11.50, 0.000, 0.000, 0.000, 15:18:01.677
128, -271.48, 9.82, 12.12, 13.20, 0.000, 0.000, 0.000, 15:18:01.677
129, 94.05, 12.98, 11.54, 11.11, 0.000, 0.000, 0.000, 15:18:01.698
130, 202.78, 5.15, 11.54, 11.14, 0.000, 0.000, 0.000, 15:18:01.698
131, -246.85, 9.99, 10.04, 15.81, 0.000, 0.000, 0.000, 15:18:01.698
132, -39.47, 11.40, 10.92, 14.56, 0.000, 0.000, 0.000, 15:18:01.699
133, 243.75, 8.65, 12.08, 17.49, 0.000, 0.000, 0.000, 15:18:01.721
134, -133.39, 10.77, 10.39, 13.64, 0.000, 0.000, 0.000, 15:18:01.721
135, -171.84, 8.73, 12.62, 13.47, 0.000, 0.000, 0.000, 15:18:01.721
136, 212.28, 9.73, 11.18, 13.99, 0.000, 0.000, 0.000, 15:18:01.721
137, 47.08, 10.47, 16.00, 12.23, 0.000, 0.000, 0.000, 15:18:01.743
138, -273.50, 13.01, 13.55, 17.21, 0.000, 0.000, 0.000, 15:18:01.743
139, 100.64, 6.37, 8.16, 11.53, 0.000, 0.000, 0.000, 15:18:01.743
140, 184.17, 11.04, 11.14, 11.17, 0.000, 0.000, 0.000, 15:18:01.744
141, -265.46, 11.81, 13.35, 14.94, 0.000, 0.000, 0.000, 15:18:01.766
142, -51.00, 11.32, 11.57, 11.74, 0.000, 0.000, 0.000, 15:18:01.766
143, 251.10, 7.35, 10.47, 11.93, 0.000, 0.000, 0.000, 15:18:01.766
144, -132.72, 10.33, 10.04, 8.99, 0.000, 0.000, 0.000, 15:18:01.766
145, -163.99, 8.57, 12.46, 10.95, 0.000, 0.000, 0.000, 15:18:01.766
146, 208.16, 8.48, 10.33, 12.15, 0.000, 0.000, 0.000, 15:18:01.767
147, 30.23, 13.61, 8.95, 11.37, 0.000, 0.000, 0.000, 15:18:01.788
148, -250.08, 2.43, 12.68, 13.81, 0.000, 0.000, 0.000, 15:18:01.788
149, 92.93, 13.78, 6.98, 12.78, 0.000, 0.000, 0.000, 15:18:01.789
150, 187.64, 12.58, 9.01, 10.29, 0.000, 0.000, 0.000, 15:18:01.789
151, -254.95, 8.76, 12.87, 14.79, 0.000, 0.000, 0.000, 15:18:01.810
152, -43.00, 4.07, 12.29, 9.09, 0.000, 0.000, 0.000, 15:18:01.811
153, 254.97, 6.85, 11.29, 14.11, 0.000, 0.000, 0.000, 15:18:01.811
154, -132.87, 12.34, 12.25, 12.45, 0.000, 0.000, 0.000, 15:18:01.811
155, -187.77, 12.79, 12.31, 15.20, 0.000, 0.000, 0.000, 15:18:01.833
156, 190.77, 14.71, 13.87, 14.02, 0.000, 0.000, 0.000, 15:18:01.833
157, 42.75, 4.12, 8.90, 11.42, 0.000, 0.000, 0.000, 15:18:01.833
158, -269.29, 3.84, 11.92, 12.32, 0.000, 0.000, 0.000, 15:18:01.833
159, 91.36, 12.32, 12.13, 9.62, 0.000, 0.000, 0.000, 15:18:01.855
160, 189.48, 10.98, 10.41, 9.91, 0.000, 0.000, 0.000, 15:18:01.856
161, -276.66, 7.09, 16.79, 16.10, 0.000, 0.000, 0.000, 15:18:01.856
162, -22.29, 10.47, 12.90, 13.25, 0.000, 0.000, 0.000, 15:18:01.856
163, 270.69, 6.95, 9.14, 10.52, 0.000, 0.000, 0.000, 15:18:01.857
164, -102.59, 9.27, 8.20, 14.47, 0.000, 0.000, 0.000, 15:18:01.857
165, -171.48, 13.82, 9.23, 13.90, 0.000, 0.000, 0.000, 15:18:01.878
166, 231.81, 4.91, 9.54, 10.51, 0.000, 0.000, 0.000, 15:18:01.879
167, 81.00, 12.08, 8.75, 9.62, 0.000, 0.000, 0.000, 15:18:01.879
168, -253.35, 9.97, 11.43, 14.23, 0.000, 0.000, 0.000, 15:18:01.879
169, 79.79, 10.60, 7.87, 5.74, 0.000, 0.000, 0.000, 15:18:01.901
170, 173.39, 11.50, 12.33, 10.56, 0.000, 0.000, 0.000, 15:18:01.901
171, -285.71, 3.88, 11.66, 13.88, 0.000, 0.000, 0.000, 15:18:01.901
172, -59.92, 6.76, 9.97, 10.32, 0.000, 0.000, 0.000, 15:18:01.901
173, 223.96, 3.14, 15.05, 12.06, 0.000, 0.000, 0.000, 15:18:01.923
174, -134.07, 11.19, 6.45, 14.84, 0.000, 0.000, 0.000, 15:18:01.923
175, -216.67, 2.60, 11.62, 13.93, 0.000, 0.000, 0.000, 15:18:01.924
176, 208.72, 9.76, 14.22, 10.52, 0.000, 0.000, 0.000, 15:18:01.924
177, 38.69, 12.42, 11.28, 12.00, 0.000, 0.000, 0.000, 15:18:01.945
178, -251.18, 11.52, 13.88, 14.93, 0.000, 0.000, 0.000, 15:18:01.946
179, 94.77, 10.96, 10.79, 13.02, 0.000, 0.000, 0.000, 15:18:01.946
180, 203.63, 10.21, 7.09, 13.43, 0.000, 0.000, 0.000, 15:18:01.946
181, -255.11, 6.59, 13.29, 15.03, 0.000, 0.000, 0.000, 15:18:01.946
182, -45.31, 9.67, 13.22, 11.00, 0.000, 0.000, 0.000, 15:18:01.947
183, 250.76, 12.52, 13.09, 12.02, 0.000, 0.000, 0.000, 15:18:01.968
184, -113.23, 10.31, 11.88, 8.55, 0.000, 0.000, 0.000, 15:18:01.968
185, -184.21, 15.29, 12.65, 14.59, 0.000, 0.000, 0.000, 15:18:01.969
186, 182.71, 8.51, 11.48, 11.79, 0.000, 0.000, 0.000, 15:18:01.969
187, 72.06, 10.07, 11.71, 10.85, 0.000, 0.000, 0.000, 15:18:01.990
188, -260.31, 8.68, 13.45, 9.42, 0.000, 0.000, 0.000, 15:18:01.991
189, 97.19, 10.28, 11.95, 9.48, 0.000, 0.000, 0.000, 15:18:01.991
190, 186.44, 9.73, 15.70, 15.29, 0.000, 0.000, 0.000, 15:18:01.991
191, -249.20, 1.73, 12.87, 14.96, 0.000, 0.000, 0.000, 15:18:02.013
192, -33.64, 17.27, 8.81, 7.95, 0.000, 0.000, 0.000, 15:18:02.013
193, 246.84, 2.03, 11.91, 10.99, 0.000, 0.000, 0.000, 15:18:02.013
194, -119.29, 6.36, 9.28, 10.15, 0.000, 0.000, 0.000, 15:18:02.013
195, -184.61, 11.36, 10.40, 12.38, 0.000, 0.000, 0.000, 15:18:02.036
196, 223.61, 11.78, 13.58, 12.61, 0.000, 0.000, 0.000, 15:18:02.036
197, 50.83, 8.63, 13.07, 10.11, 0.000, 0.000, 0.000, 15:18:02.037
198, -278.80, 11.31, 17.01, 15.04, 0.000, 0.000, 0.000, 15:18:02.037
199, 97.31, 7.44, 8.40, 10.00, 0.000, 0.000, 0.000, 15:18:02.037
200, 217.30, 8.62, 10.54, 13.39, 0.000, 0.000, 0.000, 15:18:02.037
0, -230.98, 11.18, 10.96, 10.94, 0.000, 0.000, 0.000, 15:18:02.058
1, -49.16, 7.11, 8.24, 12.79, 0.000, 0.000, 0.000, 15:18:02.059
2, 248.07, 6.37, 9.99, 13.19, 0.000, 0.000, 0.000, 15:18:02.059
3, -119.91, 10.25, 10.09, 5.92, 0.000, 0.000, 0.000, 15:18:02.080
4, -184.79, 10.07, 12.08, 13.10, 0.000, 0.000, 0.000, 15:18:02.081
5, 206.59, 14.41, 7.92, 13.40, 0.000, 0.000, 0.000, 15:18:02.081
6, 37.17, 8.45, 13.56, 11.37, 0.000, 0.000, 0.000, 15:18:02.081
7, -256.33, 11.31, 16.22, 16.05, 0.000, 0.000, 0.000, 15:18:02.082
8, 100.86, 11.54, 11.74, 13.96, 0.000, 0.000, 0.000, 15:18:02.082
9, 196.79, 15.08, 9.52, 11.43, 0.000, 0.000, 0.000, 15:18:02.103
10, -255.72, 2.86, 12.81, 13.26, 0.000, 0.000, 0.000, 15:18:02.103
11, -34.32, 7.83, 13.10, 12.03, 0.000, 0.000, 0.000, 15:18:02.104
12, 267.52, 9.38, 12.52, 14.71, 0.000, 0.000, 0.000, 15:18:02.104
13, -112.55, 10.67, 12.00, 9.80, 0.000, 0.000, 0.000, 15:18:02.126
14, -179.17, 7.58, 12.81, 10.71, 0.000, 0.000, 0.000, 15:18:02.126
15, 204.68, 7.72, 10.82, 11.52, 0.000, 0.000, 0.000, 15:18:02.126
16, 42.89, 10.58, 6.51, 9.54, 0.000, 0.000, 0.000, 15:18:02.126
17, -272.03, 5.09, 12.91, 13.70, 0.000, 0.000, 0.000, 15:18:02.148
18, 109.32, 17.41, 6.50, 6.88, 0.000, 0.000, 0.000, 15:18:02.148
19, 199.07, 4.94, 13.48, 14.67, 0.000, 0.000, 0.000, 15:18:02.171
20, -244.34, 6.23, 12.12, 10.53, 0.000, 0.000, 0.000, 15:18:02.171
21, -38.26, 6.23, 10.30, 8.55, 0.000, 0.000, 0.000, 15:18:02.172
22, 250.78, 10.70, 11.88, 12.39, 0.000, 0.000, 0.000, 15:18:02.172
23, -119.56, 7.75, 11.50, 11.71, 0.000, 0.000, 0.000, 15:18:02.172
24, -203.47, 12.20, 10.74, 11.59, 0.000, 0.000, 0.000, 15:18:02.172
25, 200.81, 11.25, 14.01, 12.11, 0.000, 0.000, 0.000, 15:18:02.193
26, 37.44, 8.01, 7.91, 10.60, 0.000, 0.000, 0.000, 15:18:02.193
27, -278.45, 10.56, 12.23, 13.42, 0.000, 0.000, 0.000, 15:18:02.194
28, 81.87, 12.45, 12.31, 10.68, 0.000, 0.000, 0.000, 15:18:02.194
29, 204.18, 10.20, 10.55, 12.99, 0.000, 0.000, 0.000, 15:18:02.194
30, -247.40, 7.51, 12.38, 11.86, 0.000, 0.000, 0.000, 15:18:02.194
31, -72.39, 9.56, 12.27, 11.49, 0.000, 0.000, 0.000, 15:18:02.215
32, 242.58, 8.31, 13.04, 13.10, 0.000, 0.000, 0.000, 15:18:02.216
33, -136.23, 8.02, 13.33, 11.34, 0.000, 0.000, 0.000, 15:18:02.216
34, -186.53, 8.50, 11.26, 13.35, 0.000, 0.000, 0.000, 15:18:02.216
35, 187.56, 11.52, 9.39, 13.58, 0.000, 0.000, 0.000, 15:18:02.238
36, 27.95, 16.21, 12.47, 13.46, 0.000, 0.000, 0.000, 15:18:02.238
37, -285.74, 0.14, 14.86, 14.44, 0.000, 0.000, 0.000, 15:18:02.238
38, 106.12, 9.12, 10.06, 10.07, 0.000, 0.000, 0.000, 15:18:02.239
39, 206.76, 11.46, 13.83, 9.69, 0.000, 0.000, 0.000, 15:18:02.260
40, -252.20, 8.40, 6.86, 12.37, 0.000, 0.000, 0.000, 15:18:02.261
41, -50.79, 6.88, 8.55, 14.02, 0.000, 0.000, 0.000, 15:18:02.261
42, 235.74, 8.73, 11.64, 9.61, 0.000, 0.000, 0.000, 15:18:02.261
43, -125.64, 11.68, 8.29, 11.63, 0.000, 0.000, 0.000, 15:18:02.262
44, -191.79, 8.30, 11.99, 15.43, 0.000, 0.000, 0.000, 15:18:02.262
45, 183.11, 14.59, 6.27, 12.64, 0.000, 0.000, 0.000, 15:18:02.283
46, 65.19, 8.54, 11.46, 13.34, 0.000, 0.000, 0.000, 15:18:02.283
47, -281.84, 6.97, 13.06, 14.39, 0.000, 0.000, 0.000, 15:18:02.283
48, 97.08, 10.96, 12.80, 13.16, 0.000, 0.000, 0.000, 15:18:02.283
49, 205.41, 10.60, 10.54, 14.74, 0.000, 0.000, 0.000, 15:18:02.305
50, -250.86, 6.93, 12.55, 13.18, 0.000, 0.000, 0.000, 15:18:02.306
51, -31.75, 6.90, 12.69, 11.28, 0.000, 0.000, 0.000, 15:18:02.306
52, 235.98, 7.18, 8.89, 11.86, 0.000, 0.000, 0.000, 15:18:02.306
53, -125.77, 10.56, 10.41, 13.66, 0.000, 0.000, 0.000, 15:18:02.328
54, -206.53, 14.10, 16.26, 14.75, 0.000, 0.000, 0.000, 15:18:02.328
55, 202.52, 4.03, 12.72, 12.63, 0.000, 0.000, 0.000, 15:18:02.328
56, 62.08, 9.04, 11.64, 9.01, 0.000, 0.000, 0.000, 15:18:02.329
57, -269.08, 7.65, 12.99, 11.92, 0.000, 0.000, 0.000, 15:18:02.351
58, 82.60, 11.30, 13.72, 5.80, 0.000, 0.000, 0.000, 15:18:02.351
59, 185.55, 9.01, 9.12, 10.72, 0.000, 0.000, 0.000, 15:18:02.352
60, -234.07, 10.66, 13.36, 10.91, 0.000, 0.000, 0.000, 15:18:02.352
61, -44.75, 10.22, 8.95, 8.23, 0.000, 0.000, 0.000, 15:18:02.352
62, 239.90, 7.53, 8.51, 11.67, 0.000, 0.000, 0.000, 15:18:02.352
63, -118.94, 11.69, 11.30, 14.32, 0.000, 0.000, 0.000, 15:18:02.373
64, -191.22, 8.07, 8.94, 17.44, 0.000, 0.000, 0.000, 15:18:02.373
65, 201.59, 10.71, 6.94, 11.64, 0.000, 0.000, 0.000, 15:18:02.374
66, 51.87, 7.94, 14.54, 10.41, 0.000, 0.000, 0.000, 15:18:02.374
67, -278.65, 9.52, 15.86, 13.50, 0.000, 0.000, 0.000, 15:18:02.396
68, 80.19, 11.28, 12.68, 12.97, 0.000, 0.000, 0.000, 15:18:02.396
69, 195.82, 8.86, 12.73, 11.80, 0.000, 0.000, 0.000, 15:18:02.396
70, -229.59, 7.88, 9.80, 13.07, 0.000, 0.000, 0.000, 15:18:02.396
71, -56.23, 8.64, 11.91, 13.28, 0.000, 0.000, 0.000, 15:18:02.418
72, 234.81, 12.54, 16.12, 11.68, 0.000, 0.000, 0.000, 15:18:02.419
73, -104.39, 7.42, 9.02, 12.99, 0.000, 0.000, 0.000, 15:18:02.419
74, -188.96, 11.00, 13.75, 10.46, 0.000, 0.000, 0.000, 15:18:02.419
75, 198.60, 11.63, 6.15, 11.94, 0.000, 0.000, 0.000, 15:18:02.440
76, 55.99, 13.53, 7.79, 13.55, 0.000, 0.000, 0.000, 15:18:02.441
77, -259.12, 4.12, 16.39, 13.60, 0.000, 0.000, 0.000, 15:18:02.441
78, 76.73, 8.50, 9.38, 10.48, 0.000, 0.000, 0.000, 15:18:02.441
79, 181.68, 11.69, 8.74, 9.30, 0.000, 0.000, 0.000, 15:18:02.442
80, -247.55, 10.65, 13.85, 14.31, 0.000, 0.000, 0.000, 15:18:02.442
81, -45.63, 13.49, 11.01, 10.29, 0.000, 0.000, 0.000, 15:18:02.463
82, 237.29, 6.65, 13.15, 13.80, 0.000, 0.000, 0.000, 15:18:02.463
83, -125.30, 8.87, 13.73, 13.10, 0.000, 0.000, 0.000, 15:18:02.464
84, -161.52, 11.97, 10.60, 14.93, 0.000, 0.000, 0.000, 15:18:02.464
85, 196.60, 9.67, 10.60, 10.29, 0.000, 0.000, 0.000, 15:18:02.486
86, 39.51, 6.00, 11.91, 11.83, 0.000, 0.000, 0.000, 15:18:02.486
87, -263.78, 7.26, 14.06, 15.59, 0.000, 0.000, 0.000, 15:18:02.487
88, 87.98, 11.39, 8.07, 10.56, 0.000, 0.000, 0.000, 15:18:02.487
89, 195.67, 9.59, 12.77, 14.09, 0.000, 0.000, 0.000, 15:18:02.508
90, -242.37, 11.68, 10.85, 16.18, 0.000, 0.000, 0.000, 15:18:02.508
91, -47.42, 4.39, 15.59, 7.78, 0.000, 0.000, 0.000, 15:18:02.509
92, 229.43, 9.44, 12.21, 13.70, 0.000, 0.000, 0.000, 15:18:02.509
93, -122.53, 10.02, 10.99, 11.34, 0.000, 0.000, 0.000, 15:18:02.531
94, -182.67, 9.18, 11.11, 10.50, 0.000, 0.000, 0.000, 15:18:02.531
95, 172.73, 11.60, 8.93, 10.85, 0.000, 0.000, 0.000, 15:18:02.531
96, 59.54, 12.48, 10.22, 13.50, 0.000, 0.000, 0.000, 15:18:02.531
97, -232.21, 7.88, 14.18, 14.05, 0.000, 0.000, 0.000, 15:18:02.532
98, 91.15, 10.41, 8.05, 11.89, 0.000, 0.000, 0.000, 15:18:02.532
99, 193.95, 10.28, 11.80, 11.25, 0.000, 0.000, 0.000, 15:18:02.553
100, -249.14, 4.56, 13.16, 12.06, 0.000, 0.000, 0.000, 15:18:02.553
101, -48.41, 7.62, 10.68, 11.29, 0.000, 0.000, 0.000, 15:18:02.554
102, 231.04, 7.02, 13.21, 6.73, 0.000, 0.000, 0.000, 15:18:02.554
103, -125.74, 10.12, 12.41, 10.71, 0.000, 0.000, 0.000, 15:18:02.575
104, -179.68, 11.48, 12.86, 11.48, 0.000, 0.000, 0.000, 15:18:02.576
105, 196.93, 10.97, 10.91, 15.25, 0.000, 0.000, 0.000, 15:18:02.576
106, 51.40, 11.43, 11.62, 12.31, 0.000, 0.000, 0.000, 15:18:02.576
107, -261.11, 4.79, 12.86, 14.43, 0.000, 0.000, 0.000, 15:18:02.598
108, 95.72, 13.72, 7.91, 7.72, 0.000, 0.000, 0.000, 15:18:02.598
109, 202.79, 3.86, 9.43, 11.04, 0.000, 0.000, 0.000, 15:18:02.598
110, -242.31, 8.20, 13.78, 12.33, 0.000, 0.000, 0.000, 15:18:02.598
111, -47.96, 10.89, 8.69, 11.32, 0.000, 0.000, 0.000, 15:18:02.620
112, 242.13, 8.45, 8.56, 11.66, 0.000, 0.000, 0.000, 15:18:02.621
113, -124.51, 9.98, 12.48, 8.59, 0.000, 0.000, 0.000, 15:18:02.621
114, -185.87, 11.13, 13.23, 15.67, 0.000, 0.000, 0.000, 15:18:02.621
115, 196.45, 7.84, 11.63, 12.60, 0.000, 0.000, 0.000, 15:18:02.622
116, 28.92, 13.45, 10.61, 13.87, 0.000, 0.000, 0.000, 15:18:02.622
117, -248.03, 9.85, 15.02, 16.66, 0.000, 0.000, 0.000, 15:18:02.643
118, 97.01, 6.97, 9.45, 7.67, 0.000, 0.000, 0.000, 15:18:02.643
119, 197.66, 8.85, 10.33, 13.71, 0.000, 0.000, 0.000, 15:18:02.644
120, -249.37, 9.82, 13.67, 12.98, 0.000, 0.000, 0.000, 15:18:02.644
121, -53.68, 12.75, 7.49, 6.95, 0.000, 0.000, 0.000, 15:18:02.665
122, 242.47, 8.35, 10.96, 13.19, 0.000, 0.000, 0.000, 15:18:02.666
123, -136.21, 7.93, 12.81, 13.47, 0.000, 0.000, 0.000, 15:18:02.666
124, -179.50, 8.90, 9.80, 12.84, 0.000, 0.000, 0.000, 15:18:02.666
125, 199.74, 6.11, 12.79, 13.58, 0.000, 0.000, 0.000, 15:18:02.688
126, 31.39, 14.83, 9.55, 11.17, 0.000, 0.000, 0.000, 15:18:02.688
127, -253.33, 3.72, 11.45, 10.00, 0.000, 0.000, 0.000, 15:18:02.689
128, 94.00, 11.73, 7.14, 10.74, 0.000, 0.000, 0.000, 15:18:02.689
129, 198.50, 10.14, 8.90, 11.98, 0.000, 0.000, 0.000, 15:18:02.711
130, -247.33, 10.93, 15.20, 12.55, 0.000, 0.000, 0.000, 15:18:02.711
131, -46.18, 8.50, 13.44, 9.43, 0.000, 0.000, 0.000, 15:18:02.712
132, 237.77, 8.47, 8.33, 9.86, 0.000, 0.000, 0.000, 15:18:02.712
133, -122.88, 13.31, 12.34, 8.79, 0.000, 0.000, 0.000, 15:18:02.712
134, -183.31, 11.08, 12.50, 11.70, 0.000, 0.000, 0.000, 15:18:02.712
135, 200.61, 9.93, 10.20, 12.23, 0.000, 0.000, 0.000, 15:18:02.733
136, 45.99, 5.98, 10.01, 17.02, 0.000, 0.000, 0.000, 15:18:02.733
137, -289.63, 5.99, 13.50, 15.80, 0.000, 0.000, 0.000, 15:18:02.734
138, 104.72, 8.84, 8.91, 8.97, 0.000, 0.000, 0.000, 15:18:02.734
139, 204.16, 9.48, 9.55, 12.93, 0.000, 0.000, 0.000, 15:18:02.755
140, -244.37, 3.38, 8.87, 17.03, 0.000, 0.000, 0.000, 15:18:02.756
141, -42.27, 13.73, 10.33, 11.80, 0.000, 0.000, 0.000, 15:18:02.756
142, 252.22, 7.64, 10.75, 11.45, 0.000, 0.000, 0.000, 15:18:02.756
143, -120.14, 8.56, 11.49, 11.18, 0.000, 0.000, 0.000, 15:18:02.778
144, -197.91, 14.77, 16.67, 10.62, 0.000, 0.000, 0.000, 15:18:02.778
145, 189.32, 2.81, 10.40, 11.01, 0.000, 0.000, 0.000, 15:18:02.779
146, 71.48, 9.19, 9.44, 13.81, 0.000, 0.000, 0.000, 15:18:02.779
147, -247.20, 10.18, 13.90, 15.05, 0.000, 0.000, 0.000, 15:18:02.801
148, 90.17, 10.80, 7.17, 9.36, 0.000, 0.000, 0.000, 15:18:02.801
149, 196.04, 11.97, 14.33, 12.95, 0.000, 0.000, 0.000, 15:18:02.802
150, -242.17, 11.47, 15.67, 10.75, 0.000, 0.000, 0.000, 15:18:02.802
151, -52.31, 10.24, 6.70, 8.42, 0.000, 0.000, 0.000, 15:18:02.802
152, 240.11, 6.83, 12.72, 12.11, 0.000, 0.000, 0.000, 15:18:02.802
153, -123.53, 10.51, 11.26, 8.81, 0.000, 0.000, 0.000, 15:18:02.823
154, -193.59, 2.94, 10.11, 9.40, 0.000, 0.000, 0.000, 15:18:02.823
155, 194.50, 6.42, 8.63, 8.56, 0.000, 0.000, 0.000, 15:18:02.824
156, 48.48, 8.20, 8.28, 14.74, 0.000, 0.000, 0.000, 15:18:02.824
157, -273.57, 8.18, 13.87, 16.53, 0.000, 0.000, 0.000, 15:18:02.845
158, 84.18, 6.87, 10.91, 13.55, 0.000, 0.000, 0.000, 15:18:02.846
159, 188.42, 7.46, 8.84, 14.25, 0.000, 0.000, 0.000, 15:18:02.846
160, -249.05, 10.58, 12.12, 12.59, 0.000, 0.000, 0.000, 15:18:02.846
161, -55.36, 13.61, 10.69, 11.32, 0.000, 0.000, 0.000, 15:18:02.868
162, 237.87, 11.74, 11.42, 11.10, 0.000, 0.000, 0.000, 15:18:02.868
163, -120.00, 7.12, 9.78, 11.70, 0.000, 0.000, 0.000, 15:18:02.869
164, -204.51, 9.57, 13.09, 14.04, 0.000, 0.000, 0.000, 15:18:02.869
165, 208.12, 11.59, 14.64, 11.52, 0.000, 0.000, 0.000, 15:18:02.890
166, 54.00, 12.13, 14.66, 13.29, 0.000, 0.000, 0.000, 15:18:02.891
167, -258.46, 9.40, 15.23, 10.54, 0.000, 0.000, 0.000, 15:18:02.891
168, 88.41, 10.98, 8.90, 9.81, 0.000, 0.000, 0.000, 15:18:02.891
169, 186.55, 7.03, 12.13, 9.72, 0.000, 0.000, 0.000, 15:18:02.892
170, -252.45, 6.95, 9.93, 15.85, 0.000, 0.000, 0.000, 15:18:02.892
171, -62.53, 8.36, 6.95, 11.43, 0.000, 0.000, 0.000, 15:18:02.913
172, 266.27, 7.20, 8.18, 12.71, 0.000, 0.000, 0.000, 15:18:02.913
173, -111.77, 9.81, 11.96, 13.19, 0.000, 0.000, 0.000, 15:18:02.913
174, -178.94, 4.27, 12.28, 13.66, 0.000, 0.000, 0.000, 15:18:02.914
175, 200.38, 10.04, 8.46, 9.10, 0.000, 0.000, 0.000, 15:18:02.935
176, 49.28, 11.32, 10.45, 8.79, 0.000, 0.000, 0.000, 15:18:02.936
177, -226.37, 5.71, 11.63, 13.82, 0.000, 0.000, 0.000, 15:18:02.936
178, 113.91, 7.99, 9.38, 10.11, 0.000, 0.000, 0.000, 15:18:02.936
179, 207.35, 10.51, 15.48, 9.96, 0.000, 0.000, 0.000, 15:18:02.958
180, -233.28, 11.24, 13.54, 14.72, 0.000, 0.000, 0.000, 15:18:02.958
181, -58.78, 6.23, 10.80, 12.74, 0.000, 0.000, 0.000, 15:18:02.958
182, 211.03, 9.14, 11.53, 12.35, 0.000, 0.000, 0.000, 15:18:02.959
183, -132.71, 11.24, 8.61, 13.68, 0.000, 0.000, 0.000, 15:18:02.980
184, -204.37, 8.70, 19.69, 13.72, 0.000, 0.000, 0.000, 15:18:02.981
185, 162.26, 10.95, 8.88, 11.75, 0.000, 0.000, 0.000, 15:18:02.981
186, 15.75, 11.18, 6.53, 7.60, 0.000, 0.000, 0.000, 15:18:02.981
187, -251.91, 6.15, 13.27, 12.95, 0.000, 0.000, 0.000, 15:18:02.982
188, 98.76, 11.30, 12.99, 10.00, 0.000, 0.000, 0.000, 15:18:02.982
189, 187.75, 15.13, 10.14, 9.60, 0.000, 0.000, 0.000, 15:18:03.003
190, -241.85, 6.92, 9.45, 11.47, 0.000, 0.000, 0.000, 15:18:03.003
191, -39.41, 8.29, 11.82, 10.81, 0.000, 0.000, 0.000, 15:18:03.004
192, 237.32, 10.37, 13.43, 14.45, 0.000, 0.000, 0.000, 15:18:03.004
193, -114.78, 11.23, 11.24, 13.74, 0.000, 0.000, 0.000, 15:18:03.025
194, -180.89, 4.04, 12.12, 12.05, 0.000, 0.000, 0.000, 15:18:03.026
195, 204.20, 12.53, 9.98, 9.84, 0.000, 0.000, 0.000, 15:18:03.026
196, 50.56, 11.27, 9.98, 12.31, 0.000, 0.000, 0.000, 15:18:03.026
197, -260.21, 4.17, 16.90, 15.92, 0.000, 0.000, 0.000, 15:18:03.071
198, 104.37, 12.08, 12.93, 10.67, 0.000, 0.000, 0.000, 15:18:03.071
199, 190.17, 2.04, 12.01, 12.87, 0.000, 0.000, 0.000, 15:18:03.093
200, -240.63, 9.15, 11.30, 14.26, 0.000, 0.000, 0.000, 15:18:03.093
0, -30.60, 10.69, 12.54, 12.44, 0.000, 0.000, 0.000, 15:18:03.093
1, 239.49, 11.96, 9.52, 9.02, 0.000, 0.000, 0.000, 15:18:03.094
2, -118.54, 8.54, 11.72, 10.18, 0.000, 0.000, 0.000, 15:18:03.094
3, -185.60, 5.04, 12.21, 13.07, 0.000, 0.000, 0.000, 15:18:03.095
4, 187.41, 8.13, 11.84, 12.57, 0.000, 0.000, 0.000, 15:18:03.095
5, 57.51, 11.84, 8.37, 10.22, 0.000, 0.000, 0.000, 15:18:03.116
6, -261.26, 13.60, 12.32, 12.89, 0.000, 0.000, 0.000, 15:18:03.116
7, 70.60, 7.02, 11.42, 9.85, 0.000, 0.000, 0.000, 15:18:03.116
8, 213.58, 9.42, 9.61, 14.44, 0.000, 0.000, 0.000, 15:18:03.116
9, -236.49, 11.31, 13.27, 16.14, 0.000, 0.000, 0.000, 15:18:03.116
10, -42.13, 9.34, 9.20, 9.33, 0.000, 0.000, 0.000, 15:18:03.116
11, 252.74, 10.38, 10.81, 13.59, 0.000, 0.000, 0.000, 15:18:03.117
12, -108.34, 11.28, 13.34, 10.24, 0.000, 0.000, 0.000, 15:18:03.118
13, -181.52, 8.09, 13.61, 13.90, 0.000, 0.000, 0.000, 15:18:03.138
14, 195.17, 10.14, 10.19, 10.25, 0.000, 0.000, 0.000, 15:18:03.138
15, 30.97, 10.20, 9.43, 10.64, 0.000, 0.000, 0.000, 15:18:03.139
16, -228.07, 3.75, 10.76, 10.66, 0.000, 0.000, 0.000, 15:18:03.139
17, 99.39, 11.62, 7.19, 11.94, 0.000, 0.000, 0.000, 15:18:03.140
18, 204.72, 12.13, 14.45, 9.07, 0.000, 0.000, 0.000, 15:18:03.140
19, -233.34, 7.40, 13.03, 13.64, 0.000, 0.000, 0.000, 15:18:03.160
20, -59.46, 7.75, 12.74, 12.49, 0.000, 0.000, 0.000, 15:18:03.161
21, 245.95, 9.09, 12.50, 10.58, 0.000, 0.000, 0.000, 15:18:03.161
22, -104.22, 12.28, 9.46, 12.62, 0.000, 0.000, 0.000, 15:18:03.161
23, -175.84, 9.46, 13.73, 11.96, 0.000, 0.000, 0.000, 15:18:03.184
24, 195.27, 12.33, 11.86, 9.03, 0.000, 0.000, 0.000, 15:18:03.184
25, 52.68, 4.91, 10.94, 15.07, 0.000, 0.000, 0.000, 15:18:03.184
26, -254.96, 11.08, 12.06, 10.59, 0.000, 0.000, 0.000, 15:18:03.184
27, 78.62, 11.83, 9.95, 8.17, 0.000, 0.000, 0.000, 15:18:03.206
28, 207.69, 12.24, 10.60, 13.77, 0.000, 0.000, 0.000, 15:18:03.206
29, -226.70, 5.01, 9.91, 16.05, 0.000, 0.000, 0.000, 15:18:03.206
30, -61.38, 8.56, 10.80, 10.87, 0.000, 0.000, 0.000, 15:18:03.206
31, 255.19, 13.99, 8.75, 13.90, 0.000, 0.000, 0.000, 15:18:03.207
32, -110.80, 11.39, 11.25, 12.93, 0.000, 0.000, 0.000, 15:18:03.207
33, -194.07, 11.40, 12.27, 12.17, 0.000, 0.000, 0.000, 15:18:03.228
34, 182.44, 9.10, 12.73, 12.35, 0.000, 0.000, 0.000, 15:18:03.228
35, 43.59, 10.41, 8.86, 15.47, 0.000, 0.000, 0.000, 15:18:03.229
36, -255.39, 6.31, 14.63, 15.26, 0.000, 0.000, 0.000, 15:18:03.229
37, 76.37, 12.05, 9.71, 8.79, 0.000, 0.000, 0.000, 15:18:03.251
38, 175.72, 11.47, 10.78, 14.82, 0.000, 0.000, 0.000, 15:18:03.251
39, -230.71, 8.17, 14.51, 15.39, 0.000, 0.000, 0.000, 15:18:03.251
40, -65.73, 4.10, 9.43, 8.93, 0.000, 0.000, 0.000, 15:18:03.251
41, 231.61, 11.48, 11.72, 11.11, 0.000, 0.000, 0.000, 15:18:03.273
42, -124.12, 12.06, 11.04, 12.11, 0.000, 0.000, 0.000, 15:18:03.273
43, -218.29, -1.04, 11.85, 12.44, 0.000, 0.000, 0.000, 15:18:03.274
44, 201.01, 9.93, 5.56, 7.55, 0.000, 0.000, 0.000, 15:18:03.274
45, 63.81, 9.67, 11.28, 11.62, 0.000, 0.000, 0.000, 15:18:03.296
46, -273.08, 8.54, 13.68, 15.18, 0.000, 0.000, 0.000, 15:18:03.296
47, 74.04, 10.43, 8.81, 10.84, 0.000, 0.000, 0.000, 15:18:03.296
48, 176.21, 11.52, 11.62, 10.74, 0.000, 0.000, 0.000, 15:18:03.296
49, -238.78, 9.06, 12.87, 14.57, 0.000, 0.000, 0.000, 15:18:03.297
50, -66.15, 9.29, 12.25, 15.95, 0.000, 0.000, 0.000, 15:18:03.297
51, 237.57, 11.35, 10.43, 13.47, 0.000, 0.000, 0.000, 15:18:03.318
52, -104.32, 2.35, 11.02, 9.75, 0.000, 0.000, 0.000, 15:18:03.318
53, -207.41, 6.24, 13.19, 16.50, 0.000, 0.000, 0.000, 15:18:03.319
54, 188.98, 8.20, 12.00, 9.07, 0.000, 0.000, 0.000, 15:18:03.319
55, 63.31, 8.56, 13.62, 14.32, 0.000, 0.000, 0.000, 15:18:03.340
56, -268.37, 8.35, 16.39, 13.79, 0.000, 0.000, 0.000, 15:18:03.341
57, 82.85, 12.46, 6.17, 12.01, 0.000, 0.000, 0.000, 15:18:03.341
58, 184.89, 7.60, 10.53, 8.57, 0.000, 0.000, 0.000, 15:18:03.341
59, -236.51, 6.44, 8.75, 11.15, 0.000, 0.000, 0.000, 15:18:03.363
60, -50.72, 13.45, 7.78, 9.66, 0.000, 0.000, 0.000, 15:18:03.363
61, 209.59, 1.22, 14.06, 15.58, 0.000, 0.000, 0.000, 15:18:03.363
62, -104.00, 10.91, 12.07, 14.36, 0.000, 0.000, 0.000, 15:18:03.364
63, -181.59, 7.17, 12.87, 11.48, 0.000, 0.000, 0.000, 15:18:03.385
64, 186.06, 13.18, 10.45, 12.85, 0.000, 0.000, 0.000, 15:18:03.386
65, 54.84, 7.46, 11.51, 16.42, 0.000, 0.000, 0.000, 15:18:03.386
66, -277.62, 10.16, 13.01, 13.35, 0.000, 0.000, 0.000, 15:18:03.386
67, 79.23, 10.67, 9.86, 9.55, 0.000, 0.000, 0.000, 15:18:03.387
68, 191.98, 11.97, 14.29, 8.56, 0.000, 0.000, 0.000, 15:18:03.387
69, -217.80, 14.27, 14.81, 11.31, 0.000, 0.000, 0.000, 15:18:03.408
70, -48.97, 6.40, 8.69, 7.26, 0.000, 0.000, 0.000, 15:18:03.408
71, 208.32, 8.45, 9.63, 9.94, 0.000, 0.000, 0.000, 15:18:03.409
72, -92.79, 9.71, 13.27, 11.46, 0.000, 0.000, 0.000, 15:18:03.409
73, -181.59, 13.01, 13.41, 13.50, 0.000, 0.000, 0.000, 15:18:03.431
74, 166.70, 8.34, 9.58, 11.32, 0.000, 0.000, 0.000, 15:18:03.431
75, 67.43, 11.25, 6.82, 11.02, 0.000, 0.000, 0.000, 15:18:03.431
76, -262.38, 7.22, 12.73, 13.62, 0.000, 0.000, 0.000, 15:18:03.431
77, 81.15, 12.09, 8.41, 10.31, 0.000, 0.000, 0.000, 15:18:03.453
78, 189.74, 14.51, 11.66, 15.83, 0.000, 0.000, 0.000, 15:18:03.453
79, -239.54, 2.06, 11.32, 15.10, 0.000, 0.000, 0.000, 15:18:03.453
80, -45.78, 8.03, 13.03, 6.04, 0.000, 0.000, 0.000, 15:18:03.453
81, 230.25, 6.19, 13.75, 14.13, 0.000, 0.000, 0.000, 15:18:03.476
82, -105.86, 8.78, 12.81, 13.73, 0.000, 0.000, 0.000, 15:18:03.476
83, -183.30, 10.23, 12.64, 13.02, 0.000, 0.000, 0.000, 15:18:03.476
84, 158.63, 12.01, 6.67, 9.50, 0.000, 0.000, 0.000, 15:18:03.476
85, 64.77, 8.28, 12.92, 13.49, 0.000, 0.000, 0.000, 15:18:03.477
86, -249.80, 10.48, 15.31, 14.63, 0.000, 0.000, 0.000, 15:18:03.477
87, 71.36, 15.46, 10.40, 13.23, 0.000, 0.000, 0.000, 15:18:03.498
88, 190.47, 6.61, 8.38, 11.26, 0.000, 0.000, 0.000, 15:18:03.498
89, -239.25, 8.38, 10.19, 9.78, 0.000, 0.000, 0.000, 15:18:03.498
90, -56.03, 8.77, 7.66, 9.29, 0.000, 0.000, 0.000, 15:18:03.499
91, 231.09, 11.83, 8.27, 14.54, 0.000, 0.000, 0.000, 15:18:03.521
92, -112.81, 8.35, 11.11, 9.10, 0.000, 0.000, 0.000, 15:18:03.521
93, -181.35, 11.75, 10.78, 16.59, 0.000, 0.000, 0.000, 15:18:03.521
94, 172.97, 7.62, 13.42, 6.70, 0.000, 0.000, 0.000, 15:18:03.521
95, 66.40, 12.73, 13.57, 16.29, 0.000, 0.000, 0.000, 15:18:03.544
96, -236.41, 10.02, 12.96, 13.38, 0.000, 0.000, 0.000, 15:18:03.544
97, 69.04, 5.83, 11.68, 12.80, 0.000, 0.000, 0.000, 15:18:03.544
98, 190.65, 7.88, 11.20, 12.03, 0.000, 0.000, 0.000, 15:18:03.544
99, -242.78, 9.39, 11.80, 10.21, 0.000, 0.000, 0.000, 15:18:03.566
100, -51.80, 9.39, 9.43, 7.67, 0.000, 0.000, 0.000, 15:18:03.566
101, 237.39, 7.07, 13.96, 12.33, 0.000, 0.000, 0.000, 15:18:03.567
102, -113.40, 9.06, 12.75, 9.10, 0.000, 0.000, 0.000, 15:18:03.567
103, -174.66, 6.41, 11.49, 11.96, 0.000, 0.000, 0.000, 15:18:03.567
104, 182.97, 9.05, 6.26, 12.62, 0.000, 0.000, 0.000, 15:18:03.567
105, 54.83, 9.75, 10.49, 13.54, 0.000, 0.000, 0.000, 15:18:03.588
106, -244.71, 7.18, 14.79, 15.38, 0.000, 0.000, 0.000, 15:18:03.588
107, 58.22, 8.04, 10.29, 16.36, 0.000, 0.000, 0.000, 15:18:03.589
108, 186.49, 8.10, 9.02, 12.98, 0.000, 0.000, 0.000, 15:18:03.589
109, -219.35, 10.19, 14.56, 11.42, 0.000, 0.000, 0.000, 15:18:03.610
110, -55.97, 10.78, 8.93, 8.71, 0.000, 0.000, 0.000, 15:18:03.611
111, 247.45, 9.57, 11.72, 9.98, 0.000, 0.000, 0.000, 15:18:03.611
112, -118.49, 10.37, 10.54, 10.48, 0.000, 0.000, 0.000, 15:18:03.611
113, -182.38, 10.54, 10.33, 13.91, 0.000, 0.000, 0.000, 15:18:03.633
114, 176.29, 10.07, 9.70, 11.21, 0.000, 0.000, 0.000, 15:18:03.634
115, 54.22, 4.10, 11.01, 16.60, 0.000, 0.000, 0.000, 15:18:03.634
116, -242.15, 9.01, 13.12, 8.80, 0.000, 0.000, 0.000, 15:18:03.634
117, 87.85, 10.46, 12.55, 8.89, 0.000, 0.000, 0.000, 15:18:03.656
118, 185.56, 10.55, 13.90, 11.77, 0.000, 0.000, 0.000, 15:18:03.656
119, -229.06, 5.96, 13.19, 18.60, 0.000, 0.000, 0.000, 15:18:03.657
120, -55.80, 8.02, 7.01, 11.43, 0.000, 0.000, 0.000, 15:18:03.657
121, 222.81, 7.44, 10.91, 10.03, 0.000, 0.000, 0.000, 15:18:03.657
122, -106.86, 12.09, 9.85, 12.71, 0.000, 0.000, 0.000, 15:18:03.657
123, -180.33, 11.21, 10.13, 14.23, 0.000, 0.000, 0.000, 15:18:03.678
124, 185.53, 7.93, 6.45, 15.74, 0.000, 0.000, 0.000, 15:18:03.678
125, 43.53, 12.39, 14.13, 6.75, 0.000, 0.000, 0.000, 15:18:03.679
126, -253.13, 4.43, 16.41, 15.80, 0.000, 0.000, 0.000, 15:18:03.679
127, 69.06, 9.24, 10.85, 10.91, 0.000, 0.000, 0.000, 15:18:03.701
128, 187.15, 12.18, 14.35, 13.91, 0.000, 0.000, 0.000, 15:18:03.701
129, -219.99, 8.29, 11.69, 10.92, 0.000, 0.000, 0.000, 15:18:03.701
130, -60.44, 6.98, 9.93, 10.47, 0.000, 0.000, 0.000, 15:18:03.702
131, 236.18, 8.33, 11.56, 10.55, 0.000, 0.000, 0.000, 15:18:03.723
132, -115.30, 13.43, 13.68, 9.96, 0.000, 0.000, 0.000, 15:18:03.723
133, -198.68, 2.71, 12.26, 12.80, 0.000, 0.000, 0.000, 15:18:03.724
134, 182.29, 10.70, 9.51, 12.52, 0.000, 0.000, 0.000, 15:18:03.724
135, 72.86, 10.41, 8.22, 10.26, 0.000, 0.000, 0.000, 15:18:03.745
136, -246.34, 7.55, 14.96, 17.22, 0.000, 0.000, 0.000, 15:18:03.746
137, 81.88, 7.00, 9.64, 12.92, 0.000, 0.000, 0.000, 15:18:03.746
138, 185.63, 6.94, 13.50, 9.95, 0.000, 0.000, 0.000, 15:18:03.746
139, -231.80, 11.86, 12.37, 12.86, 0.000, 0.000, 0.000, 15:18:03.747
140, -60.91, 9.77, 8.45, 10.26, 0.000, 0.000, 0.000, 15:18:03.747
141, 235.42, 12.79, 14.67, 13.18, 0.000, 0.000, 0.000, 15:18:03.768
142, -98.48, 5.61, 12.01, 10.06, 0.000, 0.000, 0.000, 15:18:03.768
143, -201.50, 9.96, 9.48, 12.33, 0.000, 0.000, 0.000, 15:18:03.769
144, 191.06, 8.15, 12.59, 10.02, 0.000, 0.000, 0.000, 15:18:03.769
145, 73.52, 10.34, 7.47, 11.65, 0.000, 0.000, 0.000, 15:18:03.791
146, -263.68, 4.45, 12.17, 16.35, 0.000, 0.000, 0.000, 15:18:03.791
147, 80.72, 11.65, 14.44, 15.46, 0.000, 0.000, 0.000, 15:18:03.791
148, 186.16, 4.60, 12.42, 12.97, 0.000, 0.000, 0.000, 15:18:03.791
149, -226.52, 10.53, 7.43, 8.41, 0.000, 0.000, 0.000, 15:18:03.813
150, -59.20, 14.07, 11.05, 6.19, 0.000, 0.000, 0.000, 15:18:03.813
151, 228.12, 7.02, 10.08, 8.26, 0.000, 0.000, 0.000, 15:18:03.814
152, -92.90, 9.29, 10.05, 14.31, 0.000, 0.000, 0.000, 15:18:03.814
153, -186.02, 9.52, 12.55, 13.16, 0.000, 0.000, 0.000, 15:18:03.836
154, 168.00, 7.96, 10.57, 9.55, 0.000, 0.000, 0.000, 15:18:03.836
155, 76.69, 9.15, 11.60, 8.42, 0.000, 0.000, 0.000, 15:18:03.836
156, -260.84, 9.79, 13.16, 15.20, 0.000, 0.000, 0.000, 15:18:03.837
157, 78.52, 11.51, 6.84, 9.33, 0.000, 0.000, 0.000, 15:18:03.837
158, 189.24, 10.86, 12.20, 13.06, 0.000, 0.000, 0.000, 15:18:03.837
159, -221.87, 6.13, 12.82, 14.39, 0.000, 0.000, 0.000, 15:18:03.859
160, -36.28, 7.03, 10.86, 13.09, 0.000, 0.000, 0.000, 15:18:03.859
161, 214.90, 9.50, 10.36, 12.19, 0.000, 0.000, 0.000, 15:18:03.860
162, -107.48, 12.02, 15.53, 9.93, 0.000, 0.000, 0.000, 15:18:03.860
163, -196.37, 10.78, 13.57, 15.87, 0.000, 0.000, 0.000, 15:18:03.880
164, 177.36, 10.07, 12.12, 12.09, 0.000, 0.000, 0.000, 15:18:03.881
165, 69.75, 13.28, 11.00, 12.61, 0.000, 0.000, 0.000, 15:18:03.881
166, -262.63, 7.18, 11.71, 21.84, 0.000, 0.000, 0.000, 15:18:03.881
167, 73.79, 11.79, 8.42, 13.56, 0.000, 0.000, 0.000, 15:18:03.903
168, 196.74, 13.50, 10.06, 11.49, 0.000, 0.000, 0.000, 15:18:03.903
169, -238.83, 4.03, 14.12, 15.49, 0.000, 0.000, 0.000, 15:18:03.904
170, -56.50, 4.75, 12.16, 12.24, 0.000, 0.000, 0.000, 15:18:03.904
171, 219.27, 11.54, 11.52, 9.23, 0.000, 0.000, 0.000, 15:18:03.926
172, -103.87, 10.41, 11.27, 11.93, 0.000, 0.000, 0.000, 15:18:03.926
173, -192.83, 8.30, 14.36, 11.50, 0.000, 0.000, 0.000, 15:18:03.926
174, 167.01, 7.48, 9.34, 11.42, 0.000, 0.000, 0.000, 15:18:03.926
175, 70.20, 12.44, 10.54, 10.31, 0.000, 0.000, 0.000, 15:18:03.927
176, -255.54, 10.33, 14.64, 13.92, 0.000, 0.000, 0.000, 15:18:03.927
177, 69.33, 12.66, 8.37, 6.35, 0.000, 0.000, 0.000, 15:18:03.948
178, 202.68, 3.76, 11.16, 11.65, 0.000, 0.000, 0.000, 15:18:03.948
179, -233.00, 7.13, 10.71, 13.71, 0.000, 0.000, 0.000, 15:18:03.949
180, -56.00, 8.15, 4.45, 10.23, 0.000, 0.000, 0.000, 15:18:03.949
181, 226.08, 8.99, 10.65, 9.03, 0.000, 0.000, 0.000, 15:18:03.971
182, -118.04, 6.07, 7.93, 9.30, 0.000, 0.000, 0.000, 15:18:03.971
183, -192.06, 8.33, 11.49, 16.25, 0.000, 0.000, 0.000, 15:18:03.971
184, 169.86, 9.14, 7.96, 16.73, 0.000, 0.000, 0.000, 15:18:03.971
185, 62.57, 8.34, 11.00, 11.60, 0.000, 0.000, 0.000, 15:18:03.993
186, -243.86, 10.16, 14.18, 18.08, 0.000, 0.000, 0.000, 15:18:03.993
187, 104.16, 8.15, 7.45, 9.62, 0.000, 0.000, 0.000, 15:18:03.994
188, 217.28, 8.53, 11.04, 17.53, 0.000, 0.000, 0.000, 15:18:03.994
189, -216.67, 8.45, 12.28, 11.03, 0.000, 0.000, 0.000, 15:18:04.017
190, -37.68, 5.98, 12.81, 9.06, 0.000, 0.000, 0.000, 15:18:04.017
191, 270.59, 8.74, 11.62, 13.02, 0.000, 0.000, 0.000, 15:18:04.038
192, -86.36, 11.34, 11.23, 10.07, 0.000, 0.000, 0.000, 15:18:04.038
193, -190.24, 7.47, 12.88, 12.92, 0.000, 0.000, 0.000, 15:18:04.039
194, 160.12, 11.90, 10.97, 4.90, 0.000, 0.000, 0.000, 15:18:04.040
195, 34.72, 9.59, 8.70, 9.90, 0.000, 0.000, 0.000, 15:18:04.040
196, -279.72, 10.10, 15.60, 14.86, 0.000, 0.000, 0.000, 15:18:04.040
197, 54.26, 7.00, 7.95, 10.65, 0.000, 0.000, 0.000, 15:18:04.040
198, 171.50, 12.03, 9.01, 12.19, 0.000, 0.000, 0.000, 15:18:04.041
199, -263.58, 10.43, 15.71, 11.65, 0.000, 0.000, 0.000, 15:18:04.061
200, -84.56, 5.76, 9.27, 13.07, 0.000, 0.000, 0.000, 15:18:04.061
0, 231.44, 10.22, 14.69, 13.99, 0.000, 0.000, 0.000, 15:18:04.061
1, -89.50, 8.45, 11.46, 15.23, 0.000, 0.000, 0.000, 15:18:04.062
2, -190.52, 6.11, 11.55, 14.80, 0.000, 0.000, 0.000, 15:18:04.062
3, 194.79, 10.34, 11.61, 9.37, 0.000, 0.000, 0.000, 15:18:04.083
4, 70.37, 9.77, 11.16, 16.96, 0.000, 0.000, 0.000, 15:18:04.083
5, -254.43, 10.54, 14.67, 15.02, 0.000, 0.000, 0.000, 15:18:04.084
6, 48.66, 9.09, 10.06, 9.63, 0.000, 0.000, 0.000, 15:18:04.084
7, 204.65, 11.30, 9.91, 10.87, 0.000, 0.000, 0.000, 15:18:04.105
8, -187.64, 6.30, 13.40, 16.61, 0.000, 0.000, 0.000, 15:18:04.106
9, -51.74, 7.23, 8.97, 8.73, 0.000, 0.000, 0.000, 15:18:04.106
10, 237.28, 10.87, 8.09, 10.04, 0.000, 0.000, 0.000, 15:18:04.106
11, -103.84, 10.25, 11.34, 12.22, 0.000, 0.000, 0.000, 15:18:04.128
12, -191.18, 11.76, 8.87, 8.49, 0.000, 0.000, 0.000, 15:18:04.128
13, 204.54, 1.62, 9.45, 9.33, 0.000, 0.000, 0.000, 15:18:04.129
14, 63.51, 11.24, 9.49, 13.94, 0.000, 0.000, 0.000, 15:18:04.129
15, -253.85, 5.03, 12.83, 9.34, 0.000, 0.000, 0.000, 15:18:04.151
16, 77.21, 8.58, 9.59, 9.93, 0.000, 0.000, 0.000, 15:18:04.151
17, 190.99, 10.30, 15.92, 13.49, 0.000, 0.000, 0.000, 15:18:04.151
18, -225.13, 10.55, 14.94, 12.38, 0.000, 0.000, 0.000, 15:18:04.151
19, -71.91, 8.83, 8.51, 8.40, 0.000, 0.000, 0.000, 15:18:04.152
20, 239.34, 8.67, 11.78, 11.20, 0.000, 0.000, 0.000, 15:18:04.152
21, -92.34, 13.19, 10.57, 12.21, 0.000, 0.000, 0.000, 15:18:04.178
22, -196.77, 4.02, 14.31, 14.60, 0.000, 0.000, 0.000, 15:18:04.178
23, 192.12, 11.40, 11.70, 10.69, 0.000, 0.000, 0.000, 15:18:04.178
24, 59.23, 11.26, 14.03, 10.70, 0.000, 0.000, 0.000, 15:18:04.179
25, -252.63, 8.68, 16.68, 11.77, 0.000, 0.000, 0.000, 15:18:04.201
26, 87.50, 5.30, 8.94, 8.90, 0.000, 0.000, 0.000, 15:18:04.201
27, 187.89, 13.22, 13.90, 13.33, 0.000, 0.000, 0.000, 15:18:04.201
28, -230.16, 8.41, 15.45, 9.65, 0.000, 0.000, 0.000, 15:18:04.201
29, -51.36, 8.02, 8.60, 9.57, 0.000, 0.000, 0.000, 15:18:04.219
30, 226.61, 13.05, 10.47, 14.27, 0.000, 0.000, 0.000, 15:18:04.219
31, -85.56, 7.39, 10.39, 13.68, 0.000, 0.000, 0.000, 15:18:04.219
32, -204.69, 10.58, 13.84, 15.25, 0.000, 0.000, 0.000, 15:18:04.219
33, 213.00, 6.37, 8.96, 9.04, 0.000, 0.000, 0.000, 15:18:04.241
34, 83.11, 13.86, 8.95, 9.75, 0.000, 0.000, 0.000, 15:18:04.241
35, -256.40, 1.32, 16.57, 14.35, 0.000, 0.000, 0.000, 15:18:04.241
36, 90.26, 9.51, 8.93, 15.04, 0.000, 0.000, 0.000, 15:18:04.242
37, 201.97, 9.76, 14.05, 9.94, 0.000, 0.000, 0.000, 15:18:04.242
38, -229.24, 11.85, 11.67, 14.39, 0.000, 0.000, 0.000, 15:18:04.242
39, -51.12, 13.38, 8.28, 11.02, 0.000, 0.000, 0.000, 15:18:04.263
40, 235.56, 6.59, 9.27, 15.14, 0.000, 0.000, 0.000, 15:18:04.263
41, -90.04, 11.91, 13.38, 12.72, 0.000, 0.000, 0.000, 15:18:04.263
42, -191.80, 6.81, 15.68, 14.26, 0.000, 0.000, 0.000, 15:18:04.264
43, 174.81, 11.38, 11.23, 12.42, 0.000, 0.000, 0.000, 15:18:04.285
44, 70.14, 9.94, 8.90, 13.00, 0.000, 0.000, 0.000, 15:18:04.286
45, -253.30, 5.25, 15.00, 12.15, 0.000, 0.000, 0.000, 15:18:04.286
46, 86.66, 12.82, 7.28, 12.94, 0.000, 0.000, 0.000, 15:18:04.286
47, 186.96, 7.97, 11.83, 11.51, 0.000, 0.000, 0.000, 15:18:04.308
48, -240.82, 12.29, 8.96, 11.76, 0.000, 0.000, 0.000, 15:18:04.308
49, -54.60, 7.07, 11.38, 12.54, 0.000, 0.000, 0.000, 15:18:04.309
50, 220.90, 6.47, 14.66, 9.62, 0.000, 0.000, 0.000, 15:18:04.309
51, -105.42, 11.77, 6.92, 6.48, 0.000, 0.000, 0.000, 15:18:04.331
52, -207.29, 4.77, 8.79, 13.11, 0.000, 0.000, 0.000, 15:18:04.331
53, 172.86, 11.77, 11.35, 17.58, 0.000, 0.000, 0.000, 15:18:04.332
54, 62.47, 10.31, 9.37, 11.77, 0.000, 0.000, 0.000, 15:18:04.332
55, -267.62, 7.23, 11.95, 14.89, 0.000, 0.000, 0.000, 15:18:04.332
56, 71.62, 10.93, 8.44, 11.14, 0.000, 0.000, 0.000, 15:18:04.332
57, 181.89, 11.33, 10.40, 15.36, 0.000, 0.000, 0.000, 15:18:04.353
58, -235.95, 2.57, 15.20, 13.14, 0.000, 0.000, 0.000, 15:18:04.353
59, -61.57, 7.53, 5.89, 9.73, 0.000, 0.000, 0.000, 15:18:04.354
60, 213.61, 10.03, 12.41, 8.63, 0.000, 0.000, 0.000, 15:18:04.354
61, -107.19, 9.42, 12.67, 12.92, 0.000, 0.000, 0.000, 15:18:04.376
62, -179.99, 9.81, 11.04, 13.86, 0.000, 0.000, 0.000, 15:18:04.376
63, 151.93, 12.74, 8.59, 9.75, 0.000, 0.000, 0.000, 15:18:04.376
64, 32.27, 4.52, 10.31, 11.70, 0.000, 0.000, 0.000, 15:18:04.376
65, -228.06, 5.93, 14.74, 14.72, 0.000, 0.000, 0.000, 15:18:04.398
66, 90.43, 11.82, 8.52, 11.66, 0.000, 0.000, 0.000, 15:18:04.398
67, 194.50, 3.95, 11.32, 7.09, 0.000, 0.000, 0.000, 15:18:04.399
68, -236.09, 5.55, 13.86, 13.85, 0.000, 0.000, 0.000, 15:18:04.399
69, -67.86, 8.08, 8.49, 13.31, 0.000, 0.000, 0.000, 15:18:04.421
70, 210.91, 13.73, 14.77, 10.45, 0.000, 0.000, 0.000, 15:18:04.421
71, -99.46, 7.97, 10.27, 11.66, 0.000, 0.000, 0.000, 15:18:04.421
72, -185.16, 7.97, 13.96, 17.41, 0.000, 0.000, 0.000, 15:18:04.421
73, 161.37, 10.46, 11.34, 11.53, 0.000, 0.000, 0.000, 15:18:04.422
74, 75.79, 10.44, 12.19, 10.35, 0.000, 0.000, 0.000, 15:18:04.422
75, -253.71, 11.42, 10.13, 11.54, 0.000, 0.000, 0.000, 15:18:04.443
76, 60.12, 8.52, 14.25, 10.57, 0.000, 0.000, 0.000, 15:18:04.443
77, 191.97, 5.77, 12.80, 12.14, 0.000, 0.000, 0.000, 15:18:04.443
78, -227.03, 5.66, 10.70, 14.84, 0.000, 0.000, 0.000, 15:18:04.444
79, -69.28, 14.61, 7.79, 12.20, 0.000, 0.000, 0.000, 15:18:04.466
80, 216.11, 9.99, 11.10, 14.14, 0.000, 0.000, 0.000, 15:18:04.466
81, -105.66, 6.21, 12.09, 17.17, 0.000, 0.000, 0.000, 15:18:04.466
82, -172.15, 6.96, 9.67, 11.33, 0.000, 0.000, 0.000, 15:18:04.466
83, 167.29, 7.32, 10.30, 9.30, 0.000, 0.000, 0.000, 15:18:04.488
84, 60.88, 13.10, 10.88, 13.06, 0.000, 0.000, 0.000, 15:18:04.488
85, -246.25, 4.60, 12.14, 9.67, 0.000, 0.000, 0.000, 15:18:04.489
86, 66.82, 11.51, 9.65, 11.34, 0.000, 0.000, 0.000, 15:18:04.489
87, 205.18, 9.97, 12.67, 11.76, 0.000, 0.000, 0.000, 15:18:04.510
88, -222.87, 7.15, 12.84, 11.29, 0.000, 0.000, 0.000, 15:18:04.511
89, -66.96, 4.81, 9.53, 15.28, 0.000, 0.000, 0.000, 15:18:04.511
90, 230.02, 9.65, 11.25, 14.34, 0.000, 0.000, 0.000, 15:18:04.511
91, -111.97, 9.55, 12.43, 11.64, 0.000, 0.000, 0.000, 15:18:04.512
92, -195.53, 7.62, 11.47, 11.80, 0.000, 0.000, 0.000, 15:18:04.512
93, 180.14, 12.17, 8.49, 12.79, 0.000, 0.000, 0.000, 15:18:04.533
94, 62.29, 7.35, 11.03, 10.49, 0.000, 0.000, 0.000, 15:18:04.533
95, -247.91, 8.44, 12.05, 15.46, 0.000, 0.000, 0.000, 15:18:04.534
96, 71.82, 7.79, 11.14, 9.17, 0.000, 0.000, 0.000, 15:18:04.534
97, 197.18, 9.26, 12.98, 5.93, 0.000, 0.000, 0.000, 15:18:04.556
98, -216.62, 7.34, 10.71, 12.49, 0.000, 0.000, 0.000, 15:18:04.556
99, -72.46, 12.81, 11.70, 9.48, 0.000, 0.000, 0.000, 15:18:04.557
100, 227.16, 10.55, 12.65, 14.85, 0.000, 0.000, 0.000, 15:18:04.557
101, -118.49, 13.27, 10.19, 11.95, 0.000, 0.000, 0.000, 15:18:04.578
102, -201.26, 11.41, 12.54, 7.43, 0.000, 0.000, 0.000, 15:18:04.578
103, 210.04, 9.15, 10.37, 8.03, 0.000, 0.000, 0.000, 15:18:04.579
104, 87.16, 13.93, 11.70, 13.08, 0.000, 0.000, 0.000, 15:18:04.579
105, -254.99, 4.28, 11.66, 11.76, 0.000, 0.000, 0.000, 15:18:04.601
106, 78.46, 10.52, 11.03, 9.20, 0.000, 0.000, 0.000, 15:18:04.601
107, 187.23, 8.54, 8.27, 11.72, 0.000, 0.000, 0.000, 15:18:04.601
108, -230.56, 10.51, 10.95, 18.34, 0.000, 0.000, 0.000, 15:18:04.601
109, -56.31, 10.71, 12.10, 7.54, 0.000, 0.000, 0.000, 15:18:04.602
110, 215.72, 8.16, 13.70, 14.05, 0.000, 0.000, 0.000, 15:18:04.602
111, -99.35, 12.15, 11.46, 13.41, 0.000, 0.000, 0.000, 15:18:04.623
112, -179.54, 5.38, 10.91, 11.85, 0.000, 0.000, 0.000, 15:18:04.623
113, 172.13, 8.52, 8.97, 10.36, 0.000, 0.000, 0.000, 15:18:04.624
114, 75.53, 7.30, 11.69, 11.17, 0.000, 0.000, 0.000, 15:18:04.624
115, -262.53, 7.63, 16.06, 14.44, 0.000, 0.000, 0.000, 15:18:04.645
116, 59.15, 10.69, 8.08, 9.53, 0.000, 0.000, 0.000, 15:18:04.646
117, 206.42, 7.12, 9.56, 15.44, 0.000, 0.000, 0.000, 15:18:04.646
118, -229.32, 8.47, 9.92, 10.63, 0.000, 0.000, 0.000, 15:18:04.646
119, -74.30, 7.53, 8.85, 10.47, 0.000, 0.000, 0.000, 15:18:04.668
120, 238.26, 12.24, 10.68, 8.51, 0.000, 0.000, 0.000, 15:18:04.669
121, -103.74, 4.54, 12.07, 14.25, 0.000, 0.000, 0.000, 15:18:04.669
122, -216.48, 6.45, 12.80, 9.39, 0.000, 0.000, 0.000, 15:18:04.669
123, 183.00, 8.48, 11.91, 14.55, 0.000, 0.000, 0.000, 15:18:04.691
124, 78.72, 12.59, 9.76, 12.10, 0.000, 0.000, 0.000, 15:18:04.693
125, -264.01, 7.75, 16.14, 14.49, 0.000, 0.000, 0.000, 15:18:04.693
126, 84.06, 9.00, 11.66, 9.50, 0.000, 0.000, 0.000, 15:18:04.693
127, 193.53, 8.17, 11.92, 13.20, 0.000, 0.000, 0.000, 15:18:04.693
128, -251.10, 4.77, 13.93, 10.70, 0.000, 0.000, 0.000, 15:18:04.693
129, -58.12, 12.98, 12.61, 9.07, 0.000, 0.000, 0.000, 15:18:04.713
130, 239.89, 9.33, 12.55, 14.10, 0.000, 0.000, 0.000, 15:18:04.713
131, -107.27, 12.10, 11.26, 12.85, 0.000, 0.000, 0.000, 15:18:04.714
132, -203.67, 8.54, 14.16, 12.36, 0.000, 0.000, 0.000, 15:18:04.714
133, 186.99, 10.07, 10.35, 12.65, 0.000, 0.000, 0.000, 15:18:04.736
134, 65.93, 8.38, 14.89, 16.45, 0.000, 0.000, 0.000, 15:18:04.736
135, -260.48, 9.58, 12.63, 16.52, 0.000, 0.000, 0.000, 15:18:04.736
136, 74.19, 6.47, 8.22, 13.10, 0.000, 0.000, 0.000, 15:18:04.736
137, 197.31, 9.69, 14.34, 12.90, 0.000, 0.000, 0.000, 15:18:04.758
138, -226.10, 12.05, 12.55, 13.96, 0.000, 0.000, 0.000, 15:18:04.758
139, -65.87, 5.29, 9.29, 9.75, 0.000, 0.000, 0.000, 15:18:04.759
140, 212.44, 9.19, 9.87, 7.50, 0.000, 0.000, 0.000, 15:18:04.759
141, -104.06, 8.10, 11.72, 11.08, 0.000, 0.000, 0.000, 15:18:04.781
142, -180.27, 8.82, 10.59, 12.54, 0.000, 0.000, 0.000, 15:18:04.781
143, 178.30, 7.99, 8.94, 10.20, 0.000, 0.000, 0.000, 15:18:04.781
144, 65.84, 9.87, 10.55, 9.55, 0.000, 0.000, 0.000, 15:18:04.782
145, -237.91, 6.62, 15.21, 14.30, 0.000, 0.000, 0.000, 15:18:04.782
146, 60.90, 12.03, 8.04, 11.58, 0.000, 0.000, 0.000, 15:18:04.782
147, 199.44, 14.02, 9.70, 11.44, 0.000, 0.000, 0.000, 15:18:04.803
148, -219.24, 6.17, 10.34, 11.08, 0.000, 0.000, 0.000, 15:18:04.803
149, -79.76, 9.65, 11.01, 14.01, 0.000, 0.000, 0.000, 15:18:04.804
150, 225.42, 5.33, 8.40, 16.01, 0.000, 0.000, 0.000, 15:18:04.804
151, -96.01, 11.09, 7.05, 9.76, 0.000, 0.000, 0.000, 15:18:04.825
152, -198.67, 6.29, 14.25, 14.80, 0.000, 0.000, 0.000, 15:18:04.826
153, 191.80, 12.95, 8.66, 12.12, 0.000, 0.000, 0.000, 15:18:04.826
154, 95.78, 9.51, 7.48, 12.05, 0.000, 0.000, 0.000, 15:18:04.826
155, -250.89, 8.95, 15.58, 14.06, 0.000, 0.000, 0.000, 15:18:04.848
156, 72.36, 14.88, 9.29, 10.48, 0.000, 0.000, 0.000, 15:18:04.848
157, 198.24, 3.16, 12.44, 13.92, 0.000, 0.000, 0.000, 15:18:04.849
158, -237.06, 7.89, 15.54, 11.47, 0.000, 0.000, 0.000, 15:18:04.850
159, -73.48, 3.75, 12.07, 9.58, 0.000, 0.000, 0.000, 15:18:04.871
160, 222.34, 9.36, 14.82, 10.56, 0.000, 0.000, 0.000, 15:18:04.871
161, -120.95, 10.61, 10.84, 9.99, 0.000, 0.000, 0.000, 15:18:04.871
162, -192.48, 9.68, 8.20, 13.30, 0.000, 0.000, 0.000, 15:18:04.872
163, 208.94, 8.41, 11.04, 8.81, 0.000, 0.000, 0.000, 15:18:04.872
164, 76.74, 9.95, 11.96, 11.87, 0.000, 0.000, 0.000, 15:18:04.872
165, -257.87, 6.42, 11.64, 12.20, 0.000, 0.000, 0.000, 15:18:04.893
166, 67.01, 11.16, 8.69, 10.57, 0.000, 0.000, 0.000, 15:18:04.893
167, 190.71, 10.48, 13.03, 12.88, 0.000, 0.000, 0.000, 15:18:04.893
168, -227.05, 8.34, 11.02, 15.73, 0.000, 0.000, 0.000, 15:18:04.894
169, -67.42, 7.70, 10.82, 12.81, 0.000, 0.000, 0.000, 15:18:04.916
170, 235.78, 7.53, 11.17, 12.74, 0.000, 0.000, 0.000, 15:18:04.916
171, -98.63, 10.61, 13.80, 9.93, 0.000, 0.000, 0.000, 15:18:04.916
172, -189.73, 5.06, 13.30, 12.95, 0.000, 0.000, 0.000, 15:18:04.916
173, 175.87, 12.54, 9.42, 12.30, 0.000, 0.000, 0.000, 15:18:04.938
174, 68.24, 12.36, 10.60, 8.36, 0.000, 0.000, 0.000, 15:18:04.938
175, -255.33, 6.71, 13.87, 13.92, 0.000, 0.000, 0.000, 15:18:04.939
176, 59.26, 10.94, 9.22, 3.68, 0.000, 0.000, 0.000, 15:18:04.939
177, 196.82, 6.50, 10.51, 12.14, 0.000, 0.000, 0.000, 15:18:04.961
178, -221.97, 5.38, 9.71, 13.95, 0.000, 0.000, 0.000, 15:18:04.961
179, -65.34, 9.55, 9.18, 10.14, 0.000, 0.000, 0.000, 15:18:04.961
180, 229.96, 8.17, 11.02, 16.23, 0.000, 0.000, 0.000, 15:18:04.961
181, -87.21, 9.61, 11.55, 13.42, 0.000, 0.000, 0.000, 15:18:04.962
182, -194.88, 6.58, 11.43, 10.82, 0.000, 0.000, 0.000, 15:18:04.962
183, 207.05, 11.00, 9.03, 9.76, 0.000, 0.000, 0.000, 15:18:04.983
184, 98.34, 10.27, 11.13, 10.62, 0.000, 0.000, 0.000, 15:18:04.983
185, -239.99, 9.10, 12.38, 17.40, 0.000, 0.000, 0.000, 15:18:04.984
186, 101.76, 11.28, 9.58, 12.71, 0.000, 0.000, 0.000, 15:18:04.984
187, 205.53, 8.48, 10.46, 16.56, 0.000, 0.000, 0.000, 15:18:05.006
188, -266.47, 9.70, 11.05, 13.90, 0.000, 0.000, 0.000, 15:18:05.006
189, -66.66, 5.41, 10.04, 11.21, 0.000, 0.000, 0.000, 15:18:05.006
190, 220.10, 10.95, 11.00, 11.28, 0.000, 0.000, 0.000, 15:18:05.006
191, -119.36, 10.10, 7.50, 8.38, 0.000, 0.000, 0.000, 15:18:05.028
192, -210.97, 15.65, 13.20, 12.53, 0.000, 0.000, 0.000, 15:18:05.028
193, 155.52, 2.38, 6.50, 7.41, 0.000, 0.000, 0.000, 15:18:05.029
194, 49.35, 8.89, 12.56, 14.25, 0.000, 0.000, 0.000, 15:18:05.029
195, -268.04, 8.01, 15.86, 17.47, 0.000, 0.000, 0.000, 15:18:05.051
196, 54.41, 12.03, 6.88, 8.21, 0.000, 0.000, 0.000, 15:18:05.051
197, 195.71, 5.49, 8.41, 10.99, 0.000, 0.000, 0.000, 15:18:05.051
198, -203.43, 9.95, 14.35, 15.38, 0.000, 0.000, 0.000, 15:18:05.051
199, -62.69, 8.64, 11.82, 13.21, 0.000, 0.000, 0.000, 15:18:05.052
200, 231.81, 11.66, 14.20, 13.78, 0.000, 0.000, 0.000, 15:18:05.052
0, -86.87, 14.78, 16.06, 12.02, 0.000, 0.000, 0.000, 15:18:05.073
1, -193.63, 4.58, 11.58, 13.61, 0.000, 0.000, 0.000, 15:18:05.073
2, 186.28, 6.22, 10.93, 17.16, 0.000, 0.000, 0.000, 15:18:05.074
3, 83.72, 12.54, 12.52, 16.13, 0.000, 0.000, 0.000, 15:18:05.096
4, -261.93, 6.84, 11.71, 15.38, 0.000, 0.000, 0.000, 15:18:05.096
5, 66.92, 11.24, 11.17, 12.69, 0.000, 0.000, 0.000, 15:18:05.097
6, 201.10, 7.55, 15.25, 7.50, 0.000, 0.000, 0.000, 15:18:05.097
7, -219.45, 9.10, 15.72, 7.37, 0.000, 0.000, 0.000, 15:18:05.097
8, -64.78, 8.25, 7.42, 12.29, 0.000, 0.000, 0.000, 15:18:05.097
9, 229.19, 11.62, 12.22, 13.44, 0.000, 0.000, 0.000, 15:18:05.118
10, -95.37, 5.87, 10.02, 12.21, 0.000, 0.000, 0.000, 15:18:05.118
11, -185.65, 12.45, 9.89, 14.21, 0.000, 0.000, 0.000, 15:18:05.119
12, 165.11, 8.16, 8.27, 10.29, 0.000, 0.000, 0.000, 15:18:05.119
13, 60.49, 9.74, 13.20, 12.99, 0.000, 0.000, 0.000, 15:18:05.141
14, -230.19, 7.46, 16.56, 13.57, 0.000, 0.000, 0.000, 15:18:05.141
15, 73.12, 9.47, 6.87, 8.68, 0.000, 0.000, 0.000, 15:18:05.163
16, 202.82, 9.65, 10.10, 10.68, 0.000, 0.000, 0.000, 15:18:05.164
17, -220.41, 4.85, 11.25, 11.81, 0.000, 0.000, 0.000, 15:18:05.164
18, -83.33, 6.25, 10.13, 7.46, 0.000, 0.000, 0.000, 15:18:05.164
19, 247.90, 12.96, 8.07, 12.71, 0.000, 0.000, 0.000, 15:18:05.164
20, -82.20, 9.13, 14.05, 9.23, 0.000, 0.000, 0.000, 15:18:05.165
21, -198.42, 6.93, 11.13, 11.86, 0.000, 0.000, 0.000, 15:18:05.165
22, 183.18, 9.23, 8.93, 14.64, 0.000, 0.000, 0.000, 15:18:05.165
23, 75.68, 7.96, 11.71, 13.37, 0.000, 0.000, 0.000, 15:18:05.185
24, -243.03, 5.49, 11.81, 16.04, 0.000, 0.000, 0.000, 15:18:05.186
25, 84.66, 7.88, 9.98, 9.83, 0.000, 0.000, 0.000, 15:18:05.186
26, 188.38, 7.54, 14.50, 11.03, 0.000, 0.000, 0.000, 15:18:05.186
27, -212.96, 14.29, 12.02, 15.57, 0.000, 0.000, 0.000, 15:18:05.208
28, -53.11, 5.45, 8.84, 13.67, 0.000, 0.000, 0.000, 15:18:05.208
29, 229.63, 9.60, 9.35, 8.93, 0.000, 0.000, 0.000, 15:18:05.208
30, -86.66, 11.02, 9.55, 9.68, 0.000, 0.000, 0.000, 15:18:05.209
31, -206.13, 7.11, 15.39, 15.37, 0.000, 0.000, 0.000, 15:18:05.231
32, 187.90, 7.25, 5.83, 11.98, 0.000, 0.000, 0.000, 15:18:05.231
33, 87.37, 15.26, 8.60, 15.45, 0.000, 0.000, 0.000, 15:18:05.231
34, -258.55, 5.69, 13.52, 14.34, 0.000, 0.000, 0.000, 15:18:05.231
35, 64.58, 9.88, 13.31, 6.38, 0.000, 0.000, 0.000, 15:18:05.253
36, 203.72, 9.24, 9.29, 8.45, 0.000, 0.000, 0.000, 15:18:05.253
37, -212.81, 8.55, 16.48, 14.57, 0.000, 0.000, 0.000, 15:18:05.254
38, -59.99, 9.67, 12.16, 12.27, 0.000, 0.000, 0.000, 15:18:05.254
39, 231.69, 9.14, 9.41, 11.05, 0.000, 0.000, 0.000, 15:18:05.275
40, -103.68, 11.40, 9.64, 6.38, 0.000, 0.000, 0.000, 15:18:05.276
41, -189.83, 5.43, 11.34, 14.05, 0.000, 0.000, 0.000, 15:18:05.276
42, 160.09, 7.92, 7.45, 10.40, 0.000, 0.000, 0.000, 15:18:05.276
43, 59.04, 7.14, 10.84, 13.44, 0.000, 0.000, 0.000, 15:18:05.277
44, -249.33, 6.89, 12.38, 10.80, 0.000, 0.000, 0.000, 15:18:05.277
45, 55.81, 14.28, 7.40, 8.25, 0.000, 0.000, 0.000, 15:18:05.298
46, 177.98, 8.99, 14.69, 11.85, 0.000, 0.000, 0.000, 15:18:05.298
47, -241.84, 7.85, 18.40, 16.24, 0.000, 0.000, 0.000, 15:18:05.298
48, -73.99, 9.30, 11.07, 15.67, 0.000, 0.000, 0.000, 15:18:05.299
49, 229.19, 10.69, 10.98, 16.39, 0.000, 0.000, 0.000, 15:18:05.321
50, -92.24, 9.06, 12.80, 10.84, 0.000, 0.000, 0.000, 15:18:05.321
51, -203.79, 7.56, 11.42, 12.00, 0.000, 0.000, 0.000, 15:18:05.321
52, 167.09, 10.81, 6.68, 14.23, 0.000, 0.000, 0.000, 15:18:05.321
53, 71.00, 8.35, 7.54, 9.29, 0.000, 0.000, 0.000, 15:18:05.343
54, -262.71, 10.67, 14.07, 14.33, 0.000, 0.000, 0.000, 15:18:05.343
55, 50.20, 8.05, 8.17, 9.60, 0.000, 0.000, 0.000, 15:18:05.344
56, 197.74, 8.03, 8.21, 14.82, 0.000, 0.000, 0.000, 15:18:05.344
57, -219.38, 8.01, 11.56, 12.05, 0.000, 0.000, 0.000, 15:18:05.365
58, -75.16, 14.38, 9.08, 7.70, 0.000, 0.000, 0.000, 15:18:05.366
59, 219.58, 6.36, 12.11, 8.03, 0.000, 0.000, 0.000, 15:18:05.366
60, -93.40, 8.59, 11.21, 11.05, 0.000, 0.000, 0.000, 15:18:05.366
61, -199.42, 5.34, 14.87, 15.31, 0.000, 0.000, 0.000, 15:18:05.367
62, 158.93, 12.06, 10.88, 9.78, 0.000, 0.000, 0.000, 15:18:05.367
63, 66.98, 15.57, 12.57, 10.07, 0.000, 0.000, 0.000, 15:18:05.388
64, -266.32, 4.62, 14.70, 15.35, 0.000, 0.000, 0.000, 15:18:05.389
65, 55.35, 10.02, 9.30, 10.75, 0.000, 0.000, 0.000, 15:18:05.389
66, 217.45, 6.54, 13.30, 12.61, 0.000, 0.000, 0.000, 15:18:05.389
67, -223.99, 5.57, 14.65, 14.71, 0.000, 0.000, 0.000, 15:18:05.411
68, -74.07, 6.67, 12.28, 12.24, 0.000, 0.000, 0.000, 15:18:05.411
69, 234.29, 7.13, 10.41, 14.73, 0.000, 0.000, 0.000, 15:18:05.412
70, -98.87, 7.59, 11.03, 10.03, 0.000, 0.000, 0.000, 15:18:05.412
71, -203.77, 6.12, 12.01, 11.68, 0.000, 0.000, 0.000, 15:18:05.433
72, 169.01, 16.90, 11.95, 10.60, 0.000, 0.000, 0.000, 15:18:05.433
73, 66.14, 7.60, 10.66, 11.92, 0.000, 0.000, 0.000, 15:18:05.434
74, -264.90, 8.50, 14.67, 15.72, 0.000, 0.000, 0.000, 15:18:05.434
75, 82.72, 12.21, 7.64, 13.27, 0.000, 0.000, 0.000, 15:18:05.456
76, 209.63, 8.95, 11.37, 14.83, 0.000, 0.000, 0.000, 15:18:05.457
77, -224.91, 7.89, 13.25, 14.28, 0.000, 0.000, 0.000, 15:18:05.457
78, -69.37, 6.47, 11.32, 11.51, 0.000, 0.000, 0.000, 15:18:05.457
79, 242.02, 11.80, 9.37, 10.33, 0.000, 0.000, 0.000, 15:18:05.457
80, -99.35, 7.95, 8.72, 10.69, 0.000, 0.000, 0.000, 15:18:05.457
81, -203.14, 9.96, 13.83, 13.04, 0.000, 0.000, 0.000, 15:18:05.478
82, 181.11, 2.78, 8.11, 10.70, 0.000, 0.000, 0.000, 15:18:05.478
83, 60.45, 7.50, 10.36, 13.41, 0.000, 0.000, 0.000, 15:18:05.479
84, -258.32, 10.58, 11.66, 9.51, 0.000, 0.000, 0.000, 15:18:05.479
85, 80.71, 7.93, 9.94, 12.99, 0.000, 0.000, 0.000, 15:18:05.501
86, 197.72, 11.42, 13.52, 14.22, 0.000, 0.000, 0.000, 15:18:05.501
87, -228.87, 12.38, 16.26, 13.80, 0.000, 0.000, 0.000, 15:18:05.501
88, -65.79, 12.22, 6.13, 9.55, 0.000, 0.000, 0.000, 15:18:05.501
89, 234.31, 10.43, 9.34, 11.38, 0.000, 0.000, 0.000, 15:18:05.523
90, -94.65, 10.07, 9.71, 8.01, 0.000, 0.000, 0.000, 15:18:05.523
91, -207.39, 2.76, 13.91, 11.88, 0.000, 0.000, 0.000, 15:18:05.524
92, 172.30, 8.72, 7.20, 12.12, 0.000, 0.000, 0.000, 15:18:05.524
93, 81.26, 13.97, 10.70, 11.34, 0.000, 0.000, 0.000, 15:18:05.546
94, -261.40, 7.17, 13.79, 14.17, 0.000, 0.000, 0.000, 15:18:05.546
95, 71.34, 8.37, 7.72, 9.72, 0.000, 0.000, 0.000, 15:18:05.546
96, 195.75, 9.26, 12.66, 13.28, 0.000, 0.000, 0.000, 15:18:05.547
97, -233.37, 3.17, 11.20, 11.21, 0.000, 0.000, 0.000, 15:18:05.547
98, -64.08, 8.05, 12.42, 13.80, 0.000, 0.000, 0.000, 15:18:05.547
99, 206.76, 13.70, 11.48, 10.65, 0.000, 0.000, 0.000, 15:18:05.568
100, -80.80, 6.60, 9.43, 10.93, 0.000, 0.000, 0.000, 15:18:05.569
101, -195.19, 6.52, 12.95, 16.31, 0.000, 0.000, 0.000, 15:18:05.569
102, 172.24, 12.40, 10.58, 10.12, 0.000, 0.000, 0.000, 15:18:05.569
103, 81.79, 11.86, 9.63, 5.88, 0.000, 0.000, 0.000, 15:18:05.590
104, -254.77, 7.11, 16.18, 11.56, 0.000, 0.000, 0.000, 15:18:05.591
105, 63.73, 14.60, 8.45, 11.88, 0.000, 0.000, 0.000, 15:18:05.591
106, 198.41, 12.84, 10.86, 11.98, 0.000, 0.000, 0.000, 15:18:05.591
107, -221.24, 8.72, 14.66, 12.63, 0.000, 0.000, 0.000, 15:18:05.613
108, -69.85, 11.67, 9.60, 12.77, 0.000, 0.000, 0.000, 15:18:05.613
109, 235.14, 2.10, 12.05, 11.79, 0.000, 0.000, 0.000, 15:18:05.614
110, -95.24, 11.48, 7.95, 9.52, 0.000, 0.000, 0.000, 15:18:05.614
111, -200.54, 3.18, 13.88, 12.72, 0.000, 0.000, 0.000, 15:18:05.636
112, 176.04, 11.47, 9.80, 11.64, 0.000, 0.000, 0.000, 15:18:05.636
113, 70.13, 7.82, 12.07, 8.65, 0.000, 0.000, 0.000, 15:18:05.636
114, -261.23, 6.79, 15.04, 17.28, 0.000, 0.000, 0.000, 15:18:05.636
115, 68.22, 8.22, 7.68, 11.07, 0.000, 0.000, 0.000, 15:18:05.637
116, 196.33, 9.74, 10.80, 9.08, 0.000, 0.000, 0.000, 15:18:05.637
117, -223.21, 8.00, 12.36, 10.08, 0.000, 0.000, 0.000, 15:18:05.658
118, -71.80, 7.56, 12.27, 10.64, 0.000, 0.000, 0.000, 15:18:05.658
119, 217.08, 9.32, 10.78, 9.99, 0.000, 0.000, 0.000, 15:18:05.658
120, -104.99, 7.49, 12.12, 12.16, 0.000, 0.000, 0.000, 15:18:05.658
121, -182.90, 10.98, 12.98, 14.00, 0.000, 0.000, 0.000, 15:18:05.681
122, 188.87, 13.90, 11.08, 14.34, 0.000, 0.000, 0.000, 15:18:05.681
123, 81.91, 10.21, 12.42, 12.94, 0.000, 0.000, 0.000, 15:18:05.681
124, -277.31, 7.30, 14.01, 17.17, 0.000, 0.000, 0.000, 15:18:05.681
125, 66.09, 13.24, 7.89, 8.45, 0.000, 0.000, 0.000, 15:18:05.703
126, 214.13, 15.26, 10.14, 11.87, 0.000, 0.000, 0.000, 15:18:05.703
127, -239.46, 4.08, 11.35, 14.13, 0.000, 0.000, 0.000, 15:18:05.704
128, -67.83, 10.35, 7.10, 9.85, 0.000, 0.000, 0.000, 15:18:05.704
129, 237.68, 8.35, 9.89, 12.88, 0.000, 0.000, 0.000, 15:18:05.726
130, -95.96, 10.56, 15.08, 11.87, 0.000, 0.000, 0.000, 15:18:05.726
131, -192.57, 7.47, 15.82, 17.53, 0.000, 0.000, 0.000, 15:18:05.726
132, 166.00, 8.41, 10.60, 11.08, 0.000, 0.000, 0.000, 15:18:05.726
133, 74.17, 10.97, 9.47, 12.16, 0.000, 0.000, 0.000, 15:18:05.727
134, -256.02, 8.98, 12.95, 11.60, 0.000, 0.000, 0.000, 15:18:05.727
135, 62.08, 12.78, 11.28, 11.34, 0.000, 0.000, 0.000, 15:18:05.748
136, 202.34, 2.68, 12.28, 15.10, 0.000, 0.000, 0.000, 15:18:05.748
137, -217.29, 8.86, 15.69, 14.13, 0.000, 0.000, 0.000, 15:18:05.748
138, -83.97, 7.75, 6.65, 11.11, 0.000, 0.000, 0.000, 15:18:05.749
139, 236.04, 9.65, 9.42, 11.28, 0.000, 0.000, 0.000, 15:18:05.771
140, -91.35, 5.80, 13.57, 12.86, 0.000, 0.000, 0.000, 15:18:05.771
141, -195.15, 7.86, 14.46, 13.97, 0.000, 0.000, 0.000, 15:18:05.771
142, 174.61, 12.09, 10.93, 13.10, 0.000, 0.000, 0.000, 15:18:05.771
143, 69.03, 9.03, 10.49, 11.99, 0.000, 0.000, 0.000, 15:18:05.793
144, -256.94, 11.13, 14.64, 12.85, 0.000, 0.000, 0.000, 15:18:05.793
145, 58.07, 4.68, 10.56, 12.86, 0.000, 0.000, 0.000, 15:18:05.793
146, 206.46, 9.92, 13.47, 9.85, 0.000, 0.000, 0.000, 15:18:05.793
147, -210.95, 7.40, 11.88, 10.18, 0.000, 0.000, 0.000, 15:18:05.816
148, -70.40, 11.19, 13.03, 11.71, 0.000, 0.000, 0.000, 15:18:05.816
149, 208.77, 6.52, 8.53, 12.24, 0.000, 0.000, 0.000, 15:18:05.816
150, -88.30, 11.34, 10.07, 8.51, 0.000, 0.000, 0.000, 15:18:05.816
151, -172.16, 7.00, 12.64, 14.30, 0.000, 0.000, 0.000, 15:18:05.817
152, 168.46, 10.82, 8.25, 7.69, 0.000, 0.000, 0.000, 15:18:05.817
153, 85.58, 13.45, 10.25, 14.68, 0.000, 0.000, 0.000, 15:18:05.838
154, -251.18, 7.03, 10.54, 18.22, 0.000, 0.000, 0.000, 15:18:05.838
155, 70.22, 9.60, 10.27, 10.60, 0.000, 0.000, 0.000, 15:18:05.839
156, 200.92, 6.73, 13.03, 13.26, 0.000, 0.000, 0.000, 15:18:05.839
157, -223.83, 9.19, 12.14, 11.93, 0.000, 0.000, 0.000, 15:18:05.861
158, -75.02, 8.78, 12.24, 10.68, 0.000, 0.000, 0.000, 15:18:05.861
159, 229.45, 12.47, 12.66, 10.21, 0.000, 0.000, 0.000, 15:18:05.862
160, -91.77, 11.96, 8.71, 12.06, 0.000, 0.000, 0.000, 15:18:05.862
161, -202.66, 5.76, 8.96, 16.29, 0.000, 0.000, 0.000, 15:18:05.883
162, 165.95, 14.18, 7.40, 10.47, 0.000, 0.000, 0.000, 15:18:05.883
163, 77.24, 5.65, 11.93, 11.92, 0.000, 0.000, 0.000, 15:18:05.884
164, -252.79, 8.46, 13.82, 8.96, 0.000, 0.000, 0.000, 15:18:05.884
165, 58.99, 8.25, 9.84, 8.34, 0.000, 0.000, 0.000, 15:18:05.905
166, 202.17, 10.48, 11.92, 12.53, 0.000, 0.000, 0.000, 15:18:05.906
167, -231.93, 7.87, 8.80, 11.11, 0.000, 0.000, 0.000, 15:18:05.906
168, -82.85, 7.57, 8.93, 13.27, 0.000, 0.000, 0.000, 15:18:05.906
169, 250.90, 10.60, 9.56, 10.20, 0.000, 0.000, 0.000, 15:18:05.907
170, -98.72, 9.79, 9.62, 7.94, 0.000, 0.000, 0.000, 15:18:05.907
171, -204.10, 9.99, 14.23, 14.08, 0.000, 0.000, 0.000, 15:18:05.928
172, 185.24, 8.32, 11.61, 10.91, 0.000, 0.000, 0.000, 15:18:05.929
173, 79.56, 10.70, 11.87, 14.54, 0.000, 0.000, 0.000, 15:18:05.929
174, -263.84, 6.45, 17.69, 15.34, 0.000, 0.000, 0.000, 15:18:05.929
175, 57.38, 11.67, 8.28, 9.43, 0.000, 0.000, 0.000, 15:18:05.951
176, 203.22, 4.40, 9.31, 11.81, 0.000, 0.000, 0.000, 15:18:05.951
177, -215.14, 8.84, 8.08, 13.71, 0.000, 0.000, 0.000, 15:18:05.951
178, -78.90, 9.74, 12.97, 6.51, 0.000, 0.000, 0.000, 15:18:05.952
179, 239.33, 5.90, 10.88, 14.67, 0.000, 0.000, 0.000, 15:18:05.973
180, -81.69, 12.66, 12.75, 10.43, 0.000, 0.000, 0.000, 15:18:05.973
181, -196.83, 2.64, 14.42, 13.17, 0.000, 0.000, 0.000, 15:18:05.973
182, 183.26, 8.35, 8.41, 9.70, 0.000, 0.000, 0.000, 15:18:05.974
183, 103.38, 8.87, 11.82, 11.93, 0.000, 0.000, 0.000, 15:18:05.996
184, -239.10, 6.10, 14.00, 12.21, 0.000, 0.000, 0.000, 15:18:05.996
185, 91.82, 6.05, 6.02, 13.09, 0.000, 0.000, 0.000, 15:18:05.996
186, 225.95, 8.60, 6.55, 13.79, 0.000, 0.000, 0.000, 15:18:05.996
187, -230.88, 5.78, 13.22, 12.69, 0.000, 0.000, 0.000, 15:18:05.997
188, -89.54, 12.10, 8.77, 8.83, 0.000, 0.000, 0.000, 15:18:05.997
189, 205.34, 10.46, 10.36, 16.41, 0.000, 0.000, 0.000, 15:18:06.018
190, -118.32, 6.33, 8.25, 13.94, 0.000, 0.000, 0.000, 15:18:06.018
191, -218.62, 10.82, 11.19, 9.91, 0.000, 0.000, 0.000, 15:18:06.019
192, 148.09, 10.81, 11.21, 14.54, 0.000, 0.000, 0.000, 15:18:06.019
193, 48.54, 9.15, 12.79, 12.47, 0.000, 0.000, 0.000, 15:18:06.041
194, -289.05, 11.66, 15.89, 12.85, 0.000, 0.000, 0.000, 15:18:06.041
195, 72.84, 9.13, 11.72, 10.48, 0.000, 0.000, 0.000, 15:18:06.041
196, 224.21, 10.80, 14.76, 12.40, 0.000, 0.000, 0.000, 15:18:06.041
197, -219.83, 7.44, 12.53, 13.47, 0.000, 0.000, 0.000, 15:18:06.063
198, -72.75, 14.07, 11.69, 10.00, 0.000, 0.000, 0.000, 15:18:06.063
199, 246.88, 0.96, 11.97, 10.60, 0.000, 0.000, 0.000, 15:18:06.063
200, -93.15, 7.81, 11.70, 11.78, 0.000, 0.000, 0.000, 15:18:06.064
0, -205.80, 9.34, 10.59, 13.83, 0.000, 0.000, 0.000, 15:18:06.064
1, 189.00, 8.47, 11.10, 12.86, 0.000, 0.000, 0.000, 15:18:06.086
2, 77.64, 6.10, 8.40, 9.11, 0.000, 0.000, 0.000, 15:18:06.086
3, -258.29, 7.21, 13.68, 11.76, 0.000, 0.000, 0.000, 15:18:06.086
4, 71.71, 14.97, 7.63, 12.47, 0.000, 0.000, 0.000, 15:18:06.087
5, 189.83, 6.26, 13.83, 15.46, 0.000, 0.000, 0.000, 15:18:06.108
6, -221.94, 14.74, 9.43, 8.55, 0.000, 0.000, 0.000, 15:18:06.108
7, -52.33, 0.71, 7.54, 12.36, 0.000, 0.000, 0.000, 15:18:06.108
8, 240.29, 8.58, 11.35, 9.53, 0.000, 0.000, 0.000, 15:18:06.109
9, -82.55, 6.19, 11.15, 12.07, 0.000, 0.000, 0.000, 15:18:06.130
10, -203.76, 7.94, 13.85, 14.04, 0.000, 0.000, 0.000, 15:18:06.131
11, 176.88, 6.60, 11.31, 11.95, 0.000, 0.000, 0.000, 15:18:06.131
12, 88.11, 13.43, 12.18, 9.48, 0.000, 0.000, 0.000, 15:18:06.131
13, -259.26, 3.60, 10.36, 11.71, 0.000, 0.000, 0.000, 15:18:06.132
14, 74.55, 7.35, 9.74, 9.01, 0.000, 0.000, 0.000, 15:18:06.132
15, 213.21, 15.18, 11.43, 10.46, 0.000, 0.000, 0.000, 15:18:06.153
16, -219.82, 4.81, 8.13, 12.96, 0.000, 0.000, 0.000, 15:18:06.153
17, -67.05, 9.70, 10.78, 10.79, 0.000, 0.000, 0.000, 15:18:06.154
18, 234.02, 8.57, 7.89, 12.47, 0.000, 0.000, 0.000, 15:18:06.154
19, -88.46, 8.24, 11.65, 9.99, 0.000, 0.000, 0.000, 15:18:06.176
20, -196.88, 5.29, 13.25, 10.08, 0.000, 0.000, 0.000, 15:18:06.176
21, 172.36, 9.20, 10.75, 14.21, 0.000, 0.000, 0.000, 15:18:06.176
22, 80.40, 13.16, 8.52, 13.21, 0.000, 0.000, 0.000, 15:18:06.176
23, -255.01, 5.23, 12.98, 17.84, 0.000, 0.000, 0.000, 15:18:06.198
24, 51.03, 14.33, 13.06, 13.45, 0.000, 0.000, 0.000, 15:18:06.198
25, 208.51, 9.19, 14.63, 9.47, 0.000, 0.000, 0.000, 15:18:06.199
26, -216.36, 9.08, 12.46, 13.89, 0.000, 0.000, 0.000, 15:18:06.199
27, -66.91, 10.65, 10.33, 12.78, 0.000, 0.000, 0.000, 15:18:06.220
28, 253.76, 9.33, 12.28, 11.93, 0.000, 0.000, 0.000, 15:18:06.221
29, -92.04, 10.03, 10.88, 13.46, 0.000, 0.000, 0.000, 15:18:06.221
30, -186.74, 6.28, 14.06, 12.78, 0.000, 0.000, 0.000, 15:18:06.221
31, 166.06, 12.46, 12.75, 13.90, 0.000, 0.000, 0.000, 15:18:06.222
32, 72.07, 12.31, 8.44, 14.25, 0.000, 0.000, 0.000, 15:18:06.222
33, -233.68, 10.80, 15.59, 14.57, 0.000, 0.000, 0.000, 15:18:06.243
34, 73.65, 7.77, 8.59, 10.15, 0.000, 0.000, 0.000, 15:18:06.243
35, 188.53, 11.06, 12.10, 10.53, 0.000, 0.000, 0.000, 15:18:06.244
36, -212.77, 10.73, 12.46, 11.24, 0.000, 0.000, 0.000, 15:18:06.244
37, -70.63, 10.43, 13.31, 8.72, 0.000, 0.000, 0.000, 15:18:06.266
38, 225.60, 9.10, 8.56, 13.55, 0.000, 0.000, 0.000, 15:18:06.266
39, -75.91, 12.14, 8.25, 11.23, 0.000, 0.000, 0.000, 15:18:06.266
40, -201.82, 5.16, 11.83, 14.08, 0.000, 0.000, 0.000, 15:18:06.266
41, 170.96, 12.56, 13.01, 11.89, 0.000, 0.000, 0.000, 15:18:06.288
42, 81.41, 9.87, 10.52, 9.87, 0.000, 0.000, 0.000, 15:18:06.288
43, -270.11, 4.28, 12.77, 17.18, 0.000, 0.000, 0.000, 15:18:06.288
44, 47.05, 11.76, 5.71, 9.59, 0.000, 0.000, 0.000, 15:18:06.289
45, 187.02, 11.83, 11.95, 11.54, 0.000, 0.000, 0.000, 15:18:06.311
46, -220.20, 6.26, 10.05, 10.82, 0.000, 0.000, 0.000, 15:18:06.311
47, -85.61, 8.56, 8.92, 10.58, 0.000, 0.000, 0.000, 15:18:06.311
48, 226.95, 12.96, 10.48, 15.32, 0.000, 0.000, 0.000, 15:18:06.311
49, -103.87, 6.20, 7.87, 11.43, 0.000, 0.000, 0.000, 15:18:06.312
50, -208.96, 9.40, 13.27, 12.00, 0.000, 0.000, 0.000, 15:18:06.312
51, 163.13, 12.39, 12.49, 11.88, 0.000, 0.000, 0.000, 15:18:06.333
52, 77.08, 6.15, 13.30, 13.48, 0.000, 0.000, 0.000, 15:18:06.333
53, -272.35, 6.88, 14.01, 14.12, 0.000, 0.000, 0.000, 15:18:06.334
54, 63.09, 9.29, 8.04, 6.32, 0.000, 0.000, 0.000, 15:18:06.334
55, 200.17, 7.09, 13.53, 10.29, 0.000, 0.000, 0.000, 15:18:06.356
56, -226.25, 7.14, 9.52, 13.96, 0.000, 0.000, 0.000, 15:18:06.356
57, -87.97, 9.85, 12.39, 15.20, 0.000, 0.000, 0.000, 15:18:06.356
58, 216.75, 6.46, 11.90, 13.72, 0.000, 0.000, 0.000, 15:18:06.356
59, -110.67, 13.33, 8.88, 11.12, 0.000, 0.000, 0.000, 15:18:06.378
60, -188.14, 11.27, 14.15, 9.72, 0.000, 0.000, 0.000, 15:18:06.378
61, 183.65, 0.90, 7.32, 11.40, 0.000, 0.000, 0.000, 15:18:06.379
62, 86.05, 8.35, 14.70, 9.68, 0.000, 0.000, 0.000, 15:18:06.379
63, -267.32, 8.58, 13.61, 14.05, 0.000, 0.000, 0.000, 15:18:06.401
64, 54.27, 11.45, 8.96, 7.23, 0.000, 0.000, 0.000, 15:18:06.401
65, 199.51, 5.08, 8.12, 15.00, 0.000, 0.000, 0.000, 15:18:06.401
66, -226.32, 10.96, 12.17, 15.41, 0.000, 0.000, 0.000, 15:18:06.401
67, -66.25, 9.27, 11.37, 15.30, 0.000, 0.000, 0.000, 15:18:06.402
68, 225.92, 6.25, 8.79, 13.01, 0.000, 0.000, 0.000, 15:18:06.402
69, -94.65, 12.18, 11.98, 9.49, 0.000, 0.000, 0.000, 15:18:06.423
70, -197.88, 7.23, 12.04, 14.50, 0.000, 0.000, 0.000, 15:18:06.423
71, 178.94, 8.76, 12.01, 11.06, 0.000, 0.000, 0.000, 15:18:06.445
72, 84.76, 11.90, 9.24, 12.15, 0.000, 0.000, 0.000, 15:18:06.446
73, -268.17, 7.34, 16.18, 16.29, 0.000, 0.000, 0.000, 15:18:06.446
74, 58.55, 10.59, 11.83, 14.30, 0.000, 0.000, 0.000, 15:18:06.446
75, 206.73, 7.40, 10.94, 17.07, 0.000, 0.000, 0.000, 15:18:06.447
76, -227.14, 10.10, 11.79, 10.23, 0.000, 0.000, 0.000, 15:18:06.447
77, -89.11, 7.82, 12.54, 8.77, 0.000, 0.000, 0.000, 15:18:06.468
78, 230.99, 13.63, 9.95, 11.31, 0.000, 0.000, 0.000, 15:18:06.468
79, -85.17, 6.83, 11.77, 9.40, 0.000, 0.000, 0.000, 15:18:06.469
80, -203.78, 9.86, 12.96, 14.19, 0.000, 0.000, 0.000, 15:18:06.469
81, 174.24, 10.26, 8.21, 10.97, 0.000, 0.000, 0.000, 15:18:06.491
82, 81.94, 11.37, 8.83, 10.37, 0.000, 0.000, 0.000, 15:18:06.491
83, -271.92, 4.03, 12.35, 14.94, 0.000, 0.000, 0.000, 15:18:06.491
84, 43.75, 7.34, 8.63, 8.26, 0.000, 0.000, 0.000, 15:18:06.491
85, 216.07, 6.61, 11.08, 9.32, 0.000, 0.000, 0.000, 15:18:06.491
86, -218.02, 9.38, 13.26, 13.03, 0.000, 0.000, 0.000, 15:18:06.492
87, -74.56, 9.34, 7.72, 9.28, 0.000, 0.000, 0.000, 15:18:06.513
88, 234.57, 7.05, 7.02, 13.15, 0.000, 0.000, 0.000, 15:18:06.513
89, -86.24, 8.53, 12.46, 13.93, 0.000, 0.000, 0.000, 15:18:06.514
90, -197.38, 9.00, 16.66, 12.72, 0.000, 0.000, 0.000, 15:18:06.514
91, 168.82, 8.39, 7.70, 11.61, 0.000, 0.000, 0.000, 15:18:06.536
92, 86.11, 10.47, 13.52, 8.90, 0.000, 0.000, 0.000, 15:18:06.536
93, -270.74, 4.68, 10.85, 14.78, 0.000, 0.000, 0.000, 15:18:06.536
94, 58.61, 7.41, 6.83, 11.28, 0.000, 0.000, 0.000, 15:18:06.536
95, 211.76, 10.07, 14.50, 13.92, 0.000, 0.000, 0.000, 15:18:06.558
96, -223.09, 10.89, 12.81, 10.56, 0.000, 0.000, 0.000, 15:18:06.558
97, -75.77, 0.22, 10.98, 10.79, 0.000, 0.000, 0.000, 15:18:06.558
98, 227.94, 10.40, 12.12, 9.94, 0.000, 0.000, 0.000, 15:18:06.558
99, -95.27, 7.34, 10.45, 13.95, 0.000, 0.000, 0.000, 15:18:06.580
100, -214.28, 8.68, 15.29, 15.92, 0.000, 0.000, 0.000, 15:18:06.581
101, 177.88, 10.81, 9.65, 8.07, 0.000, 0.000, 0.000, 15:18:06.581
102, 90.69, 11.22, 11.75, 12.20, 0.000, 0.000, 0.000, 15:18:06.581
103, -269.54, 10.05, 14.77, 16.39, 0.000, 0.000, 0.000, 15:18:06.582
104, 63.53, 7.72, 7.91, 13.88, 0.000, 0.000, 0.000, 15:18:06.582
105, 207.27, 13.24, 12.31, 11.81, 0.000, 0.000, 0.000, 15:18:06.603
106, -209.08, 6.25, 10.33, 12.99, 0.000, 0.000, 0.000, 15:18:06.603
107, -84.96, 4.12, 11.52, 8.81, 0.000, 0.000, 0.000, 15:18:06.604
108, 235.72, 8.62, 13.07, 13.77, 0.000, 0.000, 0.000, 15:18:06.604
109, -92.59, 12.03, 8.47, 10.48, 0.000, 0.000, 0.000, 15:18:06.626
110, -213.36, 7.10, 12.97, 15.64, 0.000, 0.000, 0.000, 15:18:06.626
111, 185.08, 12.23, 8.59, 10.96, 0.000, 0.000, 0.000, 15:18:06.627
112, 99.64, 10.73, 11.07, 7.26, 0.000, 0.000, 0.000, 15:18:06.627
113, -260.82, 4.44, 14.82, 11.83, 0.000, 0.000, 0.000, 15:18:06.648
114, 62.64, 17.08, 7.23, 9.29, 0.000, 0.000, 0.000, 15:18:06.648
115, 195.68, 5.56, 10.11, 13.53, 0.000, 0.000, 0.000, 15:18:06.649
116, -218.88, 2.60, 12.66, 13.92, 0.000, 0.000, 0.000, 15:18:06.649
117, -88.83, 6.21, 10.19, 13.77, 0.000, 0.000, 0.000, 15:18:06.670
118, 215.20, 15.43, 10.36, 11.08, 0.000, 0.000, 0.000, 15:18:06.671
119, -75.91, 10.14, 11.26, 11.05, 0.000, 0.000, 0.000, 15:18:06.671
120, -192.51, 8.58, 12.82, 10.59, 0.000, 0.000, 0.000, 15:18:06.671
121, 166.26, 10.51, 10.47, 14.29, 0.000, 0.000, 0.000, 15:18:06.671
122, 65.71, 8.02, 10.68, 11.08, 0.000, 0.000, 0.000, 15:18:06.672
123, -251.62, 9.18, 14.55, 10.76, 0.000, 0.000, 0.000, 15:18:06.693
124, 82.07, 6.80, 9.28, 9.62, 0.000, 0.000, 0.000, 15:18:06.693
125, 208.00, 8.49, 12.97, 11.44, 0.000, 0.000, 0.000, 15:18:06.694
126, -215.73, 9.22, 13.37, 10.43, 0.000, 0.000, 0.000, 15:18:06.694
127, -82.88, 10.01, 9.55, 13.85, 0.000, 0.000, 0.000, 15:18:06.716
128, 222.91, 8.41, 11.09, 12.05, 0.000, 0.000, 0.000, 15:18:06.716
129, -92.66, 10.07, 10.91, 13.24, 0.000, 0.000, 0.000, 15:18:06.716
130, -189.85, 8.77, 13.39, 16.46, 0.000, 0.000, 0.000, 15:18:06.716
131, 168.44, 8.74, 15.30, 12.74, 0.000, 0.000, 0.000, 15:18:06.738
132, 83.50, 16.33, 12.36, 7.58, 0.000, 0.000, 0.000, 15:18:06.738
133, -263.27, 4.05, 14.21, 12.13, 0.000, 0.000, 0.000, 15:18:06.739
134, 61.05, 12.71, 10.78, 12.89, 0.000, 0.000, 0.000, 15:18:06.739
135, 198.08, 9.01, 9.62, 9.04, 0.000, 0.000, 0.000, 15:18:06.761
136, -208.63, 9.46, 11.15, 11.18, 0.000, 0.000, 0.000, 15:18:06.761
137, -79.04, 8.98, 10.17, 11.79, 0.000, 0.000, 0.000, 15:18:06.762
138, 235.68, 9.09, 10.87, 14.02, 0.000, 0.000, 0.000, 15:18:06.763
139, -95.39, 8.58, 8.93, 10.73, 0.000, 0.000, 0.000, 15:18:06.763
140, -229.53, 8.06, 8.20, 11.01, 0.000, 0.000, 0.000, 15:18:06.763
141, 193.11, 13.70, 11.42, 11.21, 0.000, 0.000, 0.000, 15:18:06.784
142, 93.03, 4.33, 14.11, 13.77, 0.000, 0.000, 0.000, 15:18:06.784
143, -267.38, 4.46, 12.44, 11.96, 0.000, 0.000, 0.000, 15:18:06.784
144, 60.10, 9.47, 13.71, 10.73, 0.000, 0.000, 0.000, 15:18:06.784
145, 209.78, 7.28, 9.01, 11.34, 0.000, 0.000, 0.000, 15:18:06.806
146, -215.14, 10.84, 10.93, 10.89, 0.000, 0.000, 0.000, 15:18:06.806
147, -75.50, 7.69, 13.10, 9.69, 0.000, 0.000, 0.000, 15:18:06.806
148, 237.51, 13.03, 10.71, 12.00, 0.000, 0.000, 0.000, 15:18:06.806
149, -89.42, 10.09, 12.29, 12.03, 0.000, 0.000, 0.000, 15:18:06.828
150, -209.07, 9.97, 12.90, 13.51, 0.000, 0.000, 0.000, 15:18:06.828
151, 157.45, 4.56, 11.84, 12.69, 0.000, 0.000, 0.000, 15:18:06.828
152, 85.22, 9.02, 9.00, 13.08, 0.000, 0.000, 0.000, 15:18:06.828
153, -260.76, 4.86, 13.21, 18.04, 0.000, 0.000, 0.000, 15:18:06.851
154, 65.18, 9.88, 7.17, 9.42, 0.000, 0.000, 0.000, 15:18:06.851
155, 209.36, 8.59, 9.73, 10.89, 0.000, 0.000, 0.000, 15:18:06.851
156, -221.16, 12.58, 12.81, 13.67, 0.000, 0.000, 0.000, 15:18:06.851
157, -77.79, 5.39, 8.33, 10.92, 0.000, 0.000, 0.000, 15:18:06.851
158, 217.80, 8.54, 8.83, 9.07, 0.000, 0.000, 0.000, 15:18:06.852
159, -82.91, 9.35, 10.17, 10.86, 0.000, 0.000, 0.000, 15:18:06.873
160, -213.39, 4.21, 14.54, 14.59, 0.000, 0.000, 0.000, 15:18:06.873
161, 162.41, 9.77, 13.61, 11.92, 0.000, 0.000, 0.000, 15:18:06.873
162, 92.86, 9.91, 10.24, 13.58, 0.000, 0.000, 0.000, 15:18:06.873
163, -248.52, 6.70, 11.19, 14.59, 0.000, 0.000, 0.000, 15:18:06.895
164, 56.42, 10.24, 9.45, 11.39, 0.000, 0.000, 0.000, 15:18:06.896
165, 205.67, 7.10, 12.51, 13.72, 0.000, 0.000, 0.000, 15:18:06.896
166, -212.04, 8.29, 15.18, 11.77, 0.000, 0.000, 0.000, 15:18:06.896
167, -67.37, 9.54, 10.25, 12.31, 0.000, 0.000, 0.000, 15:18:06.918
168, 232.96, 15.88, 7.75, 9.20, 0.000, 0.000, 0.000, 15:18:06.918
169, -93.76, 2.02, 13.72, 11.25, 0.000, 0.000, 0.000, 15:18:06.918
170, -199.87, 8.31, 14.99, 11.82, 0.000, 0.000, 0.000, 15:18:06.919
171, 165.89, 5.53, 10.04, 11.37, 0.000, 0.000, 0.000, 15:18:06.940
172, 83.82, 11.23, 10.23, 11.05, 0.000, 0.000, 0.000, 15:18:06.941
173, -263.82, 6.75, 16.65, 19.74, 0.000, 0.000, 0.000, 15:18:06.941
174, 68.11, 9.29, 7.32, 8.47, 0.000, 0.000, 0.000, 15:18:06.941
175, 180.33, 7.89, 11.29, 11.78, 0.000, 0.000, 0.000, 15:18:06.942
176, -229.93, 10.31, 9.62, 10.75, 0.000, 0.000, 0.000, 15:18:06.942
177, -68.85, 15.01, 6.20, 12.22, 0.000, 0.000, 0.000, 15:18:06.963
178, 239.70, 8.03, 10.26, 10.15, 0.000, 0.000, 0.000, 15:18:06.963
179, -90.09, 12.73, 10.85, 11.28, 0.000, 0.000, 0.000, 15:18:06.964
180, -204.70, 7.81, 11.42, 12.94, 0.000, 0.000, 0.000, 15:18:06.964
181, 165.74, 9.48, 7.87, 14.72, 0.000, 0.000, 0.000, 15:18:06.985
182, 80.02, 7.53, 12.31, 13.89, 0.000, 0.000, 0.000, 15:18:06.986
183, -261.05, 6.17, 10.34, 13.58, 0.000, 0.000, 0.000, 15:18:06.986
184, 50.99, 11.84, 7.93, 9.27, 0.000, 0.000, 0.000, 15:18:06.986
185, 200.34, 10.56, 11.88, 10.33, 0.000, 0.000, 0.000, 15:18:07.008
186, -214.97, 10.75, 12.06, 12.47, 0.000, 0.000, 0.000, 15:18:07.009
187, -77.27, 2.81, 10.57, 13.62, 0.000, 0.000, 0.000, 15:18:07.009
188, 229.07, 3.85, 11.66, 13.39, 0.000, 0.000, 0.000, 15:18:07.009
189, -83.49, 12.82, 9.54, 8.28, 0.000, 0.000, 0.000, 15:18:07.031
190, -221.70, 8.91, 10.19, 14.07, 0.000, 0.000, 0.000, 15:18:07.031
191, 190.76, 10.13, 14.41, 11.02, 0.000, 0.000, 0.000, 15:18:07.031
192, 89.65, 10.76, 12.15, 11.99, 0.000, 0.000, 0.000, 15:18:07.031
193, -249.12, 3.87, 16.59, 15.60, 0.000, 0.000, 0.000, 15:18:07.032
194, 56.92, 10.07, 8.35, 11.02, 0.000, 0.000, 0.000, 15:18:07.032
195, 223.17, 11.58, 12.37, 14.16, 0.000, 0.000, 0.000, 15:18:07.053
196, -193.34, 5.66, 11.32, 13.96, 0.000, 0.000, 0.000, 15:18:07.053
197, -43.49, 7.61, 13.42, 11.76, 0.000, 0.000, 0.000, 15:18:07.053
198, 259.35, 10.56, 9.50, 10.82, 0.000, 0.000, 0.000, 15:18:07.053
199, -80.07, 9.41, 14.81, 8.12, 0.000, 0.000, 0.000, 15:18:07.076
200, -209.54, 6.22, 12.30, 10.55, 0.000, 0.000, 0.000, 15:18:07.076
0, 148.36, 5.94, 9.00, 8.78, 0.000, 0.000, 0.000, 15:18:07.076
1, 68.05, 13.07, 10.16, 8.14, 0.000, 0.000, 0.000, 15:18:07.077
2, -290.53, 5.46, 12.52, 14.96, 0.000, 0.000, 0.000, 15:18:07.077
3, 33.77, 11.55, 7.26, 6.36, 0.000, 0.000, 0.000, 15:18:07.098
4, 190.44, 2.04, 10.10, 14.61, 0.000, 0.000, 0.000, 15:18:07.098
5, -242.21, 9.19, 12.37, 14.90, 0.000, 0.000, 0.000, 15:18:07.099
6, -90.07, 9.49, 9.41, 13.70, 0.000, 0.000, 0.000, 15:18:07.099
7, 216.44, 11.06, 10.12, 10.29, 0.000, 0.000, 0.000, 15:18:07.121
8, -75.49, 7.25, 10.88, 11.78, 0.000, 0.000, 0.000, 15:18:07.121
9, -221.95, 8.23, 11.10, 13.36, 0.000, 0.000, 0.000, 15:18:07.122
10, 174.93, 8.30, 6.95, 8.14, 0.000, 0.000, 0.000, 15:18:07.122
11, 97.42, 6.32, 10.16, 12.60, 0.000, 0.000, 0.000, 15:18:07.144
12, -257.40, 6.57, 13.94, 15.67, 0.000, 0.000, 0.000, 15:18:07.144
13, 71.22, 6.92, 9.72, 10.50, 0.000, 0.000, 0.000, 15:18:07.144
14, 224.67, 6.47, 11.81, 14.25, 0.000, 0.000, 0.000, 15:18:07.144
15, -221.28, 7.42, 11.52, 13.52, 0.000, 0.000, 0.000, 15:18:07.165
16, -86.53, 12.15, 11.40, 12.07, 0.000, 0.000, 0.000, 15:18:07.166
17, 237.86, 6.63, 11.94, 12.37, 0.000, 0.000, 0.000, 15:18:07.166
18, -76.83, 13.28, 12.65, 18.36, 0.000, 0.000, 0.000, 15:18:07.166
19, -196.45, 5.33, 14.45, 12.54, 0.000, 0.000, 0.000, 15:18:07.167
20, 176.74, 11.32, 8.70, 8.11, 0.000, 0.000, 0.000, 15:18:07.167
21, 98.72, 10.28, 12.49, 9.58, 0.000, 0.000, 0.000, 15:18:07.188
22, -263.53, 6.77, 13.66, 13.45, 0.000, 0.000, 0.000, 15:18:07.189
23, 61.10, 8.86, 10.76, 8.69, 0.000, 0.000, 0.000, 15:18:07.189
24, 195.13, 8.56, 12.56, 10.37, 0.000, 0.000, 0.000, 15:18:07.189
25, -218.38, 10.97, 14.06, 12.59, 0.000, 0.000, 0.000, 15:18:07.210
26, -82.92, 5.92, 9.87, 8.84, 0.000, 0.000, 0.000, 15:18:07.211
27, 247.06, 10.35, 7.41, 12.45, 0.000, 0.000, 0.000, 15:18:07.211
28, -77.02, 10.25, 10.43, 11.31, 0.000, 0.000, 0.000, 15:18:07.211
29, -194.11, 10.26, 13.66, 12.73, 0.000, 0.000, 0.000, 15:18:07.233
30, 170.83, 15.21, 6.66, 8.05, 0.000, 0.000, 0.000, 15:18:07.233
31, 96.37, 4.03, 8.69, 11.44, 0.000, 0.000, 0.000, 15:18:07.234
32, -268.57, 8.79, 11.99, 16.54, 0.000, 0.000, 0.000, 15:18:07.234
33, 65.86, 10.14, 7.65, 9.17, 0.000, 0.000, 0.000, 15:18:07.256
34, 205.33, 9.71, 13.11, 13.67, 0.000, 0.000, 0.000, 15:18:07.256
35, -214.65, 6.73, 12.95, 15.29, 0.000, 0.000, 0.000, 15:18:07.256
36, -78.07, 9.19, 9.90, 16.08, 0.000, 0.000, 0.000, 15:18:07.256
37, 242.40, 9.30, 10.79, 10.63, 0.000, 0.000, 0.000, 15:18:07.257
38, -75.31, 6.89, 11.20, 6.47, 0.000, 0.000, 0.000, 15:18:07.257
39, -198.71, 8.92, 12.56, 12.98, 0.000, 0.000, 0.000, 15:18:07.278
40, 169.10, 7.34, 10.91, 13.04, 0.000, 0.000, 0.000, 15:18:07.278
41, 100.90, 11.53, 9.86, 15.23, 0.000, 0.000, 0.000, 15:18:07.279
42, -251.25, 6.44, 14.27, 13.22, 0.000, 0.000, 0.000, 15:18:07.279
43, 64.41, 11.74, 8.97, 10.93, 0.000, 0.000, 0.000, 15:18:07.301
44, 207.10, 8.39, 11.83, 13.48, 0.000, 0.000, 0.000, 15:18:07.301
45, -213.19, 6.55, 11.60, 11.37, 0.000, 0.000, 0.000, 15:18:07.301
46, -73.37, 7.29, 9.78, 9.51, 0.000, 0.000, 0.000, 15:18:07.302
47, 228.99, 8.68, 8.60, 10.42, 0.000, 0.000, 0.000, 15:18:07.323
48, -93.15, 13.60, 16.10, 9.64, 0.000, 0.000, 0.000, 15:18:07.323
49, -195.23, 4.88, 12.12, 11.11, 0.000, 0.000, 0.000, 15:18:07.324
50, 170.69, 8.22, 8.27, 10.84, 0.000, 0.000, 0.000, 15:18:07.324
51, 104.37, 8.99, 8.71, 11.70, 0.000, 0.000, 0.000, 15:18:07.345
52, -247.01, 8.27, 12.04, 17.91, 0.000, 0.000, 0.000, 15:18:07.346
53, 64.60, 13.49, 11.14, 10.74, 0.000, 0.000, 0.000, 15:18:07.346
54, 195.13, 11.25, 11.86, 12.75, 0.000, 0.000, 0.000, 15:18:07.346
55, -226.99, 9.89, 9.16, 10.81, 0.000, 0.000, 0.000, 15:18:07.347
56, -83.22, 7.78, 13.07, 13.48, 0.000, 0.000, 0.000, 15:18:07.347
57, 227.21, 11.81, 9.96, 8.61, 0.000, 0.000, 0.000, 15:18:07.368
58, -81.73, 8.40, 8.89, 10.46, 0.000, 0.000, 0.000, 15:18:07.368
59, -223.59, 7.25, 12.30, 10.62, 0.000, 0.000, 0.000, 15:18:07.368
60, 158.88, 9.00, 11.07, 16.27, 0.000, 0.000, 0.000, 15:18:07.369
61, 85.65, 10.26, 10.89, 12.99, 0.000, 0.000, 0.000, 15:18:07.391
62, -272.65, 3.51, 19.25, 10.76, 0.000, 0.000, 0.000, 15:18:07.391
63, 52.07, 7.84, 13.34, 9.28, 0.000, 0.000, 0.000, 15:18:07.391
64, 201.08, 5.93, 7.38, 13.37, 0.000, 0.000, 0.000, 15:18:07.391
65, -228.30, 11.38, 11.20, 11.68, 0.000, 0.000, 0.000, 15:18:07.413
66, -90.02, 9.57, 8.61, 11.10, 0.000, 0.000, 0.000, 15:18:07.413
67, 210.31, 5.23, 7.20, 9.34, 0.000, 0.000, 0.000, 15:18:07.414
68, -95.64, 10.14, 7.47, 8.58, 0.000, 0.000, 0.000, 15:18:07.414
69, -219.77, 7.16, 11.79, 14.05, 0.000, 0.000, 0.000, 15:18:07.436
70, 176.30, 8.95, 11.03, 15.76, 0.000, 0.000, 0.000, 15:18:07.436
71, 71.85, 6.36, 13.00, 12.39, 0.000, 0.000, 0.000, 15:18:07.436
72, -257.36, 8.38, 17.75, 16.87, 0.000, 0.000, 0.000, 15:18:07.436
73, 45.56, 12.71, 8.20, 11.86, 0.000, 0.000, 0.000, 15:18:07.437
74, 200.57, 9.81, 11.90, 10.79, 0.000, 0.000, 0.000, 15:18:07.437
75, -211.77, 11.25, 9.24, 17.68, 0.000, 0.000, 0.000, 15:18:07.458
76, -85.10, 8.65, 12.27, 10.83, 0.000, 0.000, 0.000, 15:18:07.458
77, 219.84, 9.74, 10.44, 12.61, 0.000, 0.000, 0.000, 15:18:07.459
78, -76.56, 10.70, 10.34, 10.40, 0.000, 0.000, 0.000, 15:18:07.459
79, -204.74, 7.45, 11.86, 11.59, 0.000, 0.000, 0.000, 15:18:07.481
80, 169.17, 13.12, 14.47, 12.93, 0.000, 0.000, 0.000, 15:18:07.481
81, 72.37, 11.63, 8.59, 15.00, 0.000, 0.000, 0.000, 15:18:07.481
82, -253.85, 9.21, 14.02, 11.93, 0.000, 0.000, 0.000, 15:18:07.481
83, 56.73, 9.74, 11.15, 9.62, 0.000, 0.000, 0.000, 15:18:07.503
84, 201.74, 12.47, 12.69, 13.32, 0.000, 0.000, 0.000, 15:18:07.503
85, -242.41, 2.80, 11.61, 14.48, 0.000, 0.000, 0.000, 15:18:07.503
86, -75.71, 10.74, 12.37, 13.18, 0.000, 0.000, 0.000, 15:18:07.504
87, 239.54, 8.02, 10.38, 12.99, 0.000, 0.000, 0.000, 15:18:07.526
88, -69.54, 8.20, 11.71, 10.33, 0.000, 0.000, 0.000, 15:18:07.526
89, -217.50, 4.86, 12.26, 8.51, 0.000, 0.000, 0.000, 15:18:07.526
90, 180.15, 11.52, 7.18, 10.32, 0.000, 0.000, 0.000, 15:18:07.526
91, 84.29, 13.18, 10.49, 13.19, 0.000, 0.000, 0.000, 15:18:07.527
92, -259.95, 5.72, 11.24, 12.15, 0.000, 0.000, 0.000, 15:18:07.527
93, 51.15, 11.86, 10.66, 12.73, 0.000, 0.000, 0.000, 15:18:07.548
94, 206.21, 3.88, 11.46, 8.49, 0.000, 0.000, 0.000, 15:18:07.548
95, -227.38, 7.71, 14.86, 13.56, 0.000, 0.000, 0.000, 15:18:07.549
96, -84.10, 8.49, 10.64, 11.26, 0.000, 0.000, 0.000, 15:18:07.549
97, 235.08, 4.98, 11.00, 12.96, 0.000, 0.000, 0.000, 15:18:07.570
98, -79.10, 9.99, 14.77, 11.68, 0.000, 0.000, 0.000, 15:18:07.571
99, -201.68, 7.70, 11.18, 13.00, 0.000, 0.000, 0.000, 15:18:07.571
100, 171.31, 11.23, 9.76, 8.62, 0.000, 0.000, 0.000, 15:18:07.571
101, 79.32, 11.29, 9.78, 11.95, 0.000, 0.000, 0.000, 15:18:07.594
102, -264.02, 7.26, 13.58, 12.92, 0.000, 0.000, 0.000, 15:18:07.594
103, 54.48, 5.54, 10.11, 12.43, 0.000, 0.000, 0.000, 15:18:07.594
104, 204.56, 11.28, 12.66, 10.37, 0.000, 0.000, 0.000, 15:18:07.594
105, -234.32, 10.39, 13.50, 11.66, 0.000, 0.000, 0.000, 15:18:07.616
106, -82.09, 10.08, 9.53, 9.88, 0.000, 0.000, 0.000, 15:18:07.616
107, 228.81, 2.35, 12.69, 12.44, 0.000, 0.000, 0.000, 15:18:07.616
108, -82.18, 12.09, 12.19, 8.73, 0.000, 0.000, 0.000, 15:18:07.617
109, -199.18, 6.29, 14.30, 17.44, 0.000, 0.000, 0.000, 15:18:07.617
110, 171.97, 9.62, 7.32, 12.41, 0.000, 0.000, 0.000, 15:18:07.617
111, 80.27, 15.20, 7.18, 11.88, 0.000, 0.000, 0.000, 15:18:07.638
112, -253.55, 5.08, 15.17, 14.14, 0.000, 0.000, 0.000, 15:18:07.638
113, 52.27, 10.25, 7.59, 7.30, 0.000, 0.000, 0.000, 15:18:07.639
114, 205.76, 8.04, 11.27, 15.39, 0.000, 0.000, 0.000, 15:18:07.639
115, -220.41, 9.77, 9.74, 11.40, 0.000, 0.000, 0.000, 15:18:07.660
116, -88.89, 8.38, 11.07, 15.36, 0.000, 0.000, 0.000, 15:18:07.661
117, 232.91, 6.01, 11.64, 13.15, 0.000, 0.000, 0.000, 15:18:07.661
118, -72.63, 10.34, 10.36, 10.94, 0.000, 0.000, 0.000, 15:18:07.661
119, -203.93, 5.21, 13.09, 13.78, 0.000, 0.000, 0.000, 15:18:07.683
120, 169.90, 15.83, 10.09, 12.68, 0.000, 0.000, 0.000, 15:18:07.683
121, 80.07, 5.76, 10.41, 12.14, 0.000, 0.000, 0.000, 15:18:07.683
122, -262.88, 7.30, 11.95, 14.63, 0.000, 0.000, 0.000, 15:18:07.684
123, 57.19, 12.25, 8.53, 11.10, 0.000, 0.000, 0.000, 15:18:07.705
124, 202.26, 8.53, 12.80, 13.87, 0.000, 0.000, 0.000, 15:18:07.706
125, -248.01, 7.98, 12.38, 12.76, 0.000, 0.000, 0.000, 15:18:07.706
126, -70.01, 9.60, 11.49, 11.46, 0.000, 0.000, 0.000, 15:18:07.706
127, 242.77, 9.41, 8.35, 10.96, 0.000, 0.000, 0.000, 15:18:07.707
128, -70.38, 6.52, 11.67, 10.67, 0.000, 0.000, 0.000, 15:18:07.707
129, -196.39, 13.83, 13.06, 13.16, 0.000, 0.000, 0.000, 15:18:07.728
130, 169.87, 2.17, 9.24, 11.31, 0.000, 0.000, 0.000, 15:18:07.728
131, 86.40, 9.48, 12.32, 10.09, 0.000, 0.000, 0.000, 15:18:07.729
132, -266.87, 5.88, 12.11, 11.07, 0.000, 0.000, 0.000, 15:18:07.729
133, 61.18, 12.62, 4.90, 8.66, 0.000, 0.000, 0.000, 15:18:07.750
134, 202.98, 8.51, 11.06, 11.61, 0.000, 0.000, 0.000, 15:18:07.751
135, -223.99, 8.85, 11.33, 11.97, 0.000, 0.000, 0.000, 15:18:07.751
136, -82.09, 6.31, 11.77, 10.27, 0.000, 0.000, 0.000, 15:18:07.751
137, 229.74, 8.25, 8.06, 13.12, 0.000, 0.000, 0.000, 15:18:07.773
138, -75.59, 13.42, 9.24, 10.51, 0.000, 0.000, 0.000, 15:18:07.774
139, -205.06, 3.46, 15.78, 12.76, 0.000, 0.000, 0.000, 15:18:07.774
140, 161.90, 7.33, 9.69, 8.61, 0.000, 0.000, 0.000, 15:18:07.774
141, 95.54, 8.31, 10.91, 6.12, 0.000, 0.000, 0.000, 15:18:07.796
142, -271.43, 5.77, 14.82, 10.76, 0.000, 0.000, 0.000, 15:18:07.796
143, 59.81, 9.34, 10.20, 10.51, 0.000, 0.000, 0.000, 15:18:07.796
144, 200.07, 11.64, 9.11, 14.19, 0.000, 0.000, 0.000, 15:18:07.796
145, -215.03, 8.13, 12.89, 16.41, 0.000, 0.000, 0.000, 15:18:07.797
146, -95.31, 10.97, 10.46, 8.06, 0.000, 0.000, 0.000, 15:18:07.797
147, 231.28, 14.15, 14.65, 12.33, 0.000, 0.000, 0.000, 15:18:07.818
148, -89.86, 8.34, 7.43, 13.03, 0.000, 0.000, 0.000, 15:18:07.818
149, -203.10, 5.26, 13.58, 15.33, 0.000, 0.000, 0.000, 15:18:07.819
150, 164.43, 9.65, 10.49, 9.49, 0.000, 0.000, 0.000, 15:18:07.819
151, 88.31, 12.41, 11.36, 14.41, 0.000, 0.000, 0.000, 15:18:07.840
152, -266.55, 7.81, 14.59, 14.97, 0.000, 0.000, 0.000, 15:18:07.841
153, 71.52, 13.82, 9.87, 13.07, 0.000, 0.000, 0.000, 15:18:07.841
154, 203.33, 8.48, 10.40, 7.95, 0.000, 0.000, 0.000, 15:18:07.841
155, -218.24, 4.21, 9.22, 11.08, 0.000, 0.000, 0.000, 15:18:07.863
156, -88.33, 13.86, 8.85, 11.25, 0.000, 0.000, 0.000, 15:18:07.863
157, 235.88, 2.23, 16.50, 10.38, 0.000, 0.000, 0.000, 15:18:07.864
158, -89.20, 7.86, 11.85, 9.42, 0.000, 0.000, 0.000, 15:18:07.864
159, -208.37, 7.13, 12.97, 12.28, 0.000, 0.000, 0.000, 15:18:07.885
160, 159.84, 9.36, 9.43, 15.13, 0.000, 0.000, 0.000, 15:18:07.886
161, 91.21, 7.29, 9.43, 13.18, 0.000, 0.000, 0.000, 15:18:07.886
162, -257.86, 5.98, 11.31, 12.80, 0.000, 0.000, 0.000, 15:18:07.886
163, 72.15, 11.45, 10.02, 10.91, 0.000, 0.000, 0.000, 15:18:07.887
164, 204.47, 9.95, 11.73, 15.85, 0.000, 0.000, 0.000, 15:18:07.887
165, -209.46, 11.95, 11.76, 14.96, 0.000, 0.000, 0.000, 15:18:07.908
166, -89.05, 5.81, 10.04, 9.38, 0.000, 0.000, 0.000, 15:18:07.908
167, 230.51, 4.97, 10.75, 12.98, 0.000, 0.000, 0.000, 15:18:07.909
168, -92.51, 12.66, 12.90, 13.11, 0.000, 0.000, 0.000, 15:18:07.909
169, -185.79, 9.74, 12.94, 16.64, 0.000, 0.000, 0.000, 15:18:07.931
170, 160.26, 8.29, 10.30, 10.14, 0.000, 0.000, 0.000, 15:18:07.931
171, 94.99, 9.56, 9.99, 14.49, 0.000, 0.000, 0.000, 15:18:07.931
172, -263.64, 5.36, 10.68, 12.11, 0.000, 0.000, 0.000, 15:18:07.931
173, 60.22, 6.56, 11.68, 11.20, 0.000, 0.000, 0.000, 15:18:07.953
174, 202.87, 12.96, 14.83, 13.13, 0.000, 0.000, 0.000, 15:18:07.953
175, -208.57, 5.02, 9.39, 12.64, 0.000, 0.000, 0.000, 15:18:07.954
176, -80.52, 10.61, 10.95, 12.94, 0.000, 0.000, 0.000, 15:18:07.954
177, 227.83, 7.01, 15.87, 17.27, 0.000, 0.000, 0.000, 15:18:07.976
178, -92.10, 13.31, 10.04, 13.60, 0.000, 0.000, 0.000, 15:18:07.976
179, -197.20, 5.47, 8.47, 10.57, 0.000, 0.000, 0.000, 15:18:07.976
180, 162.17, 11.64, 12.31, 10.72, 0.000, 0.000, 0.000, 15:18:07.976
181, 100.32, 10.86, 13.36, 6.01, 0.000, 0.000, 0.000, 15:18:07.977
182, -263.51, 10.22, 12.90, 13.27, 0.000, 0.000, 0.000, 15:18:07.977
183, 53.51, 10.52, 7.48, 9.08, 0.000, 0.000, 0.000, 15:18:07.998
184, 203.40, 6.34, 10.71, 9.04, 0.000, 0.000, 0.000, 15:18:07.998
185, -223.53, 8.59, 14.41, 9.28, 0.000, 0.000, 0.000, 15:18:07.999
186, -88.72, 9.76, 9.48, 11.16, 0.000, 0.000, 0.000, 15:18:07.999
187, 223.73, 5.94, 12.59, 13.46, 0.000, 0.000, 0.000, 15:18:08.021
188, -87.44, 10.17, 11.82, 14.00, 0.000, 0.000, 0.000, 15:18:08.021
189, -188.40, 6.89, 14.79, 9.84, 0.000, 0.000, 0.000, 15:18:08.021
190, 169.95, 9.47, 11.41, 11.40, 0.000, 0.000, 0.000, 15:18:08.021
191, 92.19, 7.76, 11.80, 10.94, 0.000, 0.000, 0.000, 15:18:08.043
192, -265.67, 9.49, 12.10, 14.83, 0.000, 0.000, 0.000, 15:18:08.043
193, 55.37, 7.96, 7.23, 11.41, 0.000, 0.000, 0.000, 15:18:08.044
194, 212.69, 4.52, 12.04, 14.62, 0.000, 0.000, 0.000, 15:18:08.044
195, -221.21, 7.27, 13.36, 12.61, 0.000, 0.000, 0.000, 15:18:08.066
196, -84.88, 7.50, 11.11, 8.46, 0.000, 0.000, 0.000, 15:18:08.066
197, 225.45, 10.44, 10.30, 14.58, 0.000, 0.000, 0.000, 15:18:08.066
198, -78.50, 11.34, 8.11, 12.79, 0.000, 0.000, 0.000, 15:18:08.066
199, -206.72, 6.88, 13.26, 13.00, 0.000, 0.000, 0.000, 15:18:08.067
200, 176.08, 8.98, 10.45, 9.52, 0.000, 0.000, 0.000, 15:18:08.067
0, 89.33, 12.04, 11.06, 12.05, 0.000, 0.000, 0.000, 15:18:08.088
1, -254.30, 4.61, 16.98, 16.13, 0.000, 0.000, 0.000, 15:18:08.089
2, 53.77, 10.00, 10.64, 13.00, 0.000, 0.000, 0.000, 15:18:08.089
3, 213.68, 8.09, 6.87, 12.01, 0.000, 0.000, 0.000, 15:18:08.110
4, -209.67, 9.67, 10.75, 12.67, 0.000, 0.000, 0.000, 15:18:08.111
5, -63.49, 9.71, 10.63, 10.59, 0.000, 0.000, 0.000, 15:18:08.111
6, 250.09, 8.90, 10.78, 11.11, 0.000, 0.000, 0.000, 15:18:08.111
7, -49.36, 10.74, 10.17, 11.16, 0.000, 0.000, 0.000, 15:18:08.112
8, -197.51, 5.69, 13.18, 15.63, 0.000, 0.000, 0.000, 15:18:08.112
9, 153.02, 10.54, 10.71, 12.98, 0.000, 0.000, 0.000, 15:18:08.133
10, 61.21, 12.64, 8.69, 8.33, 0.000, 0.000, 0.000, 15:18:08.133
11, -264.32, 7.77, 13.50, 15.43, 0.000, 0.000, 0.000, 15:18:08.134
12, 33.91, 10.00, 5.48, 7.29, 0.000, 0.000, 0.000, 15:18:08.134
13, 189.40, 12.12, 11.43, 12.87, 0.000, 0.000, 0.000, 15:18:08.156
14, -240.63, 7.18, 14.46, 12.71, 0.000, 0.000, 0.000, 15:18:08.156
15, -99.89, 7.49, 12.43, 9.93, 0.000, 0.000, 0.000, 15:18:08.156
16, 212.84, 4.63, 12.71, 12.61, 0.000, 0.000, 0.000, 15:18:08.156
17, -82.08, 10.07, 8.99, 9.90, 0.000, 0.000, 0.000, 15:18:08.178
18, -214.27, 11.89, 12.82, 12.01, 0.000, 0.000, 0.000, 15:18:08.178
19, 165.35, 7.80, 9.91, 11.95, 0.000, 0.000, 0.000, 15:18:08.179
20, 91.04, 9.79, 14.72, 10.60, 0.000, 0.000, 0.000, 15:18:08.179
21, -252.61, 4.77, 13.22, 10.38, 0.000, 0.000, 0.000, 15:18:08.200
22, 56.71, 10.52, 6.25, 9.25, 0.000, 0.000, 0.000, 15:18:08.201
23, 213.62, 8.53, 8.68, 14.03, 0.000, 0.000, 0.000, 15:18:08.201
24, -203.00, 5.50, 10.58, 15.26, 0.000, 0.000, 0.000, 15:18:08.201
25, -91.53, 8.65, 13.04, 10.05, 0.000, 0.000, 0.000, 15:18:08.202
26, 232.19, 9.70, 14.21, 13.16, 0.000, 0.000, 0.000, 15:18:08.202
27, -72.72, 12.05, 13.21, 10.28, 0.000, 0.000, 0.000, 15:18:08.223
28, -208.01, 3.25, 13.11, 11.62, 0.000, 0.000, 0.000, 15:18:08.223
29, 175.83, 11.30, 10.23, 11.63, 0.000, 0.000, 0.000, 15:18:08.224
30, 105.85, 13.27, 13.31, 14.45, 0.000, 0.000, 0.000, 15:18:08.224
31, -263.95, 9.83, 13.82, 14.53, 0.000, 0.000, 0.000, 15:18:08.246
32, 68.90, 6.93, 6.78, 10.77, 0.000, 0.000, 0.000, 15:18:08.246
33, 204.32, 9.75, 10.40, 12.59, 0.000, 0.000, 0.000, 15:18:08.246
34, -209.63, 7.22, 7.63, 10.48, 0.000, 0.000, 0.000, 15:18:08.247
35, -83.49, 8.87, 12.80, 14.90, 0.000, 0.000, 0.000, 15:18:08.268
36, 230.90, 14.80, 9.62, 13.81, 0.000, 0.000, 0.000, 15:18:08.268
37, -79.21, 2.78, 9.81, 10.86, 0.000, 0.000, 0.000, 15:18:08.269
38, -197.11, 7.81, 13.17, 14.59, 0.000, 0.000, 0.000, 15:18:08.269
39, 168.81, 10.22, 8.08, 10.42, 0.000, 0.000, 0.000, 15:18:08.291
40, 102.32, 10.01, 6.89, 10.64, 0.000, 0.000, 0.000, 15:18:08.291
41, -264.87, 6.10, 7.09, 11.28, 0.000, 0.000, 0.000, 15:18:08.291
42, 64.96, 14.32, 8.94, 9.29, 0.000, 0.000, 0.000, 15:18:08.292
43, 206.40, 11.09, 12.31, 13.95, 0.000, 0.000, 0.000, 15:18:08.292
44, -206.14, 6.37, 12.49, 9.25, 0.000, 0.000, 0.000, 15:18:08.292
45, -93.60, 7.63, 10.84, 14.72, 0.000, 0.000, 0.000, 15:18:08.313
46, 250.54, 5.81, 9.71, 17.46, 0.000, 0.000, 0.000, 15:18:08.314
47, -76.14, 8.67, 9.14, 9.53, 0.000, 0.000, 0.000, 15:18:08.314
48, -199.44, 5.00, 16.01, 11.23, 0.000, 0.000, 0.000, 15:18:08.314
49, 153.27, 8.78, 11.29, 13.39, 0.000, 0.000, 0.000, 15:18:08.336
50, 105.67, 5.71, 11.35, 12.67, 0.000, 0.000, 0.000, 15:18:08.336
51, -258.61, 10.35, 16.29, 14.59, 0.000, 0.000, 0.000, 15:18:08.336
52, 61.11, 8.37, 7.28, 11.19, 0.000, 0.000, 0.000, 15:18:08.336
53, 211.49, 6.79, 10.39, 14.21, 0.000, 0.000, 0.000, 15:18:08.358
54, -192.39, 15.86, 13.33, 16.04, 0.000, 0.000, 0.000, 15:18:08.358
55, -96.01, 7.09, 8.28, 10.40, 0.000, 0.000, 0.000, 15:18:08.359
56, 237.80, 9.85, 10.28, 11.20, 0.000, 0.000, 0.000, 15:18:08.359
57, -89.92, 9.37, 11.79, 13.85, 0.000, 0.000, 0.000, 15:18:08.381
58, -204.72, 7.27, 16.23, 10.22, 0.000, 0.000, 0.000, 15:18:08.381
59, 187.77, 11.51, 10.99, 9.72, 0.000, 0.000, 0.000, 15:18:08.381
60, 109.96, 10.68, 12.12, 11.70, 0.000, 0.000, 0.000, 15:18:08.381
61, -261.72, 4.82, 15.23, 13.37, 0.000, 0.000, 0.000, 15:18:08.382
62, 57.04, 8.04, 8.12, 11.69, 0.000, 0.000, 0.000, 15:18:08.382
63, 203.02, 13.63, 12.67, 9.33, 0.000, 0.000, 0.000, 15:18:08.403
64, -214.27, 5.26, 12.06, 12.68, 0.000, 0.000, 0.000, 15:18:08.403
65, -94.15, 8.13, 12.12, 8.28, 0.000, 0.000, 0.000, 15:18:08.404
66, 221.12, 14.16, 13.11, 13.40, 0.000, 0.000, 0.000, 15:18:08.404
67, -92.80, 8.49, 9.69, 13.24, 0.000, 0.000, 0.000, 15:18:08.426
68, -215.04, 3.01, 11.57, 12.27, 0.000, 0.000, 0.000, 15:18:08.426
69, 157.74, 8.40, 12.46, 9.20, 0.000, 0.000, 0.000, 15:18:08.426
70, 89.49, 10.22, 10.17, 9.05, 0.000, 0.000, 0.000, 15:18:08.426
71, -270.46, 8.80, 12.99, 11.07, 0.000, 0.000, 0.000, 15:18:08.448
72, 53.83, 13.84, 10.58, 10.12, 0.000, 0.000, 0.000, 15:18:08.448
73, 195.88, 1.97, 11.65, 13.33, 0.000, 0.000, 0.000, 15:18:08.449
74, -224.56, 10.47, 10.40, 13.20, 0.000, 0.000, 0.000, 15:18:08.449
75, -93.36, 14.18, 10.91, 14.19, 0.000, 0.000, 0.000, 15:18:08.471
76, 221.61, 12.33, 12.26, 8.99, 0.000, 0.000, 0.000, 15:18:08.471
77, -91.74, 4.68, 9.41, 10.69, 0.000, 0.000, 0.000, 15:18:08.471
78, -211.42, 6.42, 12.95, 12.29, 0.000, 0.000, 0.000, 15:18:08.471
79, 159.92, 6.74, 9.73, 13.58, 0.000, 0.000, 0.000, 15:18:08.472
80, 80.22, 11.06, 9.09, 10.32, 0.000, 0.000, 0.000, 15:18:08.472
81, -267.62, 6.59, 12.97, 14.03, 0.000, 0.000, 0.000, 15:18:08.493
82, 46.71, 10.99, 11.26, 12.09, 0.000, 0.000, 0.000, 15:18:08.493
83, 206.78, 7.47, 15.37, 14.46, 0.000, 0.000, 0.000, 15:18:08.494
84, -227.97, 10.49, 13.32, 13.01, 0.000, 0.000, 0.000, 15:18:08.494
85, -92.68, 10.96, 12.89, 13.69, 0.000, 0.000, 0.000, 15:18:08.516
86, 239.90, 8.12, 11.24, 13.10, 0.000, 0.000, 0.000, 15:18:08.516
87, -70.30, 11.34, 10.26, 11.95, 0.000, 0.000, 0.000, 15:18:08.516
88, -208.21, 5.84, 11.33, 15.26, 0.000, 0.000, 0.000, 15:18:08.516
89, 164.90, 8.18, 11.23, 14.45, 0.000, 0.000, 0.000, 15:18:08.538
90, 79.58, 10.01, 11.95, 7.68, 0.000, 0.000, 0.000, 15:18:08.538
91, -259.24, 1.29, 12.59, 16.39, 0.000, 0.000, 0.000, 15:18:08.539
92, 49.13, 9.27, 8.64, 7.52, 0.000, 0.000, 0.000, 15:18:08.539
93, 207.72, 9.83, 10.04, 12.63, 0.000, 0.000, 0.000, 15:18:08.561
94, -221.95, 6.96, 11.39, 11.67, 0.000, 0.000, 0.000, 15:18:08.561
95, -76.72, 5.44, 8.68, 13.18, 0.000, 0.000, 0.000, 15:18:08.561
96, 220.85, 5.94, 10.60, 11.38, 0.000, 0.000, 0.000, 15:18:08.561
97, -79.14, 11.02, 12.21, 12.11, 0.000, 0.000, 0.000, 15:18:08.562
98, -204.01, 9.65, 12.43, 9.41, 0.000, 0.000, 0.000, 15:18:08.562
99, 170.94, 12.43, 9.15, 11.24, 0.000, 0.000, 0.000, 15:18:08.583
100, 92.29, 6.41, 13.85, 8.80, 0.000, 0.000, 0.000, 15:18:08.583
101, -253.77, 6.72, 13.02, 15.08, 0.000, 0.000, 0.000, 15:18:08.584
102, 46.57, 8.62, 9.17, 11.38, 0.000, 0.000, 0.000, 15:18:08.584
103, 182.63, 7.22, 9.13, 11.53, 0.000, 0.000, 0.000, 15:18:08.606
104, -215.13, 6.71, 11.21, 14.48, 0.000, 0.000, 0.000, 15:18:08.606
105, -59.17, 8.84, 13.86, 8.62, 0.000, 0.000, 0.000, 15:18:08.606
106, 226.77, 9.69, 10.97, 12.08, 0.000, 0.000, 0.000, 15:18:08.606
107, -78.32, 10.34, 8.93, 9.91, 0.000, 0.000, 0.000, 15:18:08.628
108, -220.19, 9.67, 13.12, 13.55, 0.000, 0.000, 0.000, 15:18:08.628
109, 170.01, 6.90, 9.78, 13.47, 0.000, 0.000, 0.000, 15:18:08.629
110, 98.44, 8.82, 12.50, 9.62, 0.000, 0.000, 0.000, 15:18:08.629
111, -257.64, 7.18, 12.95, 11.70, 0.000, 0.000, 0.000, 15:18:08.651
112, 36.82, 6.13, 10.14, 7.46, 0.000, 0.000, 0.000, 15:18:08.651
113, 226.44, 8.67, 9.90, 15.39, 0.000, 0.000, 0.000, 15:18:08.651
114, -204.10, 12.03, 11.70, 9.56, 0.000, 0.000, 0.000, 15:18:08.651
115, -91.79, 6.36, 12.65, 15.68, 0.000, 0.000, 0.000, 15:18:08.652
116, 219.66, 11.45, 8.80, 13.19, 0.000, 0.000, 0.000, 15:18:08.652
117, -76.92, 10.71, 9.71, 10.01, 0.000, 0.000, 0.000, 15:18:08.673
118, -209.02, 5.50, 12.68, 16.58, 0.000, 0.000, 0.000, 15:18:08.673
119, 154.44, 9.90, 9.53, 15.35, 0.000, 0.000, 0.000, 15:18:08.674
120, 95.17, 10.07, 9.42, 10.57, 0.000, 0.000, 0.000, 15:18:08.674
121, -262.97, 8.00, 12.05, 13.87, 0.000, 0.000, 0.000, 15:18:08.696
122, 61.45, 10.64, 7.47, 15.93, 0.000, 0.000, 0.000, 15:18:08.696
123, 208.47, 8.89, 15.43, 13.30, 0.000, 0.000, 0.000, 15:18:08.696
124, -211.69, 9.12, 10.18, 13.83, 0.000, 0.000, 0.000, 15:18:08.696
125, -98.21, 9.35, 10.11, 10.53, 0.000, 0.000, 0.000, 15:18:08.718
126, 217.70, 11.04, 13.08, 11.95, 0.000, 0.000, 0.000, 15:18:08.718
127, -78.35, 8.19, 10.42, 9.78, 0.000, 0.000, 0.000, 15:18:08.719
128, -209.11, 8.92, 13.40, 11.29, 0.000, 0.000, 0.000, 15:18:08.719
129, 181.04, 9.75, 9.96, 10.62, 0.000, 0.000, 0.000, 15:18:08.741
130, 93.26, 14.23, 8.33, 10.32, 0.000, 0.000, 0.000, 15:18:08.741
131, -277.23, 7.03, 14.57, 13.37, 0.000, 0.000, 0.000, 15:18:08.741
132, 43.83, 6.41, 9.27, 14.09, 0.000, 0.000, 0.000, 15:18:08.741
133, 225.76, 9.32, 14.49, 14.68, 0.000, 0.000, 0.000, 15:18:08.742
134, -204.35, 7.09, 9.88, 15.58, 0.000, 0.000, 0.000, 15:18:08.742
135, -90.08, 6.05, 15.72, 7.95, 0.000, 0.000, 0.000, 15:18:08.764
136, 222.18, 4.53, 11.80, 9.71, 0.000, 0.000, 0.000, 15:18:08.764
137, -93.32, 9.58, 9.04, 9.66, 0.000, 0.000, 0.000, 15:18:08.764
138, -184.52, 6.91, 11.39, 9.50, 0.000, 0.000, 0.000, 15:18:08.764
139, 163.99, 12.70, 8.27, 9.53, 0.000, 0.000, 0.000, 15:18:08.786
140, 99.59, 12.16, 11.59, 14.70, 0.000, 0.000, 0.000, 15:18:08.786
141, -261.82, 9.70, 12.77, 16.27, 0.000, 0.000, 0.000, 15:18:08.786
142, 50.32, 11.29, 6.99, 11.23, 0.000, 0.000, 0.000, 15:18:08.786
143, 211.28, 10.25, 11.95, 11.14, 0.000, 0.000, 0.000, 15:18:08.808
144, -212.62, 16.86, 10.72, 12.17, 0.000, 0.000, 0.000, 15:18:08.808
145, -94.11, -2.28, 13.10, 9.23, 0.000, 0.000, 0.000, 15:18:08.809
146, 214.93, 9.64, 6.53, 12.04, 0.000, 0.000, 0.000, 15:18:08.809
147, -77.65, 9.67, 11.98, 8.58, 0.000, 0.000, 0.000, 15:18:08.831
148, -206.56, 5.45, 13.41, 12.12, 0.000, 0.000, 0.000, 15:18:08.831
149, 158.99, 9.57, 12.96, 7.29, 0.000, 0.000, 0.000, 15:18:08.831
150, 95.06, 8.98, 9.94, 12.91, 0.000, 0.000, 0.000, 15:18:08.831
151, -254.77, 9.35, 13.03, 16.53, 0.000, 0.000, 0.000, 15:18:08.832
152, 60.12, 5.86, 10.37, 12.13, 0.000, 0.000, 0.000, 15:18:08.832
153, 208.64, 14.51, 12.27, 8.68, 0.000, 0.000, 0.000, 15:18:08.853
154, -222.70, 5.80, 12.39, 12.09, 0.000, 0.000, 0.000, 15:18:08.853
155, -93.84, 7.74, 11.98, 13.18, 0.000, 0.000, 0.000, 15:18:08.854
156, 218.57, 8.11, 10.82, 10.48, 0.000, 0.000, 0.000, 15:18:08.854
157, -62.86, 9.76, 4.88, 9.11, 0.000, 0.000, 0.000, 15:18:08.876
158, -198.55, 5.71, 12.89, 16.05, 0.000, 0.000, 0.000, 15:18:08.876
159, 169.69, 8.22, 10.10, 10.18, 0.000, 0.000, 0.000, 15:18:08.876
160, 97.04, 8.00, 9.49, 11.84, 0.000, 0.000, 0.000, 15:18:08.876
161, -259.20, 3.95, 13.04, 13.22, 0.000, 0.000, 0.000, 15:18:08.898
162, 51.65, 14.47, 10.16, 8.66, 0.000, 0.000, 0.000, 15:18:08.898
163, 206.27, 5.60, 11.39, 10.00, 0.000, 0.000, 0.000, 15:18:08.899
164, -212.68, 8.84, 13.44, 12.04, 0.000, 0.000, 0.000, 15:18:08.899
165, -85.57, 11.03, 9.75, 8.91, 0.000, 0.000, 0.000, 15:18:08.921
166, 219.18, 11.22, 11.03, 13.38, 0.000, 0.000, 0.000, 15:18:08.921
167, -69.48, 10.10, 9.46, 12.06, 0.000, 0.000, 0.000, 15:18:08.921
168, -203.76, 6.60, 12.90, 18.30, 0.000, 0.000, 0.000, 15:18:08.921
169, 162.70, 11.61, 13.10, 11.83, 0.000, 0.000, 0.000, 15:18:08.922
170, 88.61, 9.94, 8.87, 9.74, 0.000, 0.000, 0.000, 15:18:08.922
171, -248.42, 12.09, 11.56, 9.39, 0.000, 0.000, 0.000, 15:18:08.943
172, 38.64, 6.86, 12.84, 13.44, 0.000, 0.000, 0.000, 15:18:08.943
173, 211.18, 12.62, 8.20, 11.50, 0.000, 0.000, 0.000, 15:18:08.944
174, -203.02, 9.56, 11.43, 9.77, 0.000, 0.000, 0.000, 15:18:08.944
175, -80.58, 6.97, 11.27, 10.94, 0.000, 0.000, 0.000, 15:18:08.966
176, 229.24, 7.83, 7.62, 12.22, 0.000, 0.000, 0.000, 15:18:08.966
177, -85.66, 10.56, 8.95, 13.59, 0.000, 0.000, 0.000, 15:18:08.966
178, -207.57, 10.81, 13.42, 15.71, 0.000, 0.000, 0.000, 15:18:08.966
179, 167.66, 9.09, 7.11, 5.78, 0.000, 0.000, 0.000, 15:18:08.989
180, 81.67, 13.10, 15.00, 16.31, 0.000, 0.000, 0.000, 15:18:08.989
181, -258.98, 0.76, 14.05, 16.31, 0.000, 0.000, 0.000, 15:18:08.989
182, 53.66, 5.74, 6.23, 12.85, 0.000, 0.000, 0.000, 15:18:08.989
183, 195.13, 7.55, 11.75, 10.80, 0.000, 0.000, 0.000, 15:18:09.011
184, -213.40, 12.39, 11.87, 13.57, 0.000, 0.000, 0.000, 15:18:09.011
185, -81.73, 4.35, 10.26, 14.77, 0.000, 0.000, 0.000, 15:18:09.011
186, 210.10, 9.92, 10.43, 9.52, 0.000, 0.000, 0.000, 15:18:09.011
187, -77.60, 8.45, 10.50, 11.25, 0.000, 0.000, 0.000, 15:18:09.012
188, -201.09, 11.44, 12.57, 12.54, 0.000, 0.000, 0.000, 15:18:09.012
189, 163.01, 9.33, 12.72, 9.41, 0.000, 0.000, 0.000, 15:18:09.033
190, 90.40, 6.96, 13.69, 13.18, 0.000, 0.000, 0.000, 15:18:09.033
191, -265.65, 4.55, 12.84, 16.29, 0.000, 0.000, 0.000, 15:18:09.033
192, 44.67, 11.16, 7.59, 11.95, 0.000, 0.000, 0.000, 15:18:09.034
193, 199.69, 8.08, 12.62, 14.19, 0.000, 0.000, 0.000, 15:18:09.056
194, -211.56, 7.58, 12.86, 14.06, 0.000, 0.000, 0.000, 15:18:09.056
195, -87.94, 9.44, 10.73, 9.85, 0.000, 0.000, 0.000, 15:18:09.056
196, 220.45, 9.41, 13.75, 14.12, 0.000, 0.000, 0.000, 15:18:09.056
197, -66.42, 9.77, 10.63, 11.72, 0.000, 0.000, 0.000, 15:18:09.078
198, -196.23, 11.85, 14.12, 12.60, 0.000, 0.000, 0.000, 15:18:09.079
199, 186.15, 3.37, 5.85, 8.87, 0.000, 0.000, 0.000, 15:18:09.079
200, 127.93, 10.35, 13.58, 8.64, 0.000, 0.000, 0.000, 15:18:09.079
0, -228.29, 9.09, 13.03, 14.63, 0.000, 0.000, 0.000, 15:18:09.079
1, 71.47, 8.33, 7.87, 13.26, 0.000, 0.000, 0.000, 15:18:09.101
2, 219.89, 9.34, 8.58, 9.67, 0.000, 0.000, 0.000, 15:18:09.101
3, -226.98, 11.85, 11.22, 13.24, 0.000, 0.000, 0.000, 15:18:09.101
4, -124.06, 8.74, 13.46, 10.06, 0.000, 0.000, 0.000, 15:18:09.101
5, 207.88, 7.84, 11.54, 13.68, 0.000, 0.000, 0.000, 15:18:09.123
6, -101.38, 14.75, 12.62, 12.35, 0.000, 0.000, 0.000, 15:18:09.123
7, -238.91, 3.06, 10.16, 19.17, 0.000, 0.000, 0.000, 15:18:09.124
8, 144.67, 9.00, 8.80, 9.09, 0.000, 0.000, 0.000, 15:18:09.124
9, 78.95, 9.05, 11.66, 10.85, 0.000, 0.000, 0.000, 15:18:09.146
10, -262.13, 6.37, 16.36, 13.36, 0.000, 0.000, 0.000, 15:18:09.146
11, 50.05, 9.51, 9.12, 7.63, 0.000, 0.000, 0.000, 15:18:09.146
12, 204.47, 12.23, 8.86, 8.85, 0.000, 0.000, 0.000, 15:18:09.146
13, -202.99, 7.64, 12.85, 11.93, 0.000, 0.000, 0.000, 15:18:09.147
14, -83.69, 7.43, 11.23, 12.18, 0.000, 0.000, 0.000, 15:18:09.147
15, 236.13, 10.33, 15.19, 12.61, 0.000, 0.000, 0.000, 15:18:09.168
16, -72.97, 5.42, 9.30, 9.81, 0.000, 0.000, 0.000, 15:18:09.168
17, -207.94, 5.28, 13.82, 15.88, 0.000, 0.000, 0.000, 15:18:09.169
18, 177.64, 7.64, 9.61, 12.13, 0.000, 0.000, 0.000, 15:18:09.169
19, 89.30, 11.83, 12.05, 12.41, 0.000, 0.000, 0.000, 15:18:09.191
20, -272.16, 7.43, 11.04, 15.59, 0.000, 0.000, 0.000, 15:18:09.191
21, 70.82, 10.79, 6.10, 8.30, 0.000, 0.000, 0.000, 15:18:09.191
22, 203.38, 10.63, 12.30, 12.10, 0.000, 0.000, 0.000, 15:18:09.191
23, -196.33, 4.55, 11.44, 14.43, 0.000, 0.000, 0.000, 15:18:09.213
24, -95.40, 11.46, 11.81, 8.54, 0.000, 0.000, 0.000, 15:18:09.213
25, 231.00, 5.79, 14.34, 12.90, 0.000, 0.000, 0.000, 15:18:09.214
26, -61.04, 13.63, 6.64, 11.00, 0.000, 0.000, 0.000, 15:18:09.214
27, -222.78, 5.96, 16.44, 13.33, 0.000, 0.000, 0.000, 15:18:09.236
28, 178.22, 9.64, 9.09, 13.45, 0.000, 0.000, 0.000, 15:18:09.236
29, 113.02, 10.74, 6.21, 9.66, 0.000, 0.000, 0.000, 15:18:09.237
30, -264.87, 7.32, 13.17, 11.55, 0.000, 0.000, 0.000, 15:18:09.237
31, 53.40, 8.03, 9.43, 8.52, 0.000, 0.000, 0.000, 15:18:09.237
32, 224.38, 12.21, 12.64, 8.32, 0.000, 0.000, 0.000, 15:18:09.237
33, -207.18, 12.56, 12.70, 13.56, 0.000, 0.000, 0.000, 15:18:09.258
34, -93.21, 5.55, 10.11, 8.09, 0.000, 0.000, 0.000, 15:18:09.259
35, 237.42, 8.16, 8.87, 13.54, 0.000, 0.000, 0.000, 15:18:09.259
36, -68.54, 6.87, 8.92, 8.97, 0.000, 0.000, 0.000, 15:18:09.259
37, -196.49, 0.59, 13.95, 10.64, 0.000, 0.000, 0.000, 15:18:09.280
38, 160.55, 3.66, 7.99, 13.24, 0.000, 0.000, 0.000, 15:18:09.281
39, 105.98, 13.43, 13.57, 12.73, 0.000, 0.000, 0.000, 15:18:09.281
40, -271.02, 6.22, 15.31, 14.81, 0.000, 0.000, 0.000, 15:18:09.281
41, 47.10, 8.82, 9.03, 10.73, 0.000, 0.000, 0.000, 15:18:09.303
42, 232.03, 14.77, 13.28, 12.56, 0.000, 0.000, 0.000, 15:18:09.303
43, -198.02, 2.99, 14.18, 12.48, 0.000, 0.000, 0.000, 15:18:09.304
44, -83.08, 10.59, 12.03, 11.20, 0.000, 0.000, 0.000, 15:18:09.304
45, 238.10, 7.48, 12.08, 13.35, 0.000, 0.000, 0.000, 15:18:09.326
46, -65.48, 11.18, 12.87, 10.13, 0.000, 0.000, 0.000, 15:18:09.326
47, -212.68, 6.57, 12.31, 15.67, 0.000, 0.000, 0.000, 15:18:09.326
48, 171.80, 12.18, 7.73, 8.80, 0.000, 0.000, 0.000, 15:18:09.326
49, 102.98, 9.48, 8.36, 10.00, 0.000, 0.000, 0.000, 15:18:09.327
50, -261.61, 6.08, 12.31, 13.51, 0.000, 0.000, 0.000, 15:18:09.327
51, 60.89, 13.49, 8.13, 10.65, 0.000, 0.000, 0.000, 15:18:09.371
52, 202.47, 5.43, 11.96, 14.25, 0.000, 0.000, 0.000, 15:18:09.371
53, -203.32, 10.49, 13.26, 12.75, 0.000, 0.000, 0.000, 15:18:09.371
54, -94.53, 14.55, 7.98, 12.13, 0.000, 0.000, 0.000, 15:18:09.371
55, 232.73, 8.61, 10.95, 12.62, 0.000, 0.000, 0.000, 15:18:09.372
56, -73.19, 11.61, 8.45, 12.82, 0.000, 0.000, 0.000, 15:18:09.372
57, -210.56, 3.45, 11.63, 14.28, 0.000, 0.000, 0.000, 15:18:09.393
58, 156.75, 9.05, 8.41, 9.37, 0.000, 0.000, 0.000, 15:18:09.393
59, 80.09, 7.61, 9.01, 12.42, 0.000, 0.000, 0.000, 15:18:09.394
60, -263.68, 8.31, 13.27, 15.31, 0.000, 0.000, 0.000, 15:18:09.394
61, 40.47, 8.95, 10.39, 7.90, 0.000, 0.000, 0.000, 15:18:09.394
62, 217.82, 7.61, 9.98, 10.72, 0.000, 0.000, 0.000, 15:18:09.394
63, -212.13, 13.73, 10.14, 13.52, 0.000, 0.000, 0.000, 15:18:09.395
64, -102.29, 8.50, 12.81, 14.56, 0.000, 0.000, 0.000, 15:18:09.395
65, 223.06, 8.92, 8.07, 11.16, 0.000, 0.000, 0.000, 15:18:09.416
66, -85.30, 9.36, 9.84, 11.52, 0.000, 0.000, 0.000, 15:18:09.416
67, -214.43, 6.77, 12.07, 15.46, 0.000, 0.000, 0.000, 15:18:09.416
68, 135.41, 9.68, 10.99, 11.91, 0.000, 0.000, 0.000, 15:18:09.416
69, 95.14, 14.88, 9.21, 8.83, 0.000, 0.000, 0.000, 15:18:09.438
70, -268.56, 0.93, 13.75, 17.74, 0.000, 0.000, 0.000, 15:18:09.438
71, 40.84, 11.22, 12.10, 10.62, 0.000, 0.000, 0.000, 15:18:09.439
72, 199.27, 10.45, 11.02, 13.56, 0.000, 0.000, 0.000, 15:18:09.439
73, -223.25, 9.75, 12.47, 11.76, 0.000, 0.000, 0.000, 15:18:09.461
74, -93.60, 5.93, 10.33, 11.76, 0.000, 0.000, 0.000, 15:18:09.461
75, 223.43, 8.54, 14.57, 10.40, 0.000, 0.000, 0.000, 15:18:09.462
76, -68.23, 11.92, 9.56, 13.67, 0.000, 0.000, 0.000, 15:18:09.462
77, -223.09, 8.09, 13.09, 11.75, 0.000, 0.000, 0.000, 15:18:09.483
78, 155.07, 11.85, 8.53, 10.76, 0.000, 0.000, 0.000, 15:18:09.483
79, 97.80, 5.23, 9.75, 13.42, 0.000, 0.000, 0.000, 15:18:09.484
80, -265.88, 10.27, 11.66, 16.15, 0.000, 0.000, 0.000, 15:18:09.484
81, 52.43, 11.54, 13.72, 11.28, 0.000, 0.000, 0.000, 15:18:09.506
82, 202.83, 7.75, 10.11, 10.93, 0.000, 0.000, 0.000, 15:18:09.506
83, -206.77, 1.74, 15.41, 10.76, 0.000, 0.000, 0.000, 15:18:09.506
84, -101.00, 9.39, 9.07, 9.40, 0.000, 0.000, 0.000, 15:18:09.506
85, 236.46, 8.25, 12.07, 10.58, 0.000, 0.000, 0.000, 15:18:09.507
86, -72.71, 5.80, 9.07, 10.94, 0.000, 0.000, 0.000, 15:18:09.507
87, -212.10, 10.35, 11.44, 15.94, 0.000, 0.000, 0.000, 15:18:09.528
88, 163.83, 5.88, 12.51, 10.81, 0.000, 0.000, 0.000, 15:18:09.528
89, 93.47, 9.44, 9.81, 11.54, 0.000, 0.000, 0.000, 15:18:09.529
90, -256.37, 7.41, 11.65, 13.24, 0.000, 0.000, 0.000, 15:18:09.529
91, 43.30, 9.43, 7.91, 7.65, 0.000, 0.000, 0.000, 15:18:09.551
92, 215.26, 7.21, 13.93, 12.70, 0.000, 0.000, 0.000, 15:18:09.551
93, -213.97, 9.55, 14.20, 10.66, 0.000, 0.000, 0.000, 15:18:09.551
94, -92.93, 10.13, 12.01, 9.19, 0.000, 0.000, 0.000, 15:18:09.552
95, 227.15, 9.24, 10.06, 12.97, 0.000, 0.000, 0.000, 15:18:09.573
96, -75.68, 13.74, 6.77, 7.18, 0.000, 0.000, 0.000, 15:18:09.573
97, -204.99, 2.16, 12.75, 13.55, 0.000, 0.000, 0.000, 15:18:09.574
98, 151.25, 8.76, 8.80, 10.55, 0.000, 0.000, 0.000, 15:18:09.574
99, 107.91, 9.30, 13.29, 15.89, 0.000, 0.000, 0.000, 15:18:09.596
100, -262.15, 6.20, 13.86, 13.48, 0.000, 0.000, 0.000, 15:18:09.596
101, 55.03, 9.85, 5.77, 11.63, 0.000, 0.000, 0.000, 15:18:09.596
102, 208.13, 6.07, 15.00, 12.76, 0.000, 0.000, 0.000, 15:18:09.596
103, -214.09, 9.48, 11.01, 13.17, 0.000, 0.000, 0.000, 15:18:09.597
104, -88.56, 4.74, 15.11, 18.69, 0.000, 0.000, 0.000, 15:18:09.597
105, 224.56, 11.14, 13.67, 12.21, 0.000, 0.000, 0.000, 15:18:09.618
106, -62.82, 10.52, 10.72, 13.80, 0.000, 0.000, 0.000, 15:18:09.618
107, -214.17, 10.88, 9.64, 14.99, 0.000, 0.000, 0.000, 15:18:09.619
108, 162.97, 10.79, 10.93, 12.68, 0.000, 0.000, 0.000, 15:18:09.619
109, 100.15, 10.21, 11.29, 9.83, 0.000, 0.000, 0.000, 15:18:09.641
110, -260.67, 5.93, 13.68, 11.22, 0.000, 0.000, 0.000, 15:18:09.641
111, 53.54, 10.71, 9.70, 8.33, 0.000, 0.000, 0.000, 15:18:09.641
112, 198.53, 3.99, 9.25, 12.55, 0.000, 0.000, 0.000, 15:18:09.641
113, -204.54, 8.22, 12.28, 11.28, 0.000, 0.000, 0.000, 15:18:09.663
114, -96.24, 14.51, 9.56, 10.16, 0.000, 0.000, 0.000, 15:18:09.663
115, 232.67, 9.49, 10.41, 15.82, 0.000, 0.000, 0.000, 15:18:09.664
116, -70.76, 7.97, 12.28, 11.48, 0.000, 0.000, 0.000, 15:18:09.664
117, -210.01, 5.11, 16.30, 13.24, 0.000, 0.000, 0.000, 15:18:09.686
118, 160.35, 7.18, 6.20, 7.42, 0.000, 0.000, 0.000, 15:18:09.686
119, 94.17, 7.22, 7.77, 12.39, 0.000, 0.000, 0.000, 15:18:09.687
120, -258.97, 4.87, 12.96, 14.04, 0.000, 0.000, 0.000, 15:18:09.687
121, 41.13, 8.10, 10.66, 13.97, 0.000, 0.000, 0.000, 15:18:09.687
122, 212.47, 10.95, 12.87, 9.87, 0.000, 0.000, 0.000, 15:18:09.688
123, -219.93, 12.72, 12.27, 12.33, 0.000, 0.000, 0.000, 15:18:09.708
124, -98.24, 6.42, 10.88, 8.83, 0.000, 0.000, 0.000, 15:18:09.708
125, 227.77, 6.86, 12.03, 14.76, 0.000, 0.000, 0.000, 15:18:09.709
126, -75.78, 9.14, 9.46, 13.25, 0.000, 0.000, 0.000, 15:18:09.709
127, -184.93, 7.03, 11.00, 14.67, 0.000, 0.000, 0.000, 15:18:09.731
128, 157.19, 8.90, 6.87, 11.80, 0.000, 0.000, 0.000, 15:18:09.731
129, 108.06, 13.15, 9.80, 8.61, 0.000, 0.000, 0.000, 15:18:09.731
130, -261.24, 4.47, 15.36, 15.80, 0.000, 0.000, 0.000, 15:18:09.731
131, 55.82, 11.97, 9.74, 12.24, 0.000, 0.000, 0.000, 15:18:09.753
132, 201.47, 11.38, 11.99, 10.10, 0.000, 0.000, 0.000, 15:18:09.753
133, -211.16, 4.55, 15.16, 11.25, 0.000, 0.000, 0.000, 15:18:09.754
134, -93.25, 6.95, 10.74, 8.33, 0.000, 0.000, 0.000, 15:18:09.754
135, 217.24, 6.92, 9.90, 8.44, 0.000, 0.000, 0.000, 15:18:09.776
136, -66.79, 11.43, 9.70, 9.92, 0.000, 0.000, 0.000, 15:18:09.776
137, -219.35, 7.07, 14.60, 14.34, 0.000, 0.000, 0.000, 15:18:09.776
138, 165.37, 11.00, 11.22, 10.66, 0.000, 0.000, 0.000, 15:18:09.777
139, 88.76, 9.66, 9.90, 12.67, 0.000, 0.000, 0.000, 15:18:09.777
140, -261.47, 11.17, 16.17, 16.81, 0.000, 0.000, 0.000, 15:18:09.777
141, 46.70, 16.71, 6.49, 9.76, 0.000, 0.000, 0.000, 15:18:09.798
142, 203.25, 5.92, 13.76, 10.98, 0.000, 0.000, 0.000, 15:18:09.798
143, -203.23, 7.55, 11.41, 7.81, 0.000, 0.000, 0.000, 15:18:09.798
144, -99.44, 9.88, 8.83, 10.25, 0.000, 0.000, 0.000, 15:18:09.799
145, 234.37, 9.46, 10.52, 13.42, 0.000, 0.000, 0.000, 15:18:09.821
146, -82.09, 5.85, 8.05, 10.35, 0.000, 0.000, 0.000, 15:18:09.821
147, -205.39, 6.05, 12.64, 11.38, 0.000, 0.000, 0.000, 15:18:09.821
148, 155.27, 9.58, 9.14, 14.60, 0.000, 0.000, 0.000, 15:18:09.821
149, 101.54, 8.50, 13.42, 12.98, 0.000, 0.000, 0.000, 15:18:09.843
150, -256.40, 9.54, 16.10, 13.60, 0.000, 0.000, 0.000, 15:18:09.843
151, 36.62, 0.81, 8.40, 11.46, 0.000, 0.000, 0.000, 15:18:09.844
152, 214.89, 9.97, 8.07, 7.80, 0.000, 0.000, 0.000, 15:18:09.844
153, -214.10, 8.62, 12.72, 13.50, 0.000, 0.000, 0.000, 15:18:09.865
154, -89.12, 7.91, 10.82, 12.73, 0.000, 0.000, 0.000, 15:18:09.866
155, 224.29, 10.83, 15.08, 12.47, 0.000, 0.000, 0.000, 15:18:09.866
156, -56.75, 10.51, 16.48, 9.13, 0.000, 0.000, 0.000, 15:18:09.866
157, -209.99, 8.23, 13.30, 9.76, 0.000, 0.000, 0.000, 15:18:09.867
158, 157.03, 7.05, 9.99, 12.01, 0.000, 0.000, 0.000, 15:18:09.867
159, 102.60, 10.28, 8.04, 12.29, 0.000, 0.000, 0.000, 15:18:09.888
160, -270.76, 3.89, 14.56, 16.52, 0.000, 0.000, 0.000, 15:18:09.888
161, 51.40, 11.15, 5.48, 12.77, 0.000, 0.000, 0.000, 15:18:09.889
162, 198.19, 11.56, 10.96, 14.54, 0.000, 0.000, 0.000, 15:18:09.889
163, -199.66, 8.62, 8.73, 16.90, 0.000, 0.000, 0.000, 15:18:09.911
164, -92.62, 8.70, 5.49, 9.41, 0.000, 0.000, 0.000, 15:18:09.911
165, 225.13, 10.34, 8.03, 8.80, 0.000, 0.000, 0.000, 15:18:09.911
166, -70.36, 12.06, 12.05, 9.58, 0.000, 0.000, 0.000, 15:18:09.911
167, -219.86, 12.92, 12.25, 10.13, 0.000, 0.000, 0.000, 15:18:09.933
168, 171.67, 14.74, 9.37, 10.89, 0.000, 0.000, 0.000, 15:18:09.933
169, 86.15, 7.10, 9.20, 11.55, 0.000, 0.000, 0.000, 15:18:09.934
170, -253.41, 7.25, 13.54, 9.63, 0.000, 0.000, 0.000, 15:18:09.934
171, 40.07, 4.49, 11.20, 9.94, 0.000, 0.000, 0.000, 15:18:09.956
172, 198.42, 9.62, 10.27, 16.03, 0.000, 0.000, 0.000, 15:18:09.956
173, -212.27, 6.64, 12.76, 9.15, 0.000, 0.000, 0.000, 15:18:09.956
174, -92.67, 11.72, 9.83, 9.34, 0.000, 0.000, 0.000, 15:18:09.956
175, 242.95, 7.87, 10.18, 15.18, 0.000, 0.000, 0.000, 15:18:09.957
176, -76.83, 10.35, 9.80, 10.46, 0.000, 0.000, 0.000, 15:18:09.957
177, -198.01, 7.65, 13.30, 11.75, 0.000, 0.000, 0.000, 15:18:09.978
178, 153.32, 7.60, 6.51, 9.64, 0.000, 0.000, 0.000, 15:18:09.978
179, 91.75, 8.45, 12.31, 10.60, 0.000, 0.000, 0.000, 15:18:09.979
180, -268.84, 3.70, 12.55, 13.85, 0.000, 0.000, 0.000, 15:18:09.979
181, 62.81, 10.31, 9.71, 13.34, 0.000, 0.000, 0.000, 15:18:10.001
182, 214.20, 8.10, 11.54, 14.11, 0.000, 0.000, 0.000, 15:18:10.001
183, -204.35, 7.57, 11.95, 15.32, 0.000, 0.000, 0.000, 15:18:10.001
184, -93.72, 7.81, 15.04, 13.87, 0.000, 0.000, 0.000, 15:18:10.002
185, 226.41, 7.20, 9.99, 11.21, 0.000, 0.000, 0.000, 15:18:10.023
186, -66.93, 13.85, 7.50, 13.50, 0.000, 0.000, 0.000, 15:18:10.024
187, -209.07, 2.22, 12.23, 11.16, 0.000, 0.000, 0.000, 15:18:10.024
188, 158.00, 5.51, 11.00, 10.35, 0.000, 0.000, 0.000, 15:18:10.024
189, 85.02, 8.29, 12.18, 12.16, 0.000, 0.000, 0.000, 15:18:10.046
190, -271.09, 7.37, 11.61, 14.26, 0.000, 0.000, 0.000, 15:18:10.046
191, 65.47, 9.58, 5.91, 13.81, 0.000, 0.000, 0.000, 15:18:10.046
192, 201.87, 9.21, 10.90, 8.69, 0.000, 0.000, 0.000, 15:18:10.046
