%OpenBCI Raw EEG Data
%
%Sample Rate = 200.0 Hz
%First Column = SampleIndex
%Last Column = Timestamp 
%Other Columns = EEG data in microvolts followed by Accel Data (in G) interleaved with Aux Data
0, 36.54, 10.46, 8.28, 7.26, 0.000, 0.000, 0.000, 15:20:14.137
1, -279.17, 6.07, 11.83, 14.52, 0.000, 0.000, 0.000, 15:20:14.140
2, 109.43, 8.07, 14.33, 14.50, 0.000, 0.000, 0.000, 15:20:14.141
3, 167.50, 13.37, 11.93, 11.68, 0.000, 0.000, 0.000, 15:20:14.142
4, -279.00, 5.19, 10.36, 8.17, 0.000, 0.000, 0.000, 15:20:14.142
5, -43.09, 3.06, 13.23, 15.03, 0.000, 0.000, 0.000, 15:20:14.158
6, 243.16, 7.72, 12.83, 10.33, 0.000, 0.000, 0.000, 15:20:14.159
7, -167.41, 8.78, 9.40, 10.40, 0.000, 0.000, 0.000, 15:20:14.160
8, -187.46, 8.47, 14.53, 13.69, 0.000, 0.000, 0.000, 15:20:14.160
9, 205.90, 7.23, 9.12, 10.52, 0.000, 0.000, 0.000, 15:20:14.161
10, 12.34, 9.54, 8.79, 8.52, 0.000, 0.000, 0.000, 15:20:14.161
11, -289.20, 6.12, 10.00, 13.60, 0.000, 0.000, 0.000, 15:20:14.181
12, 122.52, 16.20, 10.87, 12.78, 0.000, 0.000, 0.000, 15:20:14.182
13, 167.76, 4.59, 9.67, 13.34, 0.000, 0.000, 0.000, 15:20:14.182
14, -269.56, 7.93, 10.60, 14.67, 0.000, 0.000, 0.000, 15:20:14.183
15, -30.95, 2.86, 13.88, 14.31, 0.000, 0.000, 0.000, 15:20:14.203
16, 233.47, 11.14, 8.72, 11.58, 0.000, 0.000, 0.000, 15:20:14.204
17, -160.08, 10.43, 8.59, 10.16, 0.000, 0.000, 0.000, 15:20:14.204
18, -192.18, 9.91, 16.07, 15.48, 0.000, 0.000, 0.000, 15:20:14.205
19, 193.42, 7.17, 11.25, 11.95, 0.000, 0.000, 0.000, 15:20:14.205
20, 29.81, 13.24, 9.99, 8.67, 0.000, 0.000, 0.000, 15:20:14.206
21, -282.95, 14.54, 16.61, 16.02, 0.000, 0.000, 0.000, 15:20:14.226
22, 118.05, 5.79, 13.28, 12.14, 0.000, 0.000, 0.000, 15:20:14.227
23, 174.25, 6.47, 8.65, 11.16, 0.000, 0.000, 0.000, 15:20:14.229
24, -280.30, 11.20, 8.50, 11.87, 0.000, 0.000, 0.000, 15:20:14.229
25, -43.86, 11.58, 8.85, 12.62, 0.000, 0.000, 0.000, 15:20:14.250
26, 237.40, 8.05, 9.46, 11.64, 0.000, 0.000, 0.000, 15:20:14.250
27, -141.80, 15.45, 8.00, 9.24, 0.000, 0.000, 0.000, 15:20:14.251
28, -177.08, 8.27, 18.39, 15.60, 0.000, 0.000, 0.000, 15:20:14.251
29, 227.81, 9.11, 11.08, 11.10, 0.000, 0.000, 0.000, 15:20:14.274
30, 61.18, 15.09, 7.28, 8.44, 0.000, 0.000, 0.000, 15:20:14.274
31, -249.45, -1.35, 14.28, 14.73, 0.000, 0.000, 0.000, 15:20:14.275
32, 132.90, 5.03, 9.59, 11.26, 0.000, 0.000, 0.000, 15:20:14.275
33, 180.82, 6.56, 10.02, 8.66, 0.000, 0.000, 0.000, 15:20:14.294
34, -298.35, 8.12, 9.47, 12.08, 0.000, 0.000, 0.000, 15:20:14.295
35, -74.68, 5.31, 14.04, 12.04, 0.000, 0.000, 0.000, 15:20:14.295
36, 207.90, 10.61, 9.52, 11.74, 0.000, 0.000, 0.000, 15:20:14.296
37, -179.23, 12.90, 7.88, 10.94, 0.000, 0.000, 0.000, 15:20:14.296
38, -210.13, 3.38, 14.20, 16.25, 0.000, 0.000, 0.000, 15:20:14.296
39, 179.82, 11.36, 11.91, 13.17, 0.000, 0.000, 0.000, 15:20:14.315
40, 3.40, 5.62, 6.52, 6.95, 0.000, 0.000, 0.000, 15:20:14.316
41, -299.58, 4.18, 14.42, 14.33, 0.000, 0.000, 0.000, 15:20:14.316
42, 131.47, 6.01, 10.52, 7.23, 0.000, 0.000, 0.000, 15:20:14.316
43, 182.53, 10.60, 11.29, 8.51, 0.000, 0.000, 0.000, 15:20:14.339
44, -290.68, 10.05, 9.93, 12.23, 0.000, 0.000, 0.000, 15:20:14.339
45, -36.42, 8.28, 12.55, 14.64, 0.000, 0.000, 0.000, 15:20:14.340
46, 264.34, 8.16, 10.73, 10.48, 0.000, 0.000, 0.000, 15:20:14.341
47, -145.64, 10.14, 9.96, 8.97, 0.000, 0.000, 0.000, 15:20:14.363
48, -185.44, 10.49, 12.16, 16.66, 0.000, 0.000, 0.000, 15:20:14.363
49, 207.51, 3.36, 12.06, 10.09, 0.000, 0.000, 0.000, 15:20:14.365
50, 34.91, 11.54, 9.48, 11.47, 0.000, 0.000, 0.000, 15:20:14.365
51, -291.02, 9.34, 13.89, 15.06, 0.000, 0.000, 0.000, 15:20:14.383
52, 113.14, 11.41, 8.56, 13.70, 0.000, 0.000, 0.000, 15:20:14.383
53, 186.93, 6.74, 8.56, 9.84, 0.000, 0.000, 0.000, 15:20:14.384
54, -274.01, 8.72, 14.48, 9.51, 0.000, 0.000, 0.000, 15:20:14.384
55, -34.89, 4.40, 13.34, 14.86, 0.000, 0.000, 0.000, 15:20:14.384
56, 237.78, 6.20, 10.33, 11.69, 0.000, 0.000, 0.000, 15:20:14.385
57, -146.41, 13.53, 4.26, 10.97, 0.000, 0.000, 0.000, 15:20:14.405
58, -187.73, 1.71, 10.48, 14.13, 0.000, 0.000, 0.000, 15:20:14.406
59, 204.26, 5.30, 12.09, 12.47, 0.000, 0.000, 0.000, 15:20:14.406
60, 36.26, 9.96, 10.26, 11.10, 0.000, 0.000, 0.000, 15:20:14.407
61, -286.91, 2.21, 15.10, 12.93, 0.000, 0.000, 0.000, 15:20:14.428
62, 102.22, 7.52, 10.90, 13.22, 0.000, 0.000, 0.000, 15:20:14.428
63, 166.34, 10.02, 8.82, 14.62, 0.000, 0.000, 0.000, 15:20:14.428
64, -259.22, 9.82, 12.96, 12.18, 0.000, 0.000, 0.000, 15:20:14.429
65, -28.26, 9.20, 12.48, 8.59, 0.000, 0.000, 0.000, 15:20:14.450
66, 250.84, 15.18, 11.94, 9.84, 0.000, 0.000, 0.000, 15:20:14.451
67, -148.17, 7.86, 6.73, 15.07, 0.000, 0.000, 0.000, 15:20:14.451
68, -186.15, 5.04, 13.42, 16.12, 0.000, 0.000, 0.000, 15:20:14.451
69, 209.10, 9.79, 12.96, 11.47, 0.000, 0.000, 0.000, 15:20:14.473
70, 42.13, 13.22, 6.66, 10.86, 0.000, 0.000, 0.000, 15:20:14.473
71, -273.01, 10.19, 8.81, 14.95, 0.000, 0.000, 0.000, 15:20:14.474
72, 109.74, 5.91, 4.99, 4.81, 0.000, 0.000, 0.000, 15:20:14.474
73, 188.76, 8.20, 11.72, 8.21, 0.000, 0.000, 0.000, 15:20:14.475
74, -270.87, 9.71, 10.63, 12.75, 0.000, 0.000, 0.000, 15:20:14.475
75, -34.93, 8.21, 15.09, 16.98, 0.000, 0.000, 0.000, 15:20:14.495
76, 243.99, 6.57, 11.58, 15.51, 0.000, 0.000, 0.000, 15:20:14.496
77, -157.63, 11.26, 11.97, 11.96, 0.000, 0.000, 0.000, 15:20:14.496
78, -209.98, 4.59, 14.54, 17.33, 0.000, 0.000, 0.000, 15:20:14.497
79, 232.95, 8.00, 12.28, 12.17, 0.000, 0.000, 0.000, 15:20:14.518
80, 53.79, 8.63, 9.98, 7.76, 0.000, 0.000, 0.000, 15:20:14.518
81, -282.14, 4.80, 13.20, 10.80, 0.000, 0.000, 0.000, 15:20:14.519
82, 115.22, 7.95, 11.26, 9.84, 0.000, 0.000, 0.000, 15:20:14.519
83, 181.18, 10.83, 10.70, 11.82, 0.000, 0.000, 0.000, 15:20:14.541
84, -265.60, 15.16, 7.43, 13.01, 0.000, 0.000, 0.000, 15:20:14.541
85, -39.59, -0.24, 13.25, 9.99, 0.000, 0.000, 0.000, 15:20:14.541
86, 237.48, 6.48, 12.05, 13.05, 0.000, 0.000, 0.000, 15:20:14.541
87, -152.06, 13.27, 6.64, 15.12, 0.000, 0.000, 0.000, 15:20:14.563
88, -197.30, 3.28, 13.79, 13.15, 0.000, 0.000, 0.000, 15:20:14.563
89, 185.70, 5.82, 12.81, 13.70, 0.000, 0.000, 0.000, 15:20:14.563
90, 38.99, 13.18, 8.61, 6.86, 0.000, 0.000, 0.000, 15:20:14.564
91, -292.67, 6.72, 11.33, 13.91, 0.000, 0.000, 0.000, 15:20:14.564
92, 93.13, 7.60, 10.37, 8.50, 0.000, 0.000, 0.000, 15:20:14.564
93, 165.94, 13.71, 12.26, 11.32, 0.000, 0.000, 0.000, 15:20:14.585
94, -275.51, 5.03, 9.90, 12.26, 0.000, 0.000, 0.000, 15:20:14.586
95, -49.70, 5.56, 14.47, 14.35, 0.000, 0.000, 0.000, 15:20:14.586
96, 227.11, 7.21, 13.47, 9.37, 0.000, 0.000, 0.000, 15:20:14.586
97, -158.41, 10.86, 6.25, 9.53, 0.000, 0.000, 0.000, 15:20:14.608
98, -201.53, 4.28, 10.80, 13.39, 0.000, 0.000, 0.000, 15:20:14.608
99, 197.45, 7.70, 9.73, 10.99, 0.000, 0.000, 0.000, 15:20:14.609
100, 31.22, 10.83, 9.52, 8.60, 0.000, 0.000, 0.000, 15:20:14.609
101, -302.37, 11.41, 10.17, 9.63, 0.000, 0.000, 0.000, 15:20:14.630
102, 96.63, 11.17, 9.90, 11.21, 0.000, 0.000, 0.000, 15:20:14.631
103, 172.44, 5.51, 13.35, 13.16, 0.000, 0.000, 0.000, 15:20:14.653
104, -281.57, 9.77, 8.55, 11.56, 0.000, 0.000, 0.000, 15:20:14.653
105, -45.82, 1.25, 13.53, 13.19, 0.000, 0.000, 0.000, 15:20:14.654
106, 231.49, 5.96, 17.17, 13.37, 0.000, 0.000, 0.000, 15:20:14.654
107, -151.24, 8.44, 7.67, 7.81, 0.000, 0.000, 0.000, 15:20:14.655
108, -204.63, 6.37, 14.18, 13.76, 0.000, 0.000, 0.000, 15:20:14.655
109, 179.18, 7.23, 9.72, 12.01, 0.000, 0.000, 0.000, 15:20:14.655
110, 36.87, 9.86, 12.59, 10.57, 0.000, 0.000, 0.000, 15:20:14.656
111, -278.68, 6.67, 10.17, 11.56, 0.000, 0.000, 0.000, 15:20:14.675
112, 105.03, 7.61, 9.10, 12.31, 0.000, 0.000, 0.000, 15:20:14.676
113, 182.58, 13.88, 12.82, 13.67, 0.000, 0.000, 0.000, 15:20:14.676
114, -275.77, 10.17, 9.74, 12.57, 0.000, 0.000, 0.000, 15:20:14.676
115, -42.47, 10.08, 12.84, 13.35, 0.000, 0.000, 0.000, 15:20:14.698
116, 240.29, 8.34, 10.18, 13.46, 0.000, 0.000, 0.000, 15:20:14.698
117, -147.75, 12.98, 9.47, 11.22, 0.000, 0.000, 0.000, 15:20:14.698
118, -190.81, 4.70, 16.11, 11.20, 0.000, 0.000, 0.000, 15:20:14.699
119, 203.40, 7.90, 10.41, 14.91, 0.000, 0.000, 0.000, 15:20:14.720
120, 36.93, 17.69, 12.36, 7.81, 0.000, 0.000, 0.000, 15:20:14.721
121, -290.38, 3.22, 11.21, 14.80, 0.000, 0.000, 0.000, 15:20:14.721
122, 93.83, 9.82, 6.98, 8.53, 0.000, 0.000, 0.000, 15:20:14.722
123, 163.85, 8.53, 9.94, 9.64, 0.000, 0.000, 0.000, 15:20:14.743
124, -273.17, 8.66, 11.08, 11.68, 0.000, 0.000, 0.000, 15:20:14.746
125, -34.71, 5.54, 13.31, 17.51, 0.000, 0.000, 0.000, 15:20:14.746
126, 241.59, 9.73, 10.19, 8.90, 0.000, 0.000, 0.000, 15:20:14.747
127, -139.80, 10.84, 8.81, 11.00, 0.000, 0.000, 0.000, 15:20:14.749
128, -199.71, 6.12, 14.45, 15.21, 0.000, 0.000, 0.000, 15:20:14.749
129, 199.26, 13.60, 8.47, 16.01, 0.000, 0.000, 0.000, 15:20:14.765
130, 41.01, 9.89, 8.86, 11.38, 0.000, 0.000, 0.000, 15:20:14.766
131, -291.48, 10.47, 12.97, 12.12, 0.000, 0.000, 0.000, 15:20:14.766
132, 93.89, 9.26, 13.38, 13.46, 0.000, 0.000, 0.000, 15:20:14.766
133, 181.13, 10.01, 11.56, 9.66, 0.000, 0.000, 0.000, 15:20:14.788
134, -262.71, 9.45, 9.17, 13.93, 0.000, 0.000, 0.000, 15:20:14.789
135, -53.41, 7.24, 12.97, 12.57, 0.000, 0.000, 0.000, 15:20:14.789
136, 232.54, 6.87, 12.44, 13.86, 0.000, 0.000, 0.000, 15:20:14.789
137, -162.98, 10.30, 9.08, 5.47, 0.000, 0.000, 0.000, 15:20:14.810
138, -199.69, 11.93, 13.25, 15.45, 0.000, 0.000, 0.000, 15:20:14.811
139, 185.42, 5.95, 9.18, 14.61, 0.000, 0.000, 0.000, 15:20:14.811
140, 52.82, 5.45, 5.78, 7.31, 0.000, 0.000, 0.000, 15:20:14.811
141, -267.63, 1.86, 12.75, 9.01, 0.000, 0.000, 0.000, 15:20:14.833
142, 100.85, 4.56, 7.64, 13.69, 0.000, 0.000, 0.000, 15:20:14.833
143, 185.59, 6.12, 10.34, 10.26, 0.000, 0.000, 0.000, 15:20:14.855
144, -277.78, 11.98, 9.16, 11.62, 0.000, 0.000, 0.000, 15:20:14.856
145, -58.83, 3.96, 14.62, 9.55, 0.000, 0.000, 0.000, 15:20:14.856
146, 241.68, 6.51, 10.86, 11.34, 0.000, 0.000, 0.000, 15:20:14.856
147, -138.69, 18.73, 8.59, 8.24, 0.000, 0.000, 0.000, 15:20:14.857
148, -196.22, -3.10, 14.05, 17.10, 0.000, 0.000, 0.000, 15:20:14.857
149, 194.69, 4.19, 9.83, 11.04, 0.000, 0.000, 0.000, 15:20:14.858
150, 45.56, 12.97, 9.42, 10.77, 0.000, 0.000, 0.000, 15:20:14.858
151, -291.90, 6.40, 13.03, 15.35, 0.000, 0.000, 0.000, 15:20:14.878
152, 97.88, 6.98, 11.12, 15.63, 0.000, 0.000, 0.000, 15:20:14.878
153, 174.55, 9.76, 10.05, 12.30, 0.000, 0.000, 0.000, 15:20:14.879
154, -276.07, 8.46, 8.56, 9.89, 0.000, 0.000, 0.000, 15:20:14.879
155, -42.25, 5.42, 15.87, 18.20, 0.000, 0.000, 0.000, 15:20:14.900
156, 240.22, 11.86, 12.07, 10.79, 0.000, 0.000, 0.000, 15:20:14.901
157, -144.42, 5.58, 9.28, 7.52, 0.000, 0.000, 0.000, 15:20:14.901
158, -207.56, 5.61, 13.83, 15.05, 0.000, 0.000, 0.000, 15:20:14.901
159, 199.02, 7.94, 11.40, 9.57, 0.000, 0.000, 0.000, 15:20:14.923
160, 45.40, 12.47, 9.62, 12.68, 0.000, 0.000, 0.000, 15:20:14.923
161, -291.72, 7.06, 14.40, 12.26, 0.000, 0.000, 0.000, 15:20:14.924
162, 102.06, 8.33, 10.72, 13.34, 0.000, 0.000, 0.000, 15:20:14.924
163, 181.43, 11.23, 10.25, 8.00, 0.000, 0.000, 0.000, 15:20:14.925
164, -268.06, 9.48, 9.42, 10.85, 0.000, 0.000, 0.000, 15:20:14.925
165, -59.43, 10.95, 12.67, 11.95, 0.000, 0.000, 0.000, 15:20:14.945
166, 241.76, 5.05, 8.33, 14.56, 0.000, 0.000, 0.000, 15:20:14.946
167, -148.77, 10.74, 5.13, 10.68, 0.000, 0.000, 0.000, 15:20:14.946
168, -186.99, 3.69, 13.30, 11.35, 0.000, 0.000, 0.000, 15:20:14.946
169, 194.45, 5.95, 12.72, 13.05, 0.000, 0.000, 0.000, 15:20:14.968
170, 47.55, 11.68, 10.25, 8.07, 0.000, 0.000, 0.000, 15:20:14.968
171, -287.69, 8.30, 14.20, 12.13, 0.000, 0.000, 0.000, 15:20:14.969
172, 95.32, 7.87, 10.88, 7.98, 0.000, 0.000, 0.000, 15:20:14.969
173, 193.08, 8.03, 8.24, 6.39, 0.000, 0.000, 0.000, 15:20:14.990
174, -275.10, 16.34, 10.60, 8.37, 0.000, 0.000, 0.000, 15:20:14.991
175, -63.38, 1.02, 15.44, 17.01, 0.000, 0.000, 0.000, 15:20:14.991
176, 232.09, 4.27, 11.83, 13.28, 0.000, 0.000, 0.000, 15:20:14.992
177, -131.65, 10.12, 6.19, 9.52, 0.000, 0.000, 0.000, 15:20:15.013
178, -197.38, 7.74, 14.73, 12.77, 0.000, 0.000, 0.000, 15:20:15.013
179, 191.35, 9.02, 13.42, 16.98, 0.000, 0.000, 0.000, 15:20:15.014
180, 47.62, 12.81, 10.29, 5.51, 0.000, 0.000, 0.000, 15:20:15.014
181, -286.25, 6.83, 8.76, 12.02, 0.000, 0.000, 0.000, 15:20:15.014
182, 92.08, 9.73, 11.78, 15.27, 0.000, 0.000, 0.000, 15:20:15.015
183, 179.20, 12.27, 8.84, 11.51, 0.000, 0.000, 0.000, 15:20:15.036
184, -259.08, 4.66, 10.36, 12.04, 0.000, 0.000, 0.000, 15:20:15.037
185, -58.42, 5.77, 16.24, 17.45, 0.000, 0.000, 0.000, 15:20:15.038
186, 235.93, 7.14, 10.95, 10.17, 0.000, 0.000, 0.000, 15:20:15.038
187, -144.61, 11.28, 11.18, 9.23, 0.000, 0.000, 0.000, 15:20:15.058
188, -202.02, 6.16, 14.40, 9.79, 0.000, 0.000, 0.000, 15:20:15.058
189, 206.08, 8.66, 10.86, 9.90, 0.000, 0.000, 0.000, 15:20:15.059
190, 43.01, 10.94, 7.75, 9.94, 0.000, 0.000, 0.000, 15:20:15.059
191, -292.71, 9.24, 14.51, 16.85, 0.000, 0.000, 0.000, 15:20:15.103
192, 103.92, 16.28, 8.95, 16.48, 0.000, 0.000, 0.000, 15:20:15.104
193, 188.51, 4.07, 10.14, 13.34, 0.000, 0.000, 0.000, 15:20:15.104
194, -270.94, 9.71, 14.18, 12.89, 0.000, 0.000, 0.000, 15:20:15.104
195, -58.28, 7.00, 10.46, 11.72, 0.000, 0.000, 0.000, 15:20:15.105
196, 235.50, 8.97, 9.68, 13.11, 0.000, 0.000, 0.000, 15:20:15.105
197, -147.78, 11.84, 9.33, 10.40, 0.000, 0.000, 0.000, 15:20:15.125
198, -193.15, 7.10, 14.80, 12.32, 0.000, 0.000, 0.000, 15:20:15.126
199, 195.42, 7.01, 11.29, 11.01, 0.000, 0.000, 0.000, 15:20:15.126
200, 52.47, 7.53, 11.66, 6.89, 0.000, 0.000, 0.000, 15:20:15.127
0, -295.64, 7.62, 12.51, 15.57, 0.000, 0.000, 0.000, 15:20:15.127
1, 92.68, 8.02, 11.59, 9.32, 0.000, 0.000, 0.000, 15:20:15.148
2, 183.17, 7.58, 8.88, 7.09, 0.000, 0.000, 0.000, 15:20:15.148
3, -254.34, 7.95, 12.99, 12.88, 0.000, 0.000, 0.000, 15:20:15.149
4, -49.67, 5.64, 11.89, 13.48, 0.000, 0.000, 0.000, 15:20:15.149
5, 232.49, 3.73, 13.45, 18.42, 0.000, 0.000, 0.000, 15:20:15.149
6, -133.12, 12.10, 5.45, 12.81, 0.000, 0.000, 0.000, 15:20:15.150
7, -209.67, 7.11, 11.72, 16.04, 0.000, 0.000, 0.000, 15:20:15.150
8, 191.78, 8.56, 10.92, 10.09, 0.000, 0.000, 0.000, 15:20:15.151
9, 59.92, 10.08, 5.81, 10.25, 0.000, 0.000, 0.000, 15:20:15.170
10, -298.94, 9.71, 15.08, 15.48, 0.000, 0.000, 0.000, 15:20:15.171
11, 81.71, 8.18, 9.77, 9.91, 0.000, 0.000, 0.000, 15:20:15.171
12, 190.48, 10.77, 9.73, 11.01, 0.000, 0.000, 0.000, 15:20:15.172
13, -262.76, 9.40, 9.13, 11.93, 0.000, 0.000, 0.000, 15:20:15.193
14, -49.17, 6.69, 10.62, 19.50, 0.000, 0.000, 0.000, 15:20:15.193
15, 246.72, 8.62, 14.74, 14.18, 0.000, 0.000, 0.000, 15:20:15.194
16, -143.15, 9.97, 8.01, 9.60, 0.000, 0.000, 0.000, 15:20:15.194
17, -197.08, 5.22, 15.80, 15.22, 0.000, 0.000, 0.000, 15:20:15.216
18, 194.62, 12.89, 11.32, 12.19, 0.000, 0.000, 0.000, 15:20:15.216
19, 47.66, 8.61, 5.86, 10.96, 0.000, 0.000, 0.000, 15:20:15.216
20, -297.85, 4.35, 11.90, 12.55, 0.000, 0.000, 0.000, 15:20:15.217
21, 94.72, 7.45, 9.53, 10.99, 0.000, 0.000, 0.000, 15:20:15.239
22, 203.16, 6.33, 8.67, 11.46, 0.000, 0.000, 0.000, 15:20:15.239
23, -261.57, 8.74, 11.62, 9.20, 0.000, 0.000, 0.000, 15:20:15.239
24, -50.87, 6.65, 17.97, 11.17, 0.000, 0.000, 0.000, 15:20:15.240
25, 243.01, 7.95, 11.70, 12.23, 0.000, 0.000, 0.000, 15:20:15.240
26, -132.11, 12.09, 12.41, 6.16, 0.000, 0.000, 0.000, 15:20:15.240
27, -211.15, 11.13, 17.12, 17.72, 0.000, 0.000, 0.000, 15:20:15.260
28, 190.54, 4.76, 11.70, 10.11, 0.000, 0.000, 0.000, 15:20:15.261
29, 66.16, 12.44, 10.04, 8.97, 0.000, 0.000, 0.000, 15:20:15.261
30, -293.83, 11.97, 10.58, 11.88, 0.000, 0.000, 0.000, 15:20:15.262
31, 98.09, 10.05, 11.91, 12.81, 0.000, 0.000, 0.000, 15:20:15.283
32, 183.94, 10.24, 9.30, 10.21, 0.000, 0.000, 0.000, 15:20:15.283
33, -275.11, 11.65, 13.87, 8.71, 0.000, 0.000, 0.000, 15:20:15.305
34, -65.49, 6.12, 15.20, 12.59, 0.000, 0.000, 0.000, 15:20:15.306
35, 234.31, 8.13, 7.12, 10.35, 0.000, 0.000, 0.000, 15:20:15.307
36, -146.28, 16.63, 7.90, 13.36, 0.000, 0.000, 0.000, 15:20:15.307
37, -211.73, 1.43, 14.94, 17.23, 0.000, 0.000, 0.000, 15:20:15.307
38, 204.28, 8.51, 11.25, 12.76, 0.000, 0.000, 0.000, 15:20:15.308
39, 61.45, 12.83, 8.62, 10.46, 0.000, 0.000, 0.000, 15:20:15.308
40, -296.47, 7.55, 14.57, 14.42, 0.000, 0.000, 0.000, 15:20:15.308
41, 86.00, 7.63, 11.37, 9.99, 0.000, 0.000, 0.000, 15:20:15.328
42, 194.59, 4.80, 6.49, 8.56, 0.000, 0.000, 0.000, 15:20:15.328
43, -272.19, 11.90, 8.44, 11.58, 0.000, 0.000, 0.000, 15:20:15.329
44, -68.42, 6.43, 10.15, 14.89, 0.000, 0.000, 0.000, 15:20:15.329
45, 253.46, 11.50, 10.11, 12.21, 0.000, 0.000, 0.000, 15:20:15.350
46, -138.05, 3.72, 9.94, 10.02, 0.000, 0.000, 0.000, 15:20:15.351
47, -199.31, 2.34, 15.53, 12.17, 0.000, 0.000, 0.000, 15:20:15.352
48, 189.56, 9.65, 9.59, 13.53, 0.000, 0.000, 0.000, 15:20:15.352
49, 49.70, 8.36, 9.18, 14.88, 0.000, 0.000, 0.000, 15:20:15.373
50, -299.27, 7.71, 14.26, 17.47, 0.000, 0.000, 0.000, 15:20:15.373
51, 95.19, 4.30, 12.53, 12.86, 0.000, 0.000, 0.000, 15:20:15.373
52, 192.60, 6.50, 12.16, 8.68, 0.000, 0.000, 0.000, 15:20:15.374
53, -257.74, 13.63, 11.23, 12.74, 0.000, 0.000, 0.000, 15:20:15.396
54, -50.24, 7.81, 11.46, 12.64, 0.000, 0.000, 0.000, 15:20:15.396
55, 246.13, 0.93, 9.96, 13.04, 0.000, 0.000, 0.000, 15:20:15.397
56, -115.84, 11.03, 8.79, 10.61, 0.000, 0.000, 0.000, 15:20:15.397
57, -185.29, 8.13, 14.23, 15.89, 0.000, 0.000, 0.000, 15:20:15.418
58, 227.92, 8.67, 10.60, 9.81, 0.000, 0.000, 0.000, 15:20:15.418
59, 96.06, 5.77, 6.66, 7.53, 0.000, 0.000, 0.000, 15:20:15.420
60, -285.94, 8.82, 12.37, 8.38, 0.000, 0.000, 0.000, 15:20:15.420
61, 83.73, 5.28, 11.25, 10.32, 0.000, 0.000, 0.000, 15:20:15.421
62, 157.75, 9.75, 7.44, 13.05, 0.000, 0.000, 0.000, 15:20:15.421
63, -286.79, 12.44, 10.54, 10.40, 0.000, 0.000, 0.000, 15:20:15.440
64, -92.91, 5.57, 14.88, 13.77, 0.000, 0.000, 0.000, 15:20:15.440
65, 213.62, 10.32, 9.07, 9.50, 0.000, 0.000, 0.000, 15:20:15.441
66, -151.57, 12.46, 9.92, 7.15, 0.000, 0.000, 0.000, 15:20:15.441
67, -227.42, 5.85, 12.99, 12.72, 0.000, 0.000, 0.000, 15:20:15.463
68, 191.34, 5.06, 8.17, 13.44, 0.000, 0.000, 0.000, 15:20:15.463
69, 59.16, 11.02, 7.57, 11.73, 0.000, 0.000, 0.000, 15:20:15.464
70, -300.98, 6.67, 10.17, 13.36, 0.000, 0.000, 0.000, 15:20:15.464
71, 82.26, 5.69, 11.60, 14.68, 0.000, 0.000, 0.000, 15:20:15.485
72, 207.01, 12.13, 12.40, 14.48, 0.000, 0.000, 0.000, 15:20:15.486
73, -248.98, 5.19, 13.77, 9.33, 0.000, 0.000, 0.000, 15:20:15.486
74, -59.88, 7.96, 11.52, 8.08, 0.000, 0.000, 0.000, 15:20:15.486
75, 247.39, 8.49, 11.64, 14.91, 0.000, 0.000, 0.000, 15:20:15.508
76, -120.05, 11.37, 7.89, 7.09, 0.000, 0.000, 0.000, 15:20:15.508
77, -196.74, 3.58, 16.23, 18.28, 0.000, 0.000, 0.000, 15:20:15.509
78, 199.70, 9.71, 16.79, 10.34, 0.000, 0.000, 0.000, 15:20:15.509
79, 65.90, 8.85, 10.23, 11.60, 0.000, 0.000, 0.000, 15:20:15.509
80, -300.78, 5.62, 14.44, 17.68, 0.000, 0.000, 0.000, 15:20:15.510
81, 90.43, 11.30, 11.32, 15.77, 0.000, 0.000, 0.000, 15:20:15.530
82, 199.53, 6.57, 10.85, 8.66, 0.000, 0.000, 0.000, 15:20:15.531
83, -272.97, 10.68, 7.05, 6.21, 0.000, 0.000, 0.000, 15:20:15.531
84, -75.46, 10.27, 11.54, 13.21, 0.000, 0.000, 0.000, 15:20:15.531
85, 250.43, 5.12, 6.43, 10.52, 0.000, 0.000, 0.000, 15:20:15.553
86, -103.45, 8.67, 8.21, 12.65, 0.000, 0.000, 0.000, 15:20:15.554
87, -209.54, 7.25, 19.11, 12.87, 0.000, 0.000, 0.000, 15:20:15.554
88, 197.67, 7.98, 9.58, 10.76, 0.000, 0.000, 0.000, 15:20:15.554
89, 64.79, 12.20, 5.46, 13.06, 0.000, 0.000, 0.000, 15:20:15.575
90, -288.35, 10.59, 9.41, 9.69, 0.000, 0.000, 0.000, 15:20:15.576
91, 83.26, 4.01, 10.69, 10.54, 0.000, 0.000, 0.000, 15:20:15.576
92, 200.10, 9.47, 6.19, 12.79, 0.000, 0.000, 0.000, 15:20:15.576
93, -253.89, 10.45, 9.49, 10.31, 0.000, 0.000, 0.000, 15:20:15.598
94, -71.89, 7.96, 12.68, 12.36, 0.000, 0.000, 0.000, 15:20:15.598
95, 247.39, 8.12, 13.62, 15.34, 0.000, 0.000, 0.000, 15:20:15.599
96, -121.52, 12.71, 11.23, 6.70, 0.000, 0.000, 0.000, 15:20:15.599
97, -206.49, 7.58, 13.23, 10.68, 0.000, 0.000, 0.000, 15:20:15.599
98, 198.55, 7.49, 12.98, 10.89, 0.000, 0.000, 0.000, 15:20:15.599
99, 55.98, 11.75, 6.30, 9.21, 0.000, 0.000, 0.000, 15:20:15.621
100, -287.96, 4.88, 14.56, 16.31, 0.000, 0.000, 0.000, 15:20:15.622
101, 104.11, 11.45, 14.03, 12.82, 0.000, 0.000, 0.000, 15:20:15.622
102, 204.57, 9.62, 12.16, 13.08, 0.000, 0.000, 0.000, 15:20:15.622
103, -285.64, 9.36, 9.27, 13.09, 0.000, 0.000, 0.000, 15:20:15.643
104, -46.43, 5.26, 11.74, 14.08, 0.000, 0.000, 0.000, 15:20:15.643
105, 263.96, 5.96, 14.81, 14.14, 0.000, 0.000, 0.000, 15:20:15.644
106, -116.07, 10.54, 9.36, 13.82, 0.000, 0.000, 0.000, 15:20:15.644
107, -205.02, 5.44, 14.73, 12.29, 0.000, 0.000, 0.000, 15:20:15.665
108, 197.71, 12.29, 10.60, 8.80, 0.000, 0.000, 0.000, 15:20:15.666
109, 76.66, 5.97, 8.29, 10.84, 0.000, 0.000, 0.000, 15:20:15.666
110, -293.80, 4.66, 11.00, 13.15, 0.000, 0.000, 0.000, 15:20:15.666
111, 90.47, 5.96, 14.05, 16.11, 0.000, 0.000, 0.000, 15:20:15.688
112, 180.16, 7.26, 11.21, 10.17, 0.000, 0.000, 0.000, 15:20:15.688
113, -246.01, 6.86, 11.90, 7.19, 0.000, 0.000, 0.000, 15:20:15.689
114, -56.00, 7.65, 15.35, 16.26, 0.000, 0.000, 0.000, 15:20:15.689
115, 237.23, 7.78, 10.96, 7.56, 0.000, 0.000, 0.000, 15:20:15.689
116, -129.68, 7.71, 7.77, 9.87, 0.000, 0.000, 0.000, 15:20:15.690
117, -228.01, 9.21, 9.81, 12.11, 0.000, 0.000, 0.000, 15:20:15.710
118, 181.76, 5.04, 8.02, 14.11, 0.000, 0.000, 0.000, 15:20:15.711
119, 59.14, 10.31, 10.37, 11.91, 0.000, 0.000, 0.000, 15:20:15.711
120, -293.28, 8.68, 10.26, 13.39, 0.000, 0.000, 0.000, 15:20:15.711
121, 76.71, 11.42, 12.07, 8.17, 0.000, 0.000, 0.000, 15:20:15.733
122, 186.02, 5.61, 10.05, 13.35, 0.000, 0.000, 0.000, 15:20:15.733
123, -270.02, 10.34, 8.99, 9.71, 0.000, 0.000, 0.000, 15:20:15.733
124, -84.15, 7.94, 13.74, 12.24, 0.000, 0.000, 0.000, 15:20:15.734
125, 231.76, 5.38, 16.25, 15.28, 0.000, 0.000, 0.000, 15:20:15.755
126, -133.00, 18.63, 9.34, 9.74, 0.000, 0.000, 0.000, 15:20:15.756
127, -219.26, 1.52, 12.82, 10.98, 0.000, 0.000, 0.000, 15:20:15.756
128, 185.36, 7.39, 6.89, 16.20, 0.000, 0.000, 0.000, 15:20:15.756
129, 57.48, 12.85, 11.81, 11.65, 0.000, 0.000, 0.000, 15:20:15.778
130, -307.14, 4.01, 8.60, 11.33, 0.000, 0.000, 0.000, 15:20:15.778
131, 73.37, 8.35, 9.45, 8.68, 0.000, 0.000, 0.000, 15:20:15.779
132, 190.58, 13.72, 9.18, 7.62, 0.000, 0.000, 0.000, 15:20:15.779
133, -286.43, 11.46, 8.10, 7.32, 0.000, 0.000, 0.000, 15:20:15.779
134, -73.37, 4.74, 14.18, 10.86, 0.000, 0.000, 0.000, 15:20:15.779
135, 250.41, 12.39, 11.44, 13.70, 0.000, 0.000, 0.000, 15:20:15.800
136, -115.67, 8.93, 10.55, 14.06, 0.000, 0.000, 0.000, 15:20:15.800
137, -212.22, 2.21, 15.59, 14.02, 0.000, 0.000, 0.000, 15:20:15.801
138, 185.93, 8.76, 10.24, 12.41, 0.000, 0.000, 0.000, 15:20:15.801
139, 64.15, 11.70, 9.34, 11.60, 0.000, 0.000, 0.000, 15:20:15.823
140, -303.62, 6.26, 12.28, 15.64, 0.000, 0.000, 0.000, 15:20:15.823
141, 66.66, 8.20, 9.82, 13.02, 0.000, 0.000, 0.000, 15:20:15.824
142, 195.09, 8.37, 11.33, 12.50, 0.000, 0.000, 0.000, 15:20:15.824
143, -250.69, 9.43, 10.94, 12.75, 0.000, 0.000, 0.000, 15:20:15.845
144, -68.99, 10.15, 14.21, 11.55, 0.000, 0.000, 0.000, 15:20:15.846
145, 236.19, 6.62, 12.41, 9.02, 0.000, 0.000, 0.000, 15:20:15.846
146, -122.53, 11.71, 12.61, 10.45, 0.000, 0.000, 0.000, 15:20:15.847
147, -214.53, 8.14, 13.49, 15.88, 0.000, 0.000, 0.000, 15:20:15.868
148, 190.24, 10.62, 10.99, 16.55, 0.000, 0.000, 0.000, 15:20:15.868
149, 61.89, 6.87, 8.81, 8.03, 0.000, 0.000, 0.000, 15:20:15.868
150, -296.21, 6.46, 13.73, 12.27, 0.000, 0.000, 0.000, 15:20:15.869
151, 78.82, 4.41, 10.38, 11.99, 0.000, 0.000, 0.000, 15:20:15.869
152, 196.27, 9.25, 12.70, 11.41, 0.000, 0.000, 0.000, 15:20:15.869
153, -258.93, 15.08, 7.43, 7.82, 0.000, 0.000, 0.000, 15:20:15.890
154, -71.48, 1.91, 14.15, 11.40, 0.000, 0.000, 0.000, 15:20:15.891
155, 241.06, 9.75, 9.74, 11.40, 0.000, 0.000, 0.000, 15:20:15.891
156, -125.85, 10.87, 8.85, 11.86, 0.000, 0.000, 0.000, 15:20:15.891
157, -212.86, 3.54, 12.32, 13.34, 0.000, 0.000, 0.000, 15:20:15.913
158, 185.30, 7.04, 13.92, 11.04, 0.000, 0.000, 0.000, 15:20:15.913
159, 62.37, 9.72, 10.39, 12.49, 0.000, 0.000, 0.000, 15:20:15.914
160, -293.38, 7.98, 10.56, 18.73, 0.000, 0.000, 0.000, 15:20:15.915
161, 80.10, 8.39, 8.57, 12.61, 0.000, 0.000, 0.000, 15:20:15.936
162, 187.30, 12.97, 11.07, 14.39, 0.000, 0.000, 0.000, 15:20:15.936
163, -264.71, 5.86, 10.52, 11.92, 0.000, 0.000, 0.000, 15:20:15.936
164, -62.04, 2.16, 13.03, 10.73, 0.000, 0.000, 0.000, 15:20:15.937
165, 247.53, 11.27, 10.61, 10.03, 0.000, 0.000, 0.000, 15:20:15.958
166, -127.19, 9.40, 8.00, 9.02, 0.000, 0.000, 0.000, 15:20:15.958
167, -217.43, 3.81, 16.39, 12.18, 0.000, 0.000, 0.000, 15:20:15.959
168, 197.96, 11.16, 11.52, 12.50, 0.000, 0.000, 0.000, 15:20:15.959
169, 66.77, 9.50, 7.58, 10.05, 0.000, 0.000, 0.000, 15:20:15.960
170, -307.01, 6.91, 12.28, 12.32, 0.000, 0.000, 0.000, 15:20:15.960
171, 97.48, 13.14, 8.76, 12.58, 0.000, 0.000, 0.000, 15:20:15.980
172, 193.24, 4.44, 11.24, 9.68, 0.000, 0.000, 0.000, 15:20:15.981
173, -253.50, 10.27, 9.71, 11.21, 0.000, 0.000, 0.000, 15:20:15.981
174, -77.66, 7.18, 17.89, 12.60, 0.000, 0.000, 0.000, 15:20:15.981
175, 240.30, 11.43, 10.44, 12.33, 0.000, 0.000, 0.000, 15:20:16.003
176, -116.38, 8.78, 8.73, 11.41, 0.000, 0.000, 0.000, 15:20:16.003
177, -216.78, 5.08, 14.06, 12.21, 0.000, 0.000, 0.000, 15:20:16.004
178, 185.79, 10.39, 11.34, 14.20, 0.000, 0.000, 0.000, 15:20:16.005
179, 68.09, 9.12, 10.48, 12.72, 0.000, 0.000, 0.000, 15:20:16.026
180, -301.46, 14.62, 13.63, 14.15, 0.000, 0.000, 0.000, 15:20:16.026
181, 87.17, 1.50, 8.92, 12.34, 0.000, 0.000, 0.000, 15:20:16.027
182, 199.28, 7.35, 10.95, 11.60, 0.000, 0.000, 0.000, 15:20:16.027
183, -260.50, 10.17, 9.98, 10.88, 0.000, 0.000, 0.000, 15:20:16.048
184, -76.29, 12.27, 11.89, 13.71, 0.000, 0.000, 0.000, 15:20:16.048
185, 243.62, 6.47, 12.77, 10.19, 0.000, 0.000, 0.000, 15:20:16.048
186, -108.16, 9.17, 9.31, 13.73, 0.000, 0.000, 0.000, 15:20:16.049
187, -217.61, 4.21, 15.25, 13.63, 0.000, 0.000, 0.000, 15:20:16.050
188, 178.91, 9.28, 10.98, 14.26, 0.000, 0.000, 0.000, 15:20:16.050
189, 62.19, 16.14, 9.36, 12.33, 0.000, 0.000, 0.000, 15:20:16.070
190, -297.86, 2.11, 13.26, 12.67, 0.000, 0.000, 0.000, 15:20:16.071
191, 68.61, 7.46, 11.28, 10.07, 0.000, 0.000, 0.000, 15:20:16.071
192, 201.63, 9.56, 9.19, 10.24, 0.000, 0.000, 0.000, 15:20:16.071
193, -236.81, 9.60, 11.00, 9.10, 0.000, 0.000, 0.000, 15:20:16.093
194, -71.84, 7.52, 11.12, 13.46, 0.000, 0.000, 0.000, 15:20:16.093
195, 237.38, 3.86, 8.41, 14.90, 0.000, 0.000, 0.000, 15:20:16.093
196, -112.06, 6.78, 7.07, 9.45, 0.000, 0.000, 0.000, 15:20:16.094
197, -225.92, 5.76, 13.27, 15.15, 0.000, 0.000, 0.000, 15:20:16.115
198, 187.68, 14.07, 10.64, 10.32, 0.000, 0.000, 0.000, 15:20:16.116
199, 52.84, 3.88, 7.30, 14.00, 0.000, 0.000, 0.000, 15:20:16.116
200, -317.53, 7.41, 16.74, 9.97, 0.000, 0.000, 0.000, 15:20:16.117
0, 107.25, 9.24, 13.10, 12.68, 0.000, 0.000, 0.000, 15:20:16.117
1, 210.67, 12.21, 9.54, 11.48, 0.000, 0.000, 0.000, 15:20:16.138
2, -249.18, 7.39, 6.89, 10.04, 0.000, 0.000, 0.000, 15:20:16.138
3, -79.31, 6.10, 10.83, 13.10, 0.000, 0.000, 0.000, 15:20:16.139
4, 238.65, 7.61, 10.79, 11.84, 0.000, 0.000, 0.000, 15:20:16.139
5, -126.26, 10.71, 5.93, 6.95, 0.000, 0.000, 0.000, 15:20:16.160
6, -205.75, 10.22, 17.65, 12.60, 0.000, 0.000, 0.000, 15:20:16.161
7, 187.92, -3.81, 10.86, 10.45, 0.000, 0.000, 0.000, 15:20:16.161
8, 76.18, 11.74, 6.47, 10.13, 0.000, 0.000, 0.000, 15:20:16.161
9, -301.12, 7.56, 12.90, 15.27, 0.000, 0.000, 0.000, 15:20:16.183
10, 72.28, 9.85, 13.79, 14.37, 0.000, 0.000, 0.000, 15:20:16.183
11, 199.93, 11.78, 11.99, 11.99, 0.000, 0.000, 0.000, 15:20:16.184
12, -252.42, 12.21, 5.90, 13.25, 0.000, 0.000, 0.000, 15:20:16.184
13, -74.32, 3.71, 13.40, 13.86, 0.000, 0.000, 0.000, 15:20:16.184
14, 238.72, 9.51, 9.94, 9.63, 0.000, 0.000, 0.000, 15:20:16.185
15, -113.08, 11.04, 6.81, 11.62, 0.000, 0.000, 0.000, 15:20:16.206
16, -222.02, 0.18, 12.42, 16.12, 0.000, 0.000, 0.000, 15:20:16.206
17, 173.86, 7.73, 13.62, 8.99, 0.000, 0.000, 0.000, 15:20:16.207
18, 64.57, 13.69, 8.90, 7.95, 0.000, 0.000, 0.000, 15:20:16.207
19, -301.10, 9.30, 13.88, 10.85, 0.000, 0.000, 0.000, 15:20:16.228
20, 94.30, 6.69, 10.12, 8.35, 0.000, 0.000, 0.000, 15:20:16.228
21, 208.30, 13.74, 11.11, 8.59, 0.000, 0.000, 0.000, 15:20:16.228
22, -253.47, 8.79, 10.75, 12.04, 0.000, 0.000, 0.000, 15:20:16.228
23, -80.41, 7.41, 14.49, 15.44, 0.000, 0.000, 0.000, 15:20:16.250
24, 241.44, 10.61, 16.26, 15.91, 0.000, 0.000, 0.000, 15:20:16.251
25, -109.76, 5.88, 8.45, 12.13, 0.000, 0.000, 0.000, 15:20:16.251
26, -221.69, 6.85, 9.73, 14.31, 0.000, 0.000, 0.000, 15:20:16.251
27, 183.46, 8.20, 13.56, 12.41, 0.000, 0.000, 0.000, 15:20:16.273
28, 75.42, 7.25, 11.04, 12.19, 0.000, 0.000, 0.000, 15:20:16.273
29, -299.12, 10.24, 13.96, 14.00, 0.000, 0.000, 0.000, 15:20:16.273
30, 76.17, 4.60, 10.85, 12.86, 0.000, 0.000, 0.000, 15:20:16.273
31, 199.04, 11.58, 7.84, 8.16, 0.000, 0.000, 0.000, 15:20:16.274
32, -254.46, 13.21, 7.46, 8.91, 0.000, 0.000, 0.000, 15:20:16.274
33, -80.24, 10.64, 13.23, 10.13, 0.000, 0.000, 0.000, 15:20:16.295
34, 230.63, 4.05, 11.27, 11.81, 0.000, 0.000, 0.000, 15:20:16.296
35, -111.45, 10.94, 5.22, 8.33, 0.000, 0.000, 0.000, 15:20:16.296
36, -221.75, 5.74, 14.40, 14.65, 0.000, 0.000, 0.000, 15:20:16.296
37, 187.84, 8.80, 11.94, 11.02, 0.000, 0.000, 0.000, 15:20:16.318
38, 65.03, 9.35, 5.57, 10.27, 0.000, 0.000, 0.000, 15:20:16.318
39, -311.17, 5.03, 13.56, 16.25, 0.000, 0.000, 0.000, 15:20:16.319
40, 88.94, 10.42, 11.86, 15.36, 0.000, 0.000, 0.000, 15:20:16.319
41, 202.50, 11.09, 11.50, 10.47, 0.000, 0.000, 0.000, 15:20:16.340
42, -243.79, 12.00, 10.40, 8.35, 0.000, 0.000, 0.000, 15:20:16.341
43, -77.04, 2.28, 17.37, 12.30, 0.000, 0.000, 0.000, 15:20:16.341
44, 229.44, 10.17, 9.97, 15.03, 0.000, 0.000, 0.000, 15:20:16.341
45, -123.84, 15.73, 9.57, 9.01, 0.000, 0.000, 0.000, 15:20:16.363
46, -211.35, 6.59, 14.78, 11.12, 0.000, 0.000, 0.000, 15:20:16.363
47, 192.12, 7.53, 12.45, 13.65, 0.000, 0.000, 0.000, 15:20:16.364
48, 81.82, 12.24, 10.16, 14.38, 0.000, 0.000, 0.000, 15:20:16.364
49, -296.16, 6.04, 16.83, 13.23, 0.000, 0.000, 0.000, 15:20:16.364
50, 71.56, 7.73, 7.36, 13.77, 0.000, 0.000, 0.000, 15:20:16.364
51, 201.74, 13.49, 9.52, 12.96, 0.000, 0.000, 0.000, 15:20:16.385
52, -247.17, 6.70, 11.18, 14.06, 0.000, 0.000, 0.000, 15:20:16.386
53, -87.73, 3.22, 13.24, 12.43, 0.000, 0.000, 0.000, 15:20:16.386
54, 239.49, 6.83, 9.60, 8.02, 0.000, 0.000, 0.000, 15:20:16.386
55, -104.52, 13.77, 10.68, 10.54, 0.000, 0.000, 0.000, 15:20:16.408
56, -224.26, 4.99, 14.61, 17.19, 0.000, 0.000, 0.000, 15:20:16.408
57, 175.60, 8.95, 12.51, 15.50, 0.000, 0.000, 0.000, 15:20:16.408
58, 81.25, 9.16, 7.50, 8.70, 0.000, 0.000, 0.000, 15:20:16.409
59, -303.34, 5.41, 12.39, 13.13, 0.000, 0.000, 0.000, 15:20:16.430
60, 71.91, 12.53, 11.90, 14.59, 0.000, 0.000, 0.000, 15:20:16.431
61, 199.18, 0.58, 12.73, 10.66, 0.000, 0.000, 0.000, 15:20:16.431
62, -256.39, 10.45, 9.47, 6.34, 0.000, 0.000, 0.000, 15:20:16.432
63, -79.20, 2.39, 13.12, 15.92, 0.000, 0.000, 0.000, 15:20:16.453
64, 242.70, 11.02, 11.80, 11.14, 0.000, 0.000, 0.000, 15:20:16.453
65, -129.08, 10.95, 8.71, 9.87, 0.000, 0.000, 0.000, 15:20:16.454
66, -212.52, 7.04, 12.95, 15.68, 0.000, 0.000, 0.000, 15:20:16.454
67, 196.37, 6.01, 9.50, 9.52, 0.000, 0.000, 0.000, 15:20:16.455
68, 81.14, 14.49, 7.19, 9.52, 0.000, 0.000, 0.000, 15:20:16.455
69, -297.99, 7.97, 12.28, 13.86, 0.000, 0.000, 0.000, 15:20:16.476
70, 76.17, 4.31, 9.02, 11.57, 0.000, 0.000, 0.000, 15:20:16.476
71, 195.98, 7.04, 12.92, 11.24, 0.000, 0.000, 0.000, 15:20:16.476
72, -248.03, 7.89, 9.56, 9.80, 0.000, 0.000, 0.000, 15:20:16.476
73, -83.51, 5.03, 12.41, 16.63, 0.000, 0.000, 0.000, 15:20:16.498
74, 244.37, 7.41, 9.00, 12.49, 0.000, 0.000, 0.000, 15:20:16.498
75, -108.32, 11.50, 4.48, 7.94, 0.000, 0.000, 0.000, 15:20:16.499
76, -226.67, 5.54, 11.58, 13.21, 0.000, 0.000, 0.000, 15:20:16.499
77, 174.19, 12.75, 8.30, 11.33, 0.000, 0.000, 0.000, 15:20:16.520
78, 92.60, 15.87, 5.51, 10.71, 0.000, 0.000, 0.000, 15:20:16.520
79, -286.78, 4.21, 14.18, 13.33, 0.000, 0.000, 0.000, 15:20:16.521
80, 68.09, 6.30, 9.91, 13.36, 0.000, 0.000, 0.000, 15:20:16.521
81, 199.72, 8.96, 10.42, 11.40, 0.000, 0.000, 0.000, 15:20:16.543
82, -247.52, 8.97, 12.47, 9.74, 0.000, 0.000, 0.000, 15:20:16.543
83, -83.93, 4.65, 15.92, 14.64, 0.000, 0.000, 0.000, 15:20:16.543
84, 239.74, 8.96, 8.86, 8.74, 0.000, 0.000, 0.000, 15:20:16.544
85, -93.52, 10.54, 7.04, 7.09, 0.000, 0.000, 0.000, 15:20:16.544
86, -222.18, 4.73, 13.43, 16.72, 0.000, 0.000, 0.000, 15:20:16.545
87, 179.16, 9.87, 12.19, 14.16, 0.000, 0.000, 0.000, 15:20:16.565
88, 71.99, 3.86, 13.20, 10.91, 0.000, 0.000, 0.000, 15:20:16.566
89, -301.69, 7.13, 13.67, 11.47, 0.000, 0.000, 0.000, 15:20:16.566
90, 88.23, 6.74, 9.23, 10.23, 0.000, 0.000, 0.000, 15:20:16.566
91, 217.22, 8.59, 13.44, 12.86, 0.000, 0.000, 0.000, 15:20:16.588
92, -252.13, 12.51, 10.11, 9.28, 0.000, 0.000, 0.000, 15:20:16.588
93, -76.88, 6.83, 11.96, 15.51, 0.000, 0.000, 0.000, 15:20:16.588
94, 251.53, 10.95, 12.18, 10.59, 0.000, 0.000, 0.000, 15:20:16.589
95, -99.23, 7.17, 7.36, 12.00, 0.000, 0.000, 0.000, 15:20:16.610
96, -223.64, 12.58, 12.84, 13.60, 0.000, 0.000, 0.000, 15:20:16.611
97, 179.12, 3.26, 12.59, 12.14, 0.000, 0.000, 0.000, 15:20:16.611
98, 78.25, 12.30, 10.48, 9.84, 0.000, 0.000, 0.000, 15:20:16.611
99, -295.01, 3.53, 13.51, 13.82, 0.000, 0.000, 0.000, 15:20:16.633
100, 65.98, 9.55, 9.58, 13.90, 0.000, 0.000, 0.000, 15:20:16.633
101, 199.31, 12.30, 8.81, 10.42, 0.000, 0.000, 0.000, 15:20:16.633
102, -250.14, 9.29, 10.23, 11.63, 0.000, 0.000, 0.000, 15:20:16.634
103, -94.82, 4.53, 13.03, 13.14, 0.000, 0.000, 0.000, 15:20:16.634
104, 232.54, 8.95, 12.36, 13.84, 0.000, 0.000, 0.000, 15:20:16.634
105, -113.57, 13.39, 9.59, 4.70, 0.000, 0.000, 0.000, 15:20:16.655
106, -239.00, 2.30, 15.24, 14.44, 0.000, 0.000, 0.000, 15:20:16.656
107, 181.27, 6.92, 11.90, 10.55, 0.000, 0.000, 0.000, 15:20:16.656
108, 95.81, 9.38, 5.46, 10.32, 0.000, 0.000, 0.000, 15:20:16.656
109, -299.32, 7.65, 14.05, 16.75, 0.000, 0.000, 0.000, 15:20:16.678
110, 70.66, 7.02, 9.93, 10.09, 0.000, 0.000, 0.000, 15:20:16.678
111, 196.87, 9.34, 11.81, 11.24, 0.000, 0.000, 0.000, 15:20:16.679
112, -249.25, 10.96, 7.30, 10.89, 0.000, 0.000, 0.000, 15:20:16.679
113, -93.36, 8.63, 9.21, 16.96, 0.000, 0.000, 0.000, 15:20:16.700
114, 221.62, 14.26, 11.25, 8.67, 0.000, 0.000, 0.000, 15:20:16.701
115, -100.01, 5.40, 6.96, 10.63, 0.000, 0.000, 0.000, 15:20:16.701
116, -216.93, 4.63, 11.90, 15.74, 0.000, 0.000, 0.000, 15:20:16.701
117, 178.82, 6.81, 11.55, 9.91, 0.000, 0.000, 0.000, 15:20:16.723
118, 94.70, 11.99, 8.70, 9.15, 0.000, 0.000, 0.000, 15:20:16.723
119, -294.93, 3.76, 12.01, 16.92, 0.000, 0.000, 0.000, 15:20:16.723
120, 67.90, 6.45, 8.07, 12.20, 0.000, 0.000, 0.000, 15:20:16.723
121, 217.45, 12.15, 10.28, 13.24, 0.000, 0.000, 0.000, 15:20:16.724
122, -233.19, 8.85, 14.06, 8.45, 0.000, 0.000, 0.000, 15:20:16.724
123, -64.80, 10.19, 13.46, 11.37, 0.000, 0.000, 0.000, 15:20:16.745
124, 269.85, 5.67, 11.30, 10.58, 0.000, 0.000, 0.000, 15:20:16.745
125, -62.56, 13.51, 8.50, 9.83, 0.000, 0.000, 0.000, 15:20:16.746
126, -214.80, 5.87, 12.41, 13.21, 0.000, 0.000, 0.000, 15:20:16.746
127, 169.13, 9.04, 11.32, 11.79, 0.000, 0.000, 0.000, 15:20:16.768
128, 58.86, 14.39, 10.26, 9.63, 0.000, 0.000, 0.000, 15:20:16.768
129, -324.25, 10.10, 16.13, 11.61, 0.000, 0.000, 0.000, 15:20:16.769
130, 34.42, 8.59, 12.68, 15.96, 0.000, 0.000, 0.000, 15:20:16.769
131, 178.51, 5.15, 13.81, 13.58, 0.000, 0.000, 0.000, 15:20:16.791
132, -259.61, 15.86, 10.11, 8.47, 0.000, 0.000, 0.000, 15:20:16.791
133, -108.12, 1.15, 15.01, 13.31, 0.000, 0.000, 0.000, 15:20:16.791
134, 217.83, 10.62, 9.32, 10.08, 0.000, 0.000, 0.000, 15:20:16.791
135, -104.92, 8.42, 8.00, 9.44, 0.000, 0.000, 0.000, 15:20:16.836
136, -230.59, 7.70, 15.16, 11.67, 0.000, 0.000, 0.000, 15:20:16.837
137, 176.48, 9.89, 9.98, 13.52, 0.000, 0.000, 0.000, 15:20:16.837
138, 82.48, 7.57, 9.19, 14.56, 0.000, 0.000, 0.000, 15:20:16.838
139, -289.09, 6.51, 11.84, 12.07, 0.000, 0.000, 0.000, 15:20:16.838
140, 94.44, 8.23, 13.99, 9.60, 0.000, 0.000, 0.000, 15:20:16.838
141, 207.75, 3.09, 12.64, 16.94, 0.000, 0.000, 0.000, 15:20:16.838
142, -242.18, 13.49, 8.80, 9.54, 0.000, 0.000, 0.000, 15:20:16.839
143, -83.96, 7.05, 12.33, 10.86, 0.000, 0.000, 0.000, 15:20:16.858
144, 221.08, 6.02, 9.92, 12.59, 0.000, 0.000, 0.000, 15:20:16.858
145, -83.73, 11.68, 8.87, 9.50, 0.000, 0.000, 0.000, 15:20:16.858
146, -221.28, 6.24, 14.43, 15.86, 0.000, 0.000, 0.000, 15:20:16.859
147, 188.63, 8.40, 11.64, 14.11, 0.000, 0.000, 0.000, 15:20:16.859
148, 94.18, 9.98, 6.34, 10.86, 0.000, 0.000, 0.000, 15:20:16.859
149, -291.23, 9.14, 12.46, 12.32, 0.000, 0.000, 0.000, 15:20:16.880
150, 65.32, 8.76, 13.63, 11.73, 0.000, 0.000, 0.000, 15:20:16.881
151, 209.78, 4.12, 9.49, 9.85, 0.000, 0.000, 0.000, 15:20:16.881
152, -245.70, 12.16, 9.46, 9.48, 0.000, 0.000, 0.000, 15:20:16.881
153, -83.28, 3.99, 13.09, 12.80, 0.000, 0.000, 0.000, 15:20:16.903
154, 240.91, 6.47, 12.81, 13.68, 0.000, 0.000, 0.000, 15:20:16.903
155, -91.97, 10.65, 6.26, 11.29, 0.000, 0.000, 0.000, 15:20:16.904
156, -229.55, 7.73, 13.47, 14.39, 0.000, 0.000, 0.000, 15:20:16.904
157, 182.69, 7.86, 7.28, 7.38, 0.000, 0.000, 0.000, 15:20:16.904
158, 90.60, 8.56, 6.37, 10.94, 0.000, 0.000, 0.000, 15:20:16.904
159, -295.73, 11.90, 10.08, 12.33, 0.000, 0.000, 0.000, 15:20:16.925
160, 70.81, 6.37, 12.35, 16.70, 0.000, 0.000, 0.000, 15:20:16.926
161, 206.82, 8.49, 8.18, 9.46, 0.000, 0.000, 0.000, 15:20:16.926
162, -247.72, 9.92, 8.57, 6.41, 0.000, 0.000, 0.000, 15:20:16.926
163, -81.57, 7.16, 14.85, 14.78, 0.000, 0.000, 0.000, 15:20:16.948
164, 245.43, 5.50, 11.10, 8.23, 0.000, 0.000, 0.000, 15:20:16.948
165, -89.26, 8.02, 7.04, 11.61, 0.000, 0.000, 0.000, 15:20:16.949
166, -220.45, 4.20, 15.10, 15.08, 0.000, 0.000, 0.000, 15:20:16.949
167, 179.23, 8.27, 9.35, 14.74, 0.000, 0.000, 0.000, 15:20:16.970
168, 86.55, 15.13, 7.70, 6.63, 0.000, 0.000, 0.000, 15:20:16.970
169, -285.69, 1.44, 8.73, 14.42, 0.000, 0.000, 0.000, 15:20:16.971
170, 81.35, 4.85, 14.05, 14.64, 0.000, 0.000, 0.000, 15:20:16.972
171, 200.60, 7.64, 11.16, 12.40, 0.000, 0.000, 0.000, 15:20:16.993
172, -226.52, 11.69, 8.19, 11.39, 0.000, 0.000, 0.000, 15:20:16.993
173, -79.54, 6.34, 13.07, 12.30, 0.000, 0.000, 0.000, 15:20:16.993
174, 236.73, 8.99, 13.83, 10.38, 0.000, 0.000, 0.000, 15:20:16.993
175, -90.46, 11.47, 8.04, 8.37, 0.000, 0.000, 0.000, 15:20:16.994
176, -213.21, 4.54, 13.85, 15.72, 0.000, 0.000, 0.000, 15:20:16.994
177, 179.02, 8.00, 12.13, 14.83, 0.000, 0.000, 0.000, 15:20:17.015
178, 90.49, 9.19, 13.55, 9.66, 0.000, 0.000, 0.000, 15:20:17.016
179, -295.12, 7.54, 14.62, 15.15, 0.000, 0.000, 0.000, 15:20:17.016
180, 62.66, 7.29, 12.34, 13.36, 0.000, 0.000, 0.000, 15:20:17.016
181, 184.92, 6.23, 13.34, 12.70, 0.000, 0.000, 0.000, 15:20:17.038
182, -227.06, 12.45, 8.78, 9.05, 0.000, 0.000, 0.000, 15:20:17.038
183, -81.94, 7.63, 14.47, 14.82, 0.000, 0.000, 0.000, 15:20:17.038
184, 233.01, 7.12, 17.21, 13.30, 0.000, 0.000, 0.000, 15:20:17.039
185, -108.12, 8.66, 8.77, 8.87, 0.000, 0.000, 0.000, 15:20:17.060
186, -228.88, 9.79, 13.16, 14.45, 0.000, 0.000, 0.000, 15:20:17.060
187, 164.17, 5.59, 9.29, 9.76, 0.000, 0.000, 0.000, 15:20:17.061
188, 66.24, 9.96, 6.00, 8.02, 0.000, 0.000, 0.000, 15:20:17.061
189, -301.80, 7.56, 9.62, 12.39, 0.000, 0.000, 0.000, 15:20:17.083
190, 54.70, 8.01, 12.35, 12.86, 0.000, 0.000, 0.000, 15:20:17.083
191, 195.12, 9.35, 6.24, 14.08, 0.000, 0.000, 0.000, 15:20:17.084
192, -250.53, 9.74, 10.75, 10.24, 0.000, 0.000, 0.000, 15:20:17.084
193, -94.52, 5.87, 14.28, 16.01, 0.000, 0.000, 0.000, 15:20:17.084
194, 222.02, 8.64, 10.28, 13.01, 0.000, 0.000, 0.000, 15:20:17.084
195, -101.72, 12.58, 8.74, 8.02, 0.000, 0.000, 0.000, 15:20:17.105
196, -235.11, 5.24, 13.10, 14.54, 0.000, 0.000, 0.000, 15:20:17.106
197, 166.95, 6.97, 8.62, 12.44, 0.000, 0.000, 0.000, 15:20:17.106
198, 82.02, 7.22, 11.37, 11.23, 0.000, 0.000, 0.000, 15:20:17.106
199, -300.22, 9.79, 11.75, 9.88, 0.000, 0.000, 0.000, 15:20:17.128
200, 57.77, 6.85, 11.44, 10.41, 0.000, 0.000, 0.000, 15:20:17.128
0, 201.20, 10.40, 13.36, 10.63, 0.000, 0.000, 0.000, 15:20:17.128
1, -249.31, 9.55, 5.26, 11.44, 0.000, 0.000, 0.000, 15:20:17.129
2, -100.78, 11.46, 11.16, 15.85, 0.000, 0.000, 0.000, 15:20:17.129
3, 225.23, 11.86, 13.22, 12.86, 0.000, 0.000, 0.000, 15:20:17.150
4, -84.65, 9.08, 11.82, 12.58, 0.000, 0.000, 0.000, 15:20:17.150
5, -232.96, 3.75, 15.76, 11.47, 0.000, 0.000, 0.000, 15:20:17.151
6, 172.57, 3.91, 15.65, 11.73, 0.000, 0.000, 0.000, 15:20:17.151
7, 83.76, 6.97, 9.38, 6.79, 0.000, 0.000, 0.000, 15:20:17.173
8, -299.35, 7.66, 15.14, 11.78, 0.000, 0.000, 0.000, 15:20:17.173
9, 54.98, 6.47, 13.82, 13.94, 0.000, 0.000, 0.000, 15:20:17.173
10, 198.21, 9.16, 12.64, 10.40, 0.000, 0.000, 0.000, 15:20:17.174
11, -240.13, 8.86, 5.94, 11.21, 0.000, 0.000, 0.000, 15:20:17.195
12, -82.49, 10.88, 15.56, 12.96, 0.000, 0.000, 0.000, 15:20:17.195
13, 236.22, 4.27, 9.49, 10.16, 0.000, 0.000, 0.000, 15:20:17.196
14, -93.63, 10.76, 7.36, 13.80, 0.000, 0.000, 0.000, 15:20:17.196
15, -230.48, 5.11, 14.73, 11.44, 0.000, 0.000, 0.000, 15:20:17.218
16, 172.42, 7.29, 8.27, 14.49, 0.000, 0.000, 0.000, 15:20:17.218
17, 82.98, 11.33, 10.54, 11.88, 0.000, 0.000, 0.000, 15:20:17.219
18, -317.36, 10.84, 13.66, 14.19, 0.000, 0.000, 0.000, 15:20:17.220
19, 54.11, 8.63, 14.67, 15.13, 0.000, 0.000, 0.000, 15:20:17.220
20, 230.70, 10.09, 11.17, 12.30, 0.000, 0.000, 0.000, 15:20:17.220
21, -226.05, 13.17, 8.34, 7.74, 0.000, 0.000, 0.000, 15:20:17.240
22, -91.69, 2.64, 11.73, 14.28, 0.000, 0.000, 0.000, 15:20:17.241
23, 241.73, 7.98, 11.00, 10.53, 0.000, 0.000, 0.000, 15:20:17.241
24, -89.74, 10.86, 5.35, 7.78, 0.000, 0.000, 0.000, 15:20:17.241
25, -232.45, 9.22, 14.39, 11.42, 0.000, 0.000, 0.000, 15:20:17.263
26, 160.18, 7.02, 7.75, 14.18, 0.000, 0.000, 0.000, 15:20:17.263
27, 87.47, 12.06, 7.95, 8.08, 0.000, 0.000, 0.000, 15:20:17.264
28, -293.99, 8.70, 14.32, 13.57, 0.000, 0.000, 0.000, 15:20:17.264
29, 59.55, 7.47, 12.67, 13.12, 0.000, 0.000, 0.000, 15:20:17.285
30, 200.97, 15.77, 9.97, 13.69, 0.000, 0.000, 0.000, 15:20:17.286
31, -239.56, 5.61, 13.11, 8.35, 0.000, 0.000, 0.000, 15:20:17.286
32, -99.78, 5.67, 12.25, 14.33, 0.000, 0.000, 0.000, 15:20:17.286
33, 234.90, 7.54, 11.31, 11.29, 0.000, 0.000, 0.000, 15:20:17.308
34, -89.82, 9.53, 8.04, 7.56, 0.000, 0.000, 0.000, 15:20:17.308
35, -234.26, 2.94, 10.56, 10.65, 0.000, 0.000, 0.000, 15:20:17.308
36, 169.25, 7.39, 8.07, 10.80, 0.000, 0.000, 0.000, 15:20:17.309
37, 89.57, 11.92, 6.53, 10.50, 0.000, 0.000, 0.000, 15:20:17.309
38, -304.58, 4.94, 10.59, 13.75, 0.000, 0.000, 0.000, 15:20:17.310
39, 48.02, 10.02, 13.32, 16.34, 0.000, 0.000, 0.000, 15:20:17.330
40, 204.40, 2.88, 10.84, 13.79, 0.000, 0.000, 0.000, 15:20:17.330
41, -231.08, 11.45, 8.41, 11.42, 0.000, 0.000, 0.000, 15:20:17.331
42, -89.72, 4.74, 12.24, 14.72, 0.000, 0.000, 0.000, 15:20:17.331
43, 228.57, 10.04, 11.79, 9.67, 0.000, 0.000, 0.000, 15:20:17.353
44, -80.14, 11.46, 14.17, 9.23, 0.000, 0.000, 0.000, 15:20:17.353
45, -230.02, 4.99, 14.03, 12.67, 0.000, 0.000, 0.000, 15:20:17.354
46, 175.63, 11.05, 14.09, 14.18, 0.000, 0.000, 0.000, 15:20:17.354
47, 87.49, 7.54, 5.69, 10.68, 0.000, 0.000, 0.000, 15:20:17.375
48, -293.22, 15.96, 10.46, 12.14, 0.000, 0.000, 0.000, 15:20:17.375
49, 57.12, 5.99, 9.88, 14.19, 0.000, 0.000, 0.000, 15:20:17.376
50, 215.05, 7.89, 7.63, 12.92, 0.000, 0.000, 0.000, 15:20:17.376
51, -245.17, 10.24, 5.21, 10.71, 0.000, 0.000, 0.000, 15:20:17.398
52, -101.08, 6.50, 10.87, 11.57, 0.000, 0.000, 0.000, 15:20:17.398
53, 232.93, 5.29, 11.60, 15.02, 0.000, 0.000, 0.000, 15:20:17.399
54, -83.41, 9.67, 7.77, 8.99, 0.000, 0.000, 0.000, 15:20:17.399
55, -233.55, 7.25, 13.57, 11.15, 0.000, 0.000, 0.000, 15:20:17.399
56, 173.12, 2.98, 12.69, 11.09, 0.000, 0.000, 0.000, 15:20:17.400
57, 92.71, 14.57, 9.92, 12.49, 0.000, 0.000, 0.000, 15:20:17.420
58, -299.37, 5.00, 16.01, 16.88, 0.000, 0.000, 0.000, 15:20:17.420
59, 46.99, 9.36, 11.59, 10.18, 0.000, 0.000, 0.000, 15:20:17.421
60, 186.38, 8.71, 12.27, 14.03, 0.000, 0.000, 0.000, 15:20:17.421
61, -222.54, 13.35, 10.38, 11.10, 0.000, 0.000, 0.000, 15:20:17.443
62, -86.43, 9.65, 13.34, 14.52, 0.000, 0.000, 0.000, 15:20:17.443
63, 233.60, 6.82, 13.35, 9.89, 0.000, 0.000, 0.000, 15:20:17.443
64, -82.17, 9.76, 7.04, 9.23, 0.000, 0.000, 0.000, 15:20:17.444
65, -238.23, 5.96, 14.82, 16.50, 0.000, 0.000, 0.000, 15:20:17.466
66, 164.17, 14.75, 9.86, 12.42, 0.000, 0.000, 0.000, 15:20:17.466
67, 113.90, 4.51, 8.89, 11.29, 0.000, 0.000, 0.000, 15:20:17.466
68, -291.89, 8.19, 12.96, 11.44, 0.000, 0.000, 0.000, 15:20:17.466
69, 56.70, 6.61, 12.97, 11.54, 0.000, 0.000, 0.000, 15:20:17.488
70, 205.00, 6.31, 14.21, 12.59, 0.000, 0.000, 0.000, 15:20:17.488
71, -240.70, 9.28, 6.43, 15.03, 0.000, 0.000, 0.000, 15:20:17.488
72, -113.03, -0.45, 11.17, 9.18, 0.000, 0.000, 0.000, 15:20:17.489
73, 228.25, 7.81, 12.61, 10.03, 0.000, 0.000, 0.000, 15:20:17.491
74, -74.27, 12.63, 7.91, 10.01, 0.000, 0.000, 0.000, 15:20:17.491
75, -228.20, 4.97, 14.97, 12.91, 0.000, 0.000, 0.000, 15:20:17.511
76, 170.35, 4.50, 9.90, 14.48, 0.000, 0.000, 0.000, 15:20:17.511
77, 104.48, 10.08, 7.21, 9.59, 0.000, 0.000, 0.000, 15:20:17.512
78, -303.61, 8.09, 11.86, 8.72, 0.000, 0.000, 0.000, 15:20:17.512
79, 55.72, 7.64, 9.74, 13.88, 0.000, 0.000, 0.000, 15:20:17.533
80, 208.05, 4.51, 9.76, 9.89, 0.000, 0.000, 0.000, 15:20:17.541
81, -234.65, 14.96, 9.04, 9.60, 0.000, 0.000, 0.000, 15:20:17.541
82, -104.29, 8.44, 14.82, 15.04, 0.000, 0.000, 0.000, 15:20:17.541
83, 231.58, 5.90, 11.95, 9.66, 0.000, 0.000, 0.000, 15:20:17.555
84, -87.25, 15.30, 8.70, 8.25, 0.000, 0.000, 0.000, 15:20:17.555
85, -231.17, 1.19, 12.80, 13.36, 0.000, 0.000, 0.000, 15:20:17.556
86, 173.00, 5.45, 13.25, 12.45, 0.000, 0.000, 0.000, 15:20:17.556
87, 106.96, 11.58, 9.65, 13.89, 0.000, 0.000, 0.000, 15:20:17.578
88, -302.14, 10.76, 11.92, 16.29, 0.000, 0.000, 0.000, 15:20:17.578
89, 58.31, 7.34, 15.74, 12.63, 0.000, 0.000, 0.000, 15:20:17.578
90, 204.21, 13.50, 13.33, 5.15, 0.000, 0.000, 0.000, 15:20:17.578
91, -238.72, 12.14, 9.42, 7.04, 0.000, 0.000, 0.000, 15:20:17.579
92, -104.44, 9.87, 14.33, 15.46, 0.000, 0.000, 0.000, 15:20:17.579
93, 233.83, 12.56, 10.89, 14.16, 0.000, 0.000, 0.000, 15:20:17.600
94, -81.60, 11.47, 10.06, 8.89, 0.000, 0.000, 0.000, 15:20:17.600
95, -235.91, 2.86, 16.54, 15.68, 0.000, 0.000, 0.000, 15:20:17.601
96, 170.69, 7.85, 10.24, 15.49, 0.000, 0.000, 0.000, 15:20:17.601
97, 102.23, 6.47, 9.49, 12.83, 0.000, 0.000, 0.000, 15:20:17.623
98, -296.21, 5.03, 8.63, 12.81, 0.000, 0.000, 0.000, 15:20:17.623
99, 56.25, 5.29, 11.19, 11.40, 0.000, 0.000, 0.000, 15:20:17.624
100, 213.18, 4.39, 13.31, 12.92, 0.000, 0.000, 0.000, 15:20:17.624
101, -240.06, 10.89, 10.89, 8.28, 0.000, 0.000, 0.000, 15:20:17.646
102, -104.97, 14.93, 14.20, 12.00, 0.000, 0.000, 0.000, 15:20:17.646
103, 246.12, 3.65, 9.66, 15.58, 0.000, 0.000, 0.000, 15:20:17.646
104, -80.36, 13.93, 5.83, 8.54, 0.000, 0.000, 0.000, 15:20:17.646
105, -234.03, 10.09, 12.95, 11.72, 0.000, 0.000, 0.000, 15:20:17.668
106, 186.71, 8.15, 11.83, 12.70, 0.000, 0.000, 0.000, 15:20:17.668
107, 109.32, 7.12, 13.96, 13.03, 0.000, 0.000, 0.000, 15:20:17.669
108, -291.79, 9.35, 15.57, 11.46, 0.000, 0.000, 0.000, 15:20:17.669
109, 49.05, 6.01, 13.65, 11.30, 0.000, 0.000, 0.000, 15:20:17.669
110, 212.91, 8.52, 11.87, 13.42, 0.000, 0.000, 0.000, 15:20:17.669
111, -238.19, 12.82, 8.29, 8.26, 0.000, 0.000, 0.000, 15:20:17.690
112, -104.44, 2.26, 11.37, 15.75, 0.000, 0.000, 0.000, 15:20:17.690
113, 226.92, 5.46, 10.43, 12.53, 0.000, 0.000, 0.000, 15:20:17.691
114, -83.70, 9.36, 9.10, 8.47, 0.000, 0.000, 0.000, 15:20:17.691
115, -235.08, 5.13, 13.61, 14.99, 0.000, 0.000, 0.000, 15:20:17.713
116, 155.43, 3.58, 11.91, 15.06, 0.000, 0.000, 0.000, 15:20:17.713
117, 104.34, 12.18, 11.44, 12.45, 0.000, 0.000, 0.000, 15:20:17.713
118, -302.76, 12.57, 9.47, 11.36, 0.000, 0.000, 0.000, 15:20:17.713
119, 44.83, 10.56, 8.18, 12.59, 0.000, 0.000, 0.000, 15:20:17.735
120, 194.11, 14.39, 9.40, 14.49, 0.000, 0.000, 0.000, 15:20:17.735
121, -237.04, 4.31, 7.66, 9.12, 0.000, 0.000, 0.000, 15:20:17.736
122, -94.06, 5.98, 9.39, 12.00, 0.000, 0.000, 0.000, 15:20:17.736
123, 226.06, 7.85, 7.07, 10.49, 0.000, 0.000, 0.000, 15:20:17.758
124, -73.16, 11.03, 10.29, 7.36, 0.000, 0.000, 0.000, 15:20:17.758
125, -236.08, 8.80, 15.18, 13.23, 0.000, 0.000, 0.000, 15:20:17.758
126, 161.14, 7.08, 9.76, 11.51, 0.000, 0.000, 0.000, 15:20:17.758
127, 102.09, 10.26, 13.75, 8.56, 0.000, 0.000, 0.000, 15:20:17.759
128, -296.49, 13.04, 13.68, 14.18, 0.000, 0.000, 0.000, 15:20:17.759
129, 46.71, 9.19, 12.04, 9.97, 0.000, 0.000, 0.000, 15:20:17.780
130, 205.82, 6.50, 8.84, 8.87, 0.000, 0.000, 0.000, 15:20:17.780
131, -230.15, 16.86, 8.59, 10.13, 0.000, 0.000, 0.000, 15:20:17.803
132, -102.36, 5.48, 12.30, 14.81, 0.000, 0.000, 0.000, 15:20:17.803
133, 228.05, 4.79, 8.83, 12.57, 0.000, 0.000, 0.000, 15:20:17.803
134, -60.08, 7.32, 8.03, 8.91, 0.000, 0.000, 0.000, 15:20:17.803
135, -232.48, 3.96, 14.21, 14.12, 0.000, 0.000, 0.000, 15:20:17.804
136, 180.86, 6.76, 11.73, 12.33, 0.000, 0.000, 0.000, 15:20:17.804
137, 126.53, 9.61, 10.61, 11.95, 0.000, 0.000, 0.000, 15:20:17.825
138, -269.53, 9.66, 9.95, 10.54, 0.000, 0.000, 0.000, 15:20:17.825
139, 83.86, 3.36, 13.35, 13.01, 0.000, 0.000, 0.000, 15:20:17.826
140, 219.93, 7.18, 12.71, 12.96, 0.000, 0.000, 0.000, 15:20:17.826
141, -233.96, 14.16, 8.49, 7.06, 0.000, 0.000, 0.000, 15:20:17.848
142, -138.84, 7.36, 13.14, 16.79, 0.000, 0.000, 0.000, 15:20:17.848
143, 210.88, 8.76, 13.25, 15.25, 0.000, 0.000, 0.000, 15:20:17.849
144, -104.99, 8.15, 11.38, 8.88, 0.000, 0.000, 0.000, 15:20:17.849
145, -286.99, 7.75, 14.09, 15.79, 0.000, 0.000, 0.000, 15:20:17.849
146, 161.06, 6.88, 12.96, 15.83, 0.000, 0.000, 0.000, 15:20:17.849
147, 100.52, 11.79, 6.99, 12.33, 0.000, 0.000, 0.000, 15:20:17.870
148, -307.16, 6.83, 10.83, 15.33, 0.000, 0.000, 0.000, 15:20:17.870
149, 27.79, 5.60, 15.05, 10.82, 0.000, 0.000, 0.000, 15:20:17.871
150, 223.66, 8.17, 8.03, 12.10, 0.000, 0.000, 0.000, 15:20:17.871
151, -229.62, 10.56, 9.92, 11.68, 0.000, 0.000, 0.000, 15:20:17.893
152, -101.68, 8.70, 12.71, 12.07, 0.000, 0.000, 0.000, 15:20:17.893
153, 240.84, 7.09, 7.24, 7.86, 0.000, 0.000, 0.000, 15:20:17.893
154, -61.99, 15.15, 12.49, 7.51, 0.000, 0.000, 0.000, 15:20:17.893
155, -235.64, 7.92, 11.49, 12.87, 0.000, 0.000, 0.000, 15:20:17.916
156, 168.89, 10.19, 9.46, 11.09, 0.000, 0.000, 0.000, 15:20:17.916
157, 102.24, 8.77, 7.81, 9.09, 0.000, 0.000, 0.000, 15:20:17.916
158, -302.13, 9.41, 12.84, 9.13, 0.000, 0.000, 0.000, 15:20:17.916
159, 58.27, 5.99, 13.38, 17.26, 0.000, 0.000, 0.000, 15:20:17.938
160, 228.40, 6.16, 13.03, 12.83, 0.000, 0.000, 0.000, 15:20:17.938
161, -222.70, 5.85, 5.11, 9.35, 0.000, 0.000, 0.000, 15:20:17.939
162, -109.27, 1.49, 9.51, 12.07, 0.000, 0.000, 0.000, 15:20:17.939
163, 233.23, 3.83, 9.82, 9.23, 0.000, 0.000, 0.000, 15:20:17.939
164, -65.11, 12.62, 10.48, 9.84, 0.000, 0.000, 0.000, 15:20:17.939
165, -234.76, 12.44, 13.65, 13.79, 0.000, 0.000, 0.000, 15:20:17.961
166, 162.72, 5.96, 15.57, 12.38, 0.000, 0.000, 0.000, 15:20:17.961
167, 90.72, 8.62, 6.43, 11.90, 0.000, 0.000, 0.000, 15:20:17.961
168, -292.99, 8.74, 12.09, 7.99, 0.000, 0.000, 0.000, 15:20:17.961
169, 57.69, 9.74, 11.12, 17.03, 0.000, 0.000, 0.000, 15:20:17.983
170, 230.72, 7.40, 10.51, 10.10, 0.000, 0.000, 0.000, 15:20:17.983
171, -224.87, 8.69, 11.86, 9.97, 0.000, 0.000, 0.000, 15:20:17.983
172, -93.72, 2.74, 16.37, 15.43, 0.000, 0.000, 0.000, 15:20:17.984
173, 260.32, 6.83, 9.76, 13.28, 0.000, 0.000, 0.000, 15:20:18.005
174, -64.51, 16.44, 9.96, 12.67, 0.000, 0.000, 0.000, 15:20:18.006
175, -243.69, 1.72, 12.33, 12.52, 0.000, 0.000, 0.000, 15:20:18.006
176, 151.06, 9.51, 15.96, 15.96, 0.000, 0.000, 0.000, 15:20:18.006
177, 139.57, 9.94, 11.69, 12.53, 0.000, 0.000, 0.000, 15:20:18.028
178, -298.08, 8.61, 11.81, 15.42, 0.000, 0.000, 0.000, 15:20:18.028
179, 78.47, 5.74, 9.30, 11.76, 0.000, 0.000, 0.000, 15:20:18.029
180, 293.71, 7.75, 11.73, 9.77, 0.000, 0.000, 0.000, 15:20:18.029
181, -231.66, 16.03, 10.03, 7.60, 0.000, 0.000, 0.000, 15:20:18.029
182, -152.64, 5.62, 9.04, 10.57, 0.000, 0.000, 0.000, 15:20:18.030
183, 168.96, 9.19, 10.15, 10.92, 0.000, 0.000, 0.000, 15:20:18.050
184, -38.63, 11.14, 4.89, 8.23, 0.000, 0.000, 0.000, 15:20:18.050
185, -220.88, 8.04, 14.78, 13.53, 0.000, 0.000, 0.000, 15:20:18.051
186, 138.80, 9.62, 10.70, 15.58, 0.000, 0.000, 0.000, 15:20:18.051
187, 76.22, 8.98, 10.86, 7.52, 0.000, 0.000, 0.000, 15:20:18.073
188, -340.90, 4.78, 12.44, 15.55, 0.000, 0.000, 0.000, 15:20:18.073
189, 47.61, 5.55, 13.03, 14.52, 0.000, 0.000, 0.000, 15:20:18.073
190, 227.67, 9.53, 13.01, 14.02, 0.000, 0.000, 0.000, 15:20:18.074
191, -383.61, 10.76, 10.20, 14.65, 0.000, 0.000, 0.000, 15:20:18.095
192, -103.02, 13.61, 12.18, 13.59, 0.000, 0.000, 0.000, 15:20:18.095
193, 408.23, 5.58, 12.62, 10.34, 0.000, 0.000, 0.000, 15:20:18.096
194, -7.03, 12.04, 8.90, 11.09, 0.000, 0.000, 0.000, 15:20:18.096
195, -214.87, 6.34, 10.37, 14.31, 0.000, 0.000, 0.000, 15:20:18.118
196, 184.68, 9.62, 13.05, 9.39, 0.000, 0.000, 0.000, 15:20:18.118
197, 106.01, 8.86, 8.68, 11.70, 0.000, 0.000, 0.000, 15:20:18.118
198, -296.92, 6.88, 10.21, 11.94, 0.000, 0.000, 0.000, 15:20:18.119
199, 50.24, 6.08, 8.67, 14.31, 0.000, 0.000, 0.000, 15:20:18.119
200, 202.64, 7.02, 13.58, 10.83, 0.000, 0.000, 0.000, 15:20:18.119
0, -235.14, 16.48, 10.07, 8.97, 0.000, 0.000, 0.000, 15:20:18.140
1, -107.23, 5.53, 11.46, 13.33, 0.000, 0.000, 0.000, 15:20:18.141
2, 206.09, 5.14, 14.66, 9.45, 0.000, 0.000, 0.000, 15:20:18.141
3, -99.74, 13.86, 7.62, 9.98, 0.000, 0.000, 0.000, 15:20:18.163
4, -234.62, 6.62, 14.96, 13.79, 0.000, 0.000, 0.000, 15:20:18.163
5, 82.45, 7.04, 9.87, 11.09, 0.000, 0.000, 0.000, 15:20:18.188
6, 57.16, 10.51, 9.75, 14.90, 0.000, 0.000, 0.000, 15:20:18.188
7, -336.33, 9.75, 12.33, 11.49, 0.000, 0.000, 0.000, 15:20:18.188
8, 86.38, 8.92, 11.69, 14.45, 0.000, 0.000, 0.000, 15:20:18.189
9, 221.18, 7.94, 10.75, 12.11, 0.000, 0.000, 0.000, 15:20:18.189
10, -245.95, 13.26, 8.79, 9.24, 0.000, 0.000, 0.000, 15:20:18.189
11, -94.65, 5.82, 14.12, 8.57, 0.000, 0.000, 0.000, 15:20:18.208
12, 311.20, 8.04, 10.86, 11.11, 0.000, 0.000, 0.000, 15:20:18.208
13, -57.72, 15.09, 8.52, 8.35, 0.000, 0.000, 0.000, 15:20:18.208
14, -176.06, 7.52, 9.77, 12.86, 0.000, 0.000, 0.000, 15:20:18.208
15, 180.74, 7.21, 10.98, 13.30, 0.000, 0.000, 0.000, 15:20:18.209
16, 77.83, 9.88, 11.81, 6.46, 0.000, 0.000, 0.000, 15:20:18.209
17, -303.89, 4.47, 10.88, 13.41, 0.000, 0.000, 0.000, 15:20:18.231
18, 21.51, 11.62, 11.35, 14.27, 0.000, 0.000, 0.000, 15:20:18.231
19, 166.14, 5.98, 14.31, 12.44, 0.000, 0.000, 0.000, 15:20:18.233
20, -276.01, 6.00, 7.32, 12.06, 0.000, 0.000, 0.000, 15:20:18.233
21, -172.89, 8.82, 12.94, 12.59, 0.000, 0.000, 0.000, 15:20:18.253
22, 177.77, 7.50, 9.99, 14.02, 0.000, 0.000, 0.000, 15:20:18.253
23, -40.45, 11.72, 9.72, 13.77, 0.000, 0.000, 0.000, 15:20:18.254
24, -340.66, 8.62, 13.98, 13.41, 0.000, 0.000, 0.000, 15:20:18.254
25, 144.71, 10.32, 11.29, 9.13, 0.000, 0.000, 0.000, 15:20:18.254
26, 250.57, 7.88, 14.78, 14.36, 0.000, 0.000, 0.000, 15:20:18.255
27, -271.31, 12.76, 12.94, 12.52, 0.000, 0.000, 0.000, 15:20:18.275
28, 89.98, 3.33, 10.31, 13.28, 0.000, 0.000, 0.000, 15:20:18.276
29, 214.31, 8.00, 7.87, 10.15, 0.000, 0.000, 0.000, 15:20:18.276
30, -167.46, 10.77, 10.47, 11.07, 0.000, 0.000, 0.000, 15:20:18.276
31, -74.37, 8.09, 16.35, 14.73, 0.000, 0.000, 0.000, 15:20:18.298
32, 249.65, 3.96, 11.09, 17.13, 0.000, 0.000, 0.000, 15:20:18.298
33, -87.81, 12.01, 5.62, 8.38, 0.000, 0.000, 0.000, 15:20:18.298
34, -246.96, 4.28, 12.95, 12.23, 0.000, 0.000, 0.000, 15:20:18.298
35, 98.44, 6.64, 11.92, 14.54, 0.000, 0.000, 0.000, 15:20:18.320
36, 5.94, 13.51, 9.72, 11.37, 0.000, 0.000, 0.000, 15:20:18.320
37, -370.65, 3.49, 8.60, 15.03, 0.000, 0.000, 0.000, 15:20:18.321
38, 140.59, 2.48, 12.55, 11.54, 0.000, 0.000, 0.000, 15:20:18.321
39, 297.26, 11.15, 11.36, 14.30, 0.000, 0.000, 0.000, 15:20:18.344
40, -191.29, 11.00, 9.48, 7.32, 0.000, 0.000, 0.000, 15:20:18.344
41, -131.66, 5.62, 12.12, 15.33, 0.000, 0.000, 0.000, 15:20:18.344
42, 99.00, 7.43, 6.13, 11.78, 0.000, 0.000, 0.000, 15:20:18.345
43, -9.43, 10.24, 8.88, 5.55, 0.000, 0.000, 0.000, 15:20:18.365
44, -185.39, 4.33, 13.73, 13.36, 0.000, 0.000, 0.000, 15:20:18.366
45, 188.30, 18.00, 10.44, 8.95, 0.000, 0.000, 0.000, 15:20:18.366
46, 84.08, 7.13, 7.87, 8.49, 0.000, 0.000, 0.000, 15:20:18.366
47, -369.31, 8.45, 13.22, 8.91, 0.000, 0.000, 0.000, 15:20:18.366
48, 38.30, 1.27, 9.73, 9.94, 0.000, 0.000, 0.000, 15:20:18.366
49, 264.52, 7.48, 10.62, 14.64, 0.000, 0.000, 0.000, 15:20:18.388
50, -225.11, 9.42, 10.43, 10.01, 0.000, 0.000, 0.000, 15:20:18.388
51, -107.59, 3.62, 14.53, 14.57, 0.000, 0.000, 0.000, 15:20:18.389
52, 287.31, 7.38, 10.24, 5.66, 0.000, 0.000, 0.000, 15:20:18.389
53, -73.37, 13.62, 5.65, 8.54, 0.000, 0.000, 0.000, 15:20:18.410
54, -266.77, 11.46, 14.48, 8.50, 0.000, 0.000, 0.000, 15:20:18.410
55, 130.57, 6.13, 11.34, 14.35, 0.000, 0.000, 0.000, 15:20:18.411
56, 110.75, 9.63, 5.96, 13.48, 0.000, 0.000, 0.000, 15:20:18.411
57, -269.30, 7.10, 16.03, 13.36, 0.000, 0.000, 0.000, 15:20:18.433
58, 14.89, 8.88, 13.62, 14.65, 0.000, 0.000, 0.000, 15:20:18.433
59, 173.91, 6.40, 8.84, 13.06, 0.000, 0.000, 0.000, 15:20:18.433
60, -328.55, 9.97, 9.45, 11.17, 0.000, 0.000, 0.000, 15:20:18.433
61, -97.15, 7.30, 14.92, 18.84, 0.000, 0.000, 0.000, 15:20:18.434
62, 279.18, 8.03, 11.45, 10.16, 0.000, 0.000, 0.000, 15:20:18.434
63, 8.45, 16.63, 5.39, 7.77, 0.000, 0.000, 0.000, 15:20:18.456
64, -213.62, 1.79, 13.53, 12.82, 0.000, 0.000, 0.000, 15:20:18.456
65, 118.30, 6.72, 12.86, 14.51, 0.000, 0.000, 0.000, 15:20:18.457
66, 67.80, 9.49, 9.68, 9.93, 0.000, 0.000, 0.000, 15:20:18.457
67, -239.39, 8.68, 10.73, 9.45, 0.000, 0.000, 0.000, 15:20:18.478
68, 101.24, 3.59, 15.39, 11.44, 0.000, 0.000, 0.000, 15:20:18.478
69, 206.91, 8.88, 8.67, 13.72, 0.000, 0.000, 0.000, 15:20:18.478
70, -234.17, 12.94, 10.62, 11.69, 0.000, 0.000, 0.000, 15:20:18.479
71, -148.34, 3.75, 12.49, 15.18, 0.000, 0.000, 0.000, 15:20:18.500
72, 250.00, 16.41, 13.49, 9.88, 0.000, 0.000, 0.000, 15:20:18.500
73, -74.60, 7.96, 5.92, 8.11, 0.000, 0.000, 0.000, 15:20:18.501
74, -357.12, 8.48, 12.38, 16.64, 0.000, 0.000, 0.000, 15:20:18.501
75, 152.23, 11.02, 13.80, 11.46, 0.000, 0.000, 0.000, 15:20:18.523
76, 226.66, 12.02, 8.00, 14.55, 0.000, 0.000, 0.000, 15:20:18.523
77, -265.28, 4.20, 10.91, 14.79, 0.000, 0.000, 0.000, 15:20:18.524
78, 62.76, 5.02, 16.19, 12.71, 0.000, 0.000, 0.000, 15:20:18.524
79, 169.97, 7.98, 7.95, 13.42, 0.000, 0.000, 0.000, 15:20:18.524
80, -248.41, 12.12, 6.20, 6.45, 0.000, 0.000, 0.000, 15:20:18.525
81, -63.36, 6.50, 9.97, 12.68, 0.000, 0.000, 0.000, 15:20:18.545
82, 220.69, 3.82, 10.34, 12.76, 0.000, 0.000, 0.000, 15:20:18.545
83, -87.06, 8.82, 9.75, 9.39, 0.000, 0.000, 0.000, 15:20:18.546
84, -320.11, 7.85, 11.55, 14.24, 0.000, 0.000, 0.000, 15:20:18.546
85, 212.04, 7.43, 12.07, 7.57, 0.000, 0.000, 0.000, 15:20:18.568
86, 169.06, 10.61, 10.26, 11.79, 0.000, 0.000, 0.000, 15:20:18.568
87, -266.76, 10.56, 12.87, 12.92, 0.000, 0.000, 0.000, 15:20:18.568
88, 33.16, 8.12, 11.00, 12.61, 0.000, 0.000, 0.000, 15:20:18.568
89, 51.35, 6.28, 10.29, 14.97, 0.000, 0.000, 0.000, 15:20:18.590
90, -222.18, 13.47, 12.56, 11.99, 0.000, 0.000, 0.000, 15:20:18.590
91, -48.74, 1.45, 13.39, 11.03, 0.000, 0.000, 0.000, 15:20:18.591
92, 199.71, 7.90, 10.66, 13.33, 0.000, 0.000, 0.000, 15:20:18.591
93, -30.43, 11.22, 9.73, 5.74, 0.000, 0.000, 0.000, 15:20:18.613
94, -152.27, 8.21, 15.05, 12.27, 0.000, 0.000, 0.000, 15:20:18.613
95, 187.07, 8.81, 13.14, 10.92, 0.000, 0.000, 0.000, 15:20:18.614
96, 64.18, 9.88, 6.36, 8.65, 0.000, 0.000, 0.000, 15:20:18.614
97, -298.90, 10.42, 10.87, 10.69, 0.000, 0.000, 0.000, 15:20:18.614
98, 35.86, 6.45, 12.22, 12.75, 0.000, 0.000, 0.000, 15:20:18.614
99, 124.55, 9.69, 10.52, 13.17, 0.000, 0.000, 0.000, 15:20:18.636
100, -185.36, 9.22, 9.44, 13.27, 0.000, 0.000, 0.000, 15:20:18.636
101, -95.15, 6.70, 15.59, 17.44, 0.000, 0.000, 0.000, 15:20:18.636
102, 174.47, 3.44, 8.40, 10.65, 0.000, 0.000, 0.000, 15:20:18.636
103, -143.54, 11.32, 9.18, 9.85, 0.000, 0.000, 0.000, 15:20:18.657
104, -112.62, 4.16, 17.25, 15.35, 0.000, 0.000, 0.000, 15:20:18.658
105, 161.45, 7.25, 10.59, 14.22, 0.000, 0.000, 0.000, 15:20:18.658
106, 119.69, 9.27, 11.65, 11.42, 0.000, 0.000, 0.000, 15:20:18.658
107, -299.90, 9.49, 12.01, 8.93, 0.000, 0.000, 0.000, 15:20:18.680
108, 21.67, 10.89, 10.18, 13.76, 0.000, 0.000, 0.000, 15:20:18.680
109, 237.37, 5.92, 8.17, 12.29, 0.000, 0.000, 0.000, 15:20:18.681
110, -174.11, 13.78, 6.87, 9.96, 0.000, 0.000, 0.000, 15:20:18.681
111, -140.20, 3.09, 13.63, 15.46, 0.000, 0.000, 0.000, 15:20:18.703
112, 204.05, 12.20, 11.37, 9.90, 0.000, 0.000, 0.000, 15:20:18.703
113, -70.60, 9.04, 10.55, 8.89, 0.000, 0.000, 0.000, 15:20:18.703
114, -256.59, 7.42, 13.80, 17.89, 0.000, 0.000, 0.000, 15:20:18.704
115, 148.29, 7.61, 15.95, 12.16, 0.000, 0.000, 0.000, 15:20:18.704
116, 109.22, 11.65, 8.47, 11.76, 0.000, 0.000, 0.000, 15:20:18.704
117, -307.68, 6.06, 8.93, 14.99, 0.000, 0.000, 0.000, 15:20:18.725
118, 0.30, 5.52, 11.94, 11.01, 0.000, 0.000, 0.000, 15:20:18.725
119, 280.17, 9.76, 8.07, 11.26, 0.000, 0.000, 0.000, 15:20:18.726
120, -222.37, 10.05, 7.74, 8.42, 0.000, 0.000, 0.000, 15:20:18.726
121, -70.75, 7.22, 12.29, 10.47, 0.000, 0.000, 0.000, 15:20:18.748
122, 232.08, 8.20, 12.76, 12.19, 0.000, 0.000, 0.000, 15:20:18.748
123, -109.61, 10.62, 9.55, 8.91, 0.000, 0.000, 0.000, 15:20:18.748
124, -202.43, 4.27, 15.65, 14.26, 0.000, 0.000, 0.000, 15:20:18.748
125, 206.72, 9.74, 10.57, 9.44, 0.000, 0.000, 0.000, 15:20:18.770
126, 108.51, 14.29, 10.60, 9.49, 0.000, 0.000, 0.000, 15:20:18.771
127, -307.60, 6.06, 11.84, 14.71, 0.000, 0.000, 0.000, 15:20:18.771
128, -25.48, 7.90, 12.73, 13.17, 0.000, 0.000, 0.000, 15:20:18.771
129, 186.29, 8.27, 11.56, 13.86, 0.000, 0.000, 0.000, 15:20:18.792
130, -161.80, 8.54, 9.42, 13.13, 0.000, 0.000, 0.000, 15:20:18.793
131, -118.69, 6.95, 15.69, 16.19, 0.000, 0.000, 0.000, 15:20:18.793
132, 210.11, 4.63, 11.84, 9.47, 0.000, 0.000, 0.000, 15:20:18.793
133, -51.36, 13.15, 8.85, 10.16, 0.000, 0.000, 0.000, 15:20:18.794
134, -273.32, 3.22, 14.84, 13.47, 0.000, 0.000, 0.000, 15:20:18.794
135, 123.75, 11.77, 14.00, 13.59, 0.000, 0.000, 0.000, 15:20:18.815
136, 191.39, 6.42, 10.14, 11.07, 0.000, 0.000, 0.000, 15:20:18.815
137, -224.20, 8.59, 9.58, 9.10, 0.000, 0.000, 0.000, 15:20:18.816
138, 44.02, 5.54, 12.77, 13.19, 0.000, 0.000, 0.000, 15:20:18.816
139, 185.64, 9.45, 8.67, 13.07, 0.000, 0.000, 0.000, 15:20:18.838
140, -199.82, 6.93, 3.94, 11.38, 0.000, 0.000, 0.000, 15:20:18.838
141, -180.56, 3.80, 10.37, 11.96, 0.000, 0.000, 0.000, 15:20:18.838
142, 125.90, 9.53, 11.31, 12.94, 0.000, 0.000, 0.000, 15:20:18.838
143, -14.66, 14.09, 6.19, 8.46, 0.000, 0.000, 0.000, 15:20:18.860
144, -249.89, 14.55, 13.84, 11.85, 0.000, 0.000, 0.000, 15:20:18.860
145, 146.78, 4.67, 10.40, 15.29, 0.000, 0.000, 0.000, 15:20:18.861
146, 73.46, 12.32, 7.85, 10.53, 0.000, 0.000, 0.000, 15:20:18.861
147, -283.45, 6.86, 16.16, 11.65, 0.000, 0.000, 0.000, 15:20:18.883
148, 34.59, 5.98, 13.88, 16.50, 0.000, 0.000, 0.000, 15:20:18.883
149, 289.30, 4.00, 13.75, 13.22, 0.000, 0.000, 0.000, 15:20:18.883
150, -196.12, 11.83, 8.54, 9.25, 0.000, 0.000, 0.000, 15:20:18.883
151, -128.47, 5.74, 12.18, 15.59, 0.000, 0.000, 0.000, 15:20:18.884
152, 180.67, 9.62, 11.14, 9.11, 0.000, 0.000, 0.000, 15:20:18.884
153, -71.25, 12.27, 11.06, 7.44, 0.000, 0.000, 0.000, 15:20:18.905
154, -144.60, 5.17, 18.55, 16.03, 0.000, 0.000, 0.000, 15:20:18.905
155, 229.75, 8.20, 8.99, 11.65, 0.000, 0.000, 0.000, 15:20:18.906
156, 96.74, 10.43, 8.29, 14.41, 0.000, 0.000, 0.000, 15:20:18.906
157, -378.47, 7.28, 12.33, 10.11, 0.000, 0.000, 0.000, 15:20:18.928
158, -19.97, 7.79, 13.33, 15.06, 0.000, 0.000, 0.000, 15:20:18.928
159, 226.22, 8.75, 10.25, 9.07, 0.000, 0.000, 0.000, 15:20:18.929
160, -169.51, 11.84, 7.80, 10.86, 0.000, 0.000, 0.000, 15:20:18.929
161, -152.87, 8.01, 13.86, 17.31, 0.000, 0.000, 0.000, 15:20:18.950
162, 243.71, 14.81, 13.40, 12.79, 0.000, 0.000, 0.000, 15:20:18.950
163, -23.87, 10.60, 7.30, 12.20, 0.000, 0.000, 0.000, 15:20:18.951
164, -274.97, 5.46, 11.86, 11.83, 0.000, 0.000, 0.000, 15:20:18.951
165, 228.03, 8.26, 11.60, 12.15, 0.000, 0.000, 0.000, 15:20:18.973
166, 141.57, 9.64, 7.81, 8.08, 0.000, 0.000, 0.000, 15:20:18.973
167, -413.59, 6.74, 13.07, 10.10, 0.000, 0.000, 0.000, 15:20:18.973
168, -81.74, 6.94, 12.38, 12.93, 0.000, 0.000, 0.000, 15:20:18.974
169, 294.93, 7.35, 11.03, 14.20, 0.000, 0.000, 0.000, 15:20:18.974
170, -145.05, 7.52, 12.29, 8.69, 0.000, 0.000, 0.000, 15:20:18.974
171, -48.83, 7.58, 11.38, 14.87, 0.000, 0.000, 0.000, 15:20:18.995
172, 212.24, 0.31, 10.42, 8.72, 0.000, 0.000, 0.000, 15:20:18.995
173, -215.79, 9.96, 7.99, 11.21, 0.000, 0.000, 0.000, 15:20:18.996
174, -262.78, 7.74, 12.04, 16.09, 0.000, 0.000, 0.000, 15:20:18.996
175, 230.68, 7.22, 9.97, 14.21, 0.000, 0.000, 0.000, 15:20:19.018
176, 167.24, 6.28, 9.15, 9.82, 0.000, 0.000, 0.000, 15:20:19.018
177, -267.42, 15.64, 13.50, 11.86, 0.000, 0.000, 0.000, 15:20:19.018
178, -6.34, 6.28, 9.76, 15.76, 0.000, 0.000, 0.000, 15:20:19.018
179, 174.53, 14.04, 13.69, 13.02, 0.000, 0.000, 0.000, 15:20:19.040
180, -237.79, 11.95, 8.48, 9.89, 0.000, 0.000, 0.000, 15:20:19.041
181, -159.84, -0.66, 13.75, 12.80, 0.000, 0.000, 0.000, 15:20:19.041
182, 229.06, 7.42, 12.98, 13.51, 0.000, 0.000, 0.000, 15:20:19.041
183, 6.80, 12.04, 9.67, 8.05, 0.000, 0.000, 0.000, 15:20:19.063
184, -141.54, 4.47, 13.29, 14.82, 0.000, 0.000, 0.000, 15:20:19.063
185, 73.00, 2.16, 8.44, 9.13, 0.000, 0.000, 0.000, 15:20:19.063
186, -74.13, 8.40, 5.19, 12.89, 0.000, 0.000, 0.000, 15:20:19.064
187, -291.74, 11.34, 10.40, 9.52, 0.000, 0.000, 0.000, 15:20:19.064
188, 201.82, 5.97, 9.67, 12.39, 0.000, 0.000, 0.000, 15:20:19.064
189, 316.16, 9.57, 9.49, 10.94, 0.000, 0.000, 0.000, 15:20:19.085
190, -241.19, 9.35, 11.86, 6.62, 0.000, 0.000, 0.000, 15:20:19.085
191, -303.16, 7.06, 15.79, 14.40, 0.000, 0.000, 0.000, 15:20:19.086
192, 349.36, 5.77, 11.01, 15.32, 0.000, 0.000, 0.000, 15:20:19.086
193, 77.01, 6.86, 7.38, 10.53, 0.000, 0.000, 0.000, 15:20:19.108
194, -239.87, 3.87, 12.97, 14.89, 0.000, 0.000, 0.000, 15:20:19.108
195, 37.82, 6.33, 8.30, 11.09, 0.000, 0.000, 0.000, 15:20:19.108
196, 92.24, 13.44, 9.52, 8.57, 0.000, 0.000, 0.000, 15:20:19.108
197, -207.92, 8.33, 12.77, 12.60, 0.000, 0.000, 0.000, 15:20:19.130
198, 88.92, 13.23, 10.92, 9.68, 0.000, 0.000, 0.000, 15:20:19.130
199, 153.72, 7.76, 9.35, 13.24, 0.000, 0.000, 0.000, 15:20:19.131
200, -329.38, 11.98, 5.02, 10.83, 0.000, 0.000, 0.000, 15:20:19.131
0, -88.06, 6.43, 9.94, 12.14, 0.000, 0.000, 0.000, 15:20:19.131
1, 253.53, 8.33, 14.94, 14.24, 0.000, 0.000, 0.000, 15:20:19.153
2, 25.43, 11.84, 8.29, 8.97, 0.000, 0.000, 0.000, 15:20:19.153
3, -244.20, 7.97, 13.88, 16.53, 0.000, 0.000, 0.000, 15:20:19.153
4, 88.44, 10.00, 13.01, 12.36, 0.000, 0.000, 0.000, 15:20:19.154
5, 3.64, 7.64, 9.04, 11.27, 0.000, 0.000, 0.000, 15:20:19.175
6, -215.62, 12.01, 13.83, 10.65, 0.000, 0.000, 0.000, 15:20:19.176
7, 123.56, 3.75, 11.14, 12.73, 0.000, 0.000, 0.000, 15:20:19.176
8, 301.88, 9.95, 8.88, 13.52, 0.000, 0.000, 0.000, 15:20:19.176
9, -295.63, 7.77, 7.73, 11.49, 0.000, 0.000, 0.000, 15:20:19.198
10, -73.50, 10.45, 15.03, 12.38, 0.000, 0.000, 0.000, 15:20:19.198
11, 286.34, 9.99, 13.02, 9.80, 0.000, 0.000, 0.000, 15:20:19.198
12, -55.07, 11.75, 13.61, 7.20, 0.000, 0.000, 0.000, 15:20:19.198
13, -190.20, 2.90, 9.82, 14.75, 0.000, 0.000, 0.000, 15:20:19.199
14, 187.06, 9.02, 10.61, 11.53, 0.000, 0.000, 0.000, 15:20:19.199
15, 93.56, 10.72, 10.44, 9.96, 0.000, 0.000, 0.000, 15:20:19.220
16, -328.25, 4.51, 9.13, 15.53, 0.000, 0.000, 0.000, 15:20:19.220
17, 36.08, 5.79, 11.96, 9.59, 0.000, 0.000, 0.000, 15:20:19.221
18, 72.13, 8.10, 9.98, 10.16, 0.000, 0.000, 0.000, 15:20:19.221
19, -219.72, 9.52, 8.86, 10.25, 0.000, 0.000, 0.000, 15:20:19.243
20, -156.46, 4.95, 16.49, 14.76, 0.000, 0.000, 0.000, 15:20:19.243
21, 78.40, 8.26, 9.61, 15.13, 0.000, 0.000, 0.000, 15:20:19.243
22, 14.24, 12.70, 6.57, 9.58, 0.000, 0.000, 0.000, 15:20:19.243
23, -128.35, 7.64, 14.77, 10.63, 0.000, 0.000, 0.000, 15:20:19.265
24, 196.43, 11.53, 11.46, 10.34, 0.000, 0.000, 0.000, 15:20:19.265
25, 228.25, 5.55, 11.37, 7.33, 0.000, 0.000, 0.000, 15:20:19.266
26, -293.64, 10.37, 11.18, 11.31, 0.000, 0.000, 0.000, 15:20:19.266
27, -67.16, 7.03, 12.73, 12.26, 0.000, 0.000, 0.000, 15:20:19.288
28, 116.86, 4.67, 9.44, 13.75, 0.000, 0.000, 0.000, 15:20:19.288
29, -176.73, 8.43, 7.54, 10.90, 0.000, 0.000, 0.000, 15:20:19.288
30, -70.57, 8.01, 16.62, 14.77, 0.000, 0.000, 0.000, 15:20:19.289
31, 199.72, 7.06, 10.54, 11.93, 0.000, 0.000, 0.000, 15:20:19.289
32, -141.53, 6.61, 9.13, 6.46, 0.000, 0.000, 0.000, 15:20:19.289
33, -335.13, 10.08, 14.55, 13.58, 0.000, 0.000, 0.000, 15:20:19.310
34, 112.10, 6.57, 13.90, 14.56, 0.000, 0.000, 0.000, 15:20:19.310
35, 217.59, 10.10, 9.88, 10.00, 0.000, 0.000, 0.000, 15:20:19.311
36, -271.28, 11.74, 12.34, 12.54, 0.000, 0.000, 0.000, 15:20:19.311
37, 18.83, 5.76, 9.50, 11.88, 0.000, 0.000, 0.000, 15:20:19.333
38, 205.17, 5.37, 9.77, 12.85, 0.000, 0.000, 0.000, 15:20:19.333
39, -206.12, 13.21, 9.44, 12.79, 0.000, 0.000, 0.000, 15:20:19.333
40, -87.05, 10.23, 12.64, 15.86, 0.000, 0.000, 0.000, 15:20:19.333
41, 104.80, 7.65, 9.56, 13.58, 0.000, 0.000, 0.000, 15:20:19.355
42, -94.39, 14.41, 10.58, 10.34, 0.000, 0.000, 0.000, 15:20:19.356
43, -69.00, -0.73, 14.87, 11.28, 0.000, 0.000, 0.000, 15:20:19.356
44, 163.75, 5.90, 12.55, 12.99, 0.000, 0.000, 0.000, 15:20:19.356
45, 133.28, 9.94, 10.47, 10.48, 0.000, 0.000, 0.000, 15:20:19.378
46, -358.88, 10.20, 11.01, 12.61, 0.000, 0.000, 0.000, 15:20:19.378
47, -36.47, 8.61, 12.05, 11.59, 0.000, 0.000, 0.000, 15:20:19.378
48, 242.56, 9.08, 10.84, 9.44, 0.000, 0.000, 0.000, 15:20:19.379
49, -235.85, 8.91, 10.28, 12.28, 0.000, 0.000, 0.000, 15:20:19.379
50, -133.35, 4.10, 13.92, 15.37, 0.000, 0.000, 0.000, 15:20:19.380
51, 314.25, 6.83, 8.53, 10.22, 0.000, 0.000, 0.000, 15:20:19.400
52, -70.23, 9.50, 9.92, 16.82, 0.000, 0.000, 0.000, 15:20:19.400
53, -359.89, 6.81, 12.38, 17.18, 0.000, 0.000, 0.000, 15:20:19.401
54, 279.19, 10.17, 10.80, 12.33, 0.000, 0.000, 0.000, 15:20:19.401
55, 191.28, 8.42, 11.31, 10.54, 0.000, 0.000, 0.000, 15:20:19.423
56, -383.63, 8.30, 7.78, 12.64, 0.000, 0.000, 0.000, 15:20:19.423
57, 22.36, 13.24, 12.36, 11.03, 0.000, 0.000, 0.000, 15:20:19.424
58, 155.07, 7.57, 11.43, 12.57, 0.000, 0.000, 0.000, 15:20:19.424
59, -244.12, 10.13, 8.89, 7.54, 0.000, 0.000, 0.000, 15:20:19.445
60, -53.09, 11.28, 11.44, 11.79, 0.000, 0.000, 0.000, 15:20:19.446
61, 165.36, 5.93, 11.16, 12.12, 0.000, 0.000, 0.000, 15:20:19.446
62, 0.92, 14.24, 9.19, 9.12, 0.000, 0.000, 0.000, 15:20:19.446
63, -100.62, 3.59, 14.74, 14.36, 0.000, 0.000, 0.000, 15:20:19.468
64, 107.27, 9.70, 13.31, 12.25, 0.000, 0.000, 0.000, 15:20:19.468
65, -48.73, 8.46, 9.83, 13.08, 0.000, 0.000, 0.000, 15:20:19.468
66, -220.21, 9.82, 10.65, 12.24, 0.000, 0.000, 0.000, 15:20:19.469
67, 119.06, 6.46, 11.42, 11.06, 0.000, 0.000, 0.000, 15:20:19.469
68, 237.56, 6.80, 8.64, 15.56, 0.000, 0.000, 0.000, 15:20:19.469
69, -263.83, 14.07, 6.38, 7.23, 0.000, 0.000, 0.000, 15:20:19.490
70, -268.59, 2.78, 14.01, 11.92, 0.000, 0.000, 0.000, 15:20:19.490
71, 26.70, 8.79, 8.77, 14.37, 0.000, 0.000, 0.000, 15:20:19.491
72, 99.38, 12.48, 8.47, 9.34, 0.000, 0.000, 0.000, 15:20:19.491
73, -182.93, 7.58, 15.58, 14.71, 0.000, 0.000, 0.000, 15:20:19.513
74, 259.13, 4.93, 11.79, 12.30, 0.000, 0.000, 0.000, 15:20:19.513
75, 174.59, 9.41, 11.06, 9.12, 0.000, 0.000, 0.000, 15:20:19.513
76, -365.63, 9.96, 11.07, 10.45, 0.000, 0.000, 0.000, 15:20:19.513
77, -33.15, 7.64, 14.02, 15.48, 0.000, 0.000, 0.000, 15:20:19.535
78, 271.18, 13.88, 7.85, 7.42, 0.000, 0.000, 0.000, 15:20:19.535
79, -146.10, 5.25, 8.13, 9.89, 0.000, 0.000, 0.000, 15:20:19.536
80, -79.56, 4.66, 13.17, 13.05, 0.000, 0.000, 0.000, 15:20:19.536
81, 161.81, 5.30, 8.81, 15.10, 0.000, 0.000, 0.000, 15:20:19.558
82, -266.15, 14.35, 9.30, 12.32, 0.000, 0.000, 0.000, 15:20:19.558
83, -202.64, 6.72, 13.36, 12.34, 0.000, 0.000, 0.000, 15:20:19.558
84, 281.85, 10.08, 10.57, 10.57, 0.000, 0.000, 0.000, 15:20:19.559
85, 157.65, 7.33, 10.38, 12.07, 0.000, 0.000, 0.000, 15:20:19.559
86, -290.32, 11.86, 9.05, 10.53, 0.000, 0.000, 0.000, 15:20:19.559
87, -230.78, 7.96, 13.88, 14.54, 0.000, 0.000, 0.000, 15:20:19.580
88, 264.51, 3.27, 9.42, 14.99, 0.000, 0.000, 0.000, 15:20:19.581
89, -47.50, 5.32, 13.45, 12.75, 0.000, 0.000, 0.000, 15:20:19.581
90, -111.71, 5.08, 14.67, 15.78, 0.000, 0.000, 0.000, 15:20:19.581
91, 258.60, 8.69, 11.11, 11.86, 0.000, 0.000, 0.000, 15:20:19.603
92, -64.08, 10.06, 6.90, 11.17, 0.000, 0.000, 0.000, 15:20:19.603
93, -383.75, 7.63, 12.89, 14.43, 0.000, 0.000, 0.000, 15:20:19.603
94, 82.39, 5.04, 11.78, 14.75, 0.000, 0.000, 0.000, 15:20:19.603
95, 295.70, 9.51, 10.74, 8.49, 0.000, 0.000, 0.000, 15:20:19.625
96, -194.39, 12.86, 7.78, 11.11, 0.000, 0.000, 0.000, 15:20:19.626
97, 70.10, 1.26, 12.61, 9.10, 0.000, 0.000, 0.000, 15:20:19.626
98, 177.82, 12.58, 9.26, 10.63, 0.000, 0.000, 0.000, 15:20:19.626
99, -369.98, 16.91, 12.58, 9.33, 0.000, 0.000, 0.000, 15:20:19.648
100, -225.47, 3.94, 14.22, 14.95, 0.000, 0.000, 0.000, 15:20:19.648
101, 219.54, 7.55, 11.27, 6.84, 0.000, 0.000, 0.000, 15:20:19.648
102, 65.43, 13.51, 7.43, 8.12, 0.000, 0.000, 0.000, 15:20:19.648
103, -258.53, 2.24, 13.61, 12.60, 0.000, 0.000, 0.000, 15:20:19.649
104, 103.46, 6.15, 11.37, 13.39, 0.000, 0.000, 0.000, 15:20:19.649
105, 123.63, 10.04, 11.77, 9.98, 0.000, 0.000, 0.000, 15:20:19.670
106, -238.20, 5.69, 12.30, 11.01, 0.000, 0.000, 0.000, 15:20:19.671
107, 98.66, 5.58, 11.86, 13.25, 0.000, 0.000, 0.000, 15:20:19.671
108, 183.69, 7.11, 11.38, 9.48, 0.000, 0.000, 0.000, 15:20:19.671
109, -184.12, 5.76, 6.36, 8.43, 0.000, 0.000, 0.000, 15:20:19.693
110, -95.96, 3.01, 11.95, 15.48, 0.000, 0.000, 0.000, 15:20:19.694
111, 143.02, 8.59, 12.75, 16.14, 0.000, 0.000, 0.000, 15:20:19.694
112, -111.08, 10.05, 10.44, 13.17, 0.000, 0.000, 0.000, 15:20:19.694
113, -326.51, 8.58, 11.03, 14.12, 0.000, 0.000, 0.000, 15:20:19.715
114, 316.60, 14.88, 9.41, 11.05, 0.000, 0.000, 0.000, 15:20:19.715
115, 156.58, 1.29, 11.51, 11.78, 0.000, 0.000, 0.000, 15:20:19.716
116, -351.37, 9.41, 8.92, 13.34, 0.000, 0.000, 0.000, 15:20:19.716
117, -32.11, 9.10, 9.93, 10.47, 0.000, 0.000, 0.000, 15:20:19.738
118, 315.39, 10.35, 6.74, 12.38, 0.000, 0.000, 0.000, 15:20:19.738
119, -218.82, 10.61, 10.84, 12.74, 0.000, 0.000, 0.000, 15:20:19.738
120, -62.53, 6.50, 16.89, 17.96, 0.000, 0.000, 0.000, 15:20:19.738
121, 303.89, 12.41, 12.80, 12.41, 0.000, 0.000, 0.000, 15:20:19.739
122, -133.76, 11.18, 9.86, 4.80, 0.000, 0.000, 0.000, 15:20:19.739
123, -337.59, 9.75, 11.48, 14.46, 0.000, 0.000, 0.000, 15:20:19.761
124, 128.18, 4.62, 10.97, 11.37, 0.000, 0.000, 0.000, 15:20:19.762
125, 78.97, 9.10, 12.85, 13.71, 0.000, 0.000, 0.000, 15:20:19.762
126, -266.88, 5.23, 9.19, 9.37, 0.000, 0.000, 0.000, 15:20:19.762
127, -5.98, 10.18, 12.21, 11.63, 0.000, 0.000, 0.000, 15:20:19.783
128, 269.17, 9.60, 16.08, 16.74, 0.000, 0.000, 0.000, 15:20:19.783
129, -211.78, 10.93, 8.03, 4.77, 0.000, 0.000, 0.000, 15:20:19.783
130, -104.75, 5.31, 8.51, 12.05, 0.000, 0.000, 0.000, 15:20:19.784
131, 226.76, 11.45, 9.46, 17.09, 0.000, 0.000, 0.000, 15:20:19.805
132, -37.44, 13.99, 11.93, 7.39, 0.000, 0.000, 0.000, 15:20:19.806
133, -255.92, 1.21, 13.55, 15.72, 0.000, 0.000, 0.000, 15:20:19.806
134, 60.03, 12.30, 11.31, 14.53, 0.000, 0.000, 0.000, 15:20:19.806
135, 291.09, 8.55, 11.78, 12.13, 0.000, 0.000, 0.000, 15:20:19.828
136, -202.02, 9.64, 14.00, 14.35, 0.000, 0.000, 0.000, 15:20:19.828
137, -56.30, 5.02, 14.41, 10.14, 0.000, 0.000, 0.000, 15:20:19.829
138, 213.91, 8.89, 12.81, 12.88, 0.000, 0.000, 0.000, 15:20:19.829
139, -328.92, 5.90, 9.35, 8.96, 0.000, 0.000, 0.000, 15:20:19.829
140, -28.51, 3.29, 12.91, 13.99, 0.000, 0.000, 0.000, 15:20:19.829
141, 239.74, 7.97, 13.02, 9.62, 0.000, 0.000, 0.000, 15:20:19.850
142, -69.46, 7.87, 7.84, 12.38, 0.000, 0.000, 0.000, 15:20:19.851
143, -329.84, 7.11, 12.41, 11.58, 0.000, 0.000, 0.000, 15:20:19.851
144, 120.90, 5.50, 10.14, 12.85, 0.000, 0.000, 0.000, 15:20:19.851
145, 45.45, 6.27, 10.77, 7.85, 0.000, 0.000, 0.000, 15:20:19.873
146, -223.47, 8.21, 10.61, 12.76, 0.000, 0.000, 0.000, 15:20:19.873
147, -95.27, 9.19, 12.66, 13.59, 0.000, 0.000, 0.000, 15:20:19.873
148, 287.35, 7.71, 10.95, 12.54, 0.000, 0.000, 0.000, 15:20:19.873
149, -168.21, 8.74, 7.97, 6.27, 0.000, 0.000, 0.000, 15:20:19.895
150, 40.83, 12.93, 9.16, 11.84, 0.000, 0.000, 0.000, 15:20:19.896
151, 212.05, 4.58, 14.26, 13.97, 0.000, 0.000, 0.000, 15:20:19.896
152, -36.67, 10.76, 10.04, 8.70, 0.000, 0.000, 0.000, 15:20:19.896
153, -336.71, 7.86, 14.00, 13.62, 0.000, 0.000, 0.000, 15:20:19.918
154, -4.47, 10.26, 12.81, 9.96, 0.000, 0.000, 0.000, 15:20:19.918
155, 239.25, 11.52, 13.11, 5.95, 0.000, 0.000, 0.000, 15:20:19.918
156, -194.90, 8.13, 12.64, 9.53, 0.000, 0.000, 0.000, 15:20:19.919
157, 115.07, 4.87, 14.50, 14.96, 0.000, 0.000, 0.000, 15:20:19.919
158, 223.11, 4.31, 7.75, 19.95, 0.000, 0.000, 0.000, 15:20:19.919
159, -469.78, 13.72, 11.95, 9.05, 0.000, 0.000, 0.000, 15:20:19.940
160, -195.29, 4.17, 13.17, 12.68, 0.000, 0.000, 0.000, 15:20:19.941
161, 326.39, 6.53, 11.09, 11.94, 0.000, 0.000, 0.000, 15:20:19.941
162, 158.06, 10.96, 8.23, 13.90, 0.000, 0.000, 0.000, 15:20:19.941
163, -226.93, 8.82, 12.90, 12.41, 0.000, 0.000, 0.000, 15:20:19.963
164, 43.25, 7.12, 9.76, 15.66, 0.000, 0.000, 0.000, 15:20:19.963
165, -20.62, 10.26, 9.82, 10.05, 0.000, 0.000, 0.000, 15:20:19.963
166, -377.76, 6.84, 11.01, 13.21, 0.000, 0.000, 0.000, 15:20:19.964
167, 118.63, 11.09, 13.28, 11.59, 0.000, 0.000, 0.000, 15:20:19.985
168, 281.44, 12.51, 9.20, 11.48, 0.000, 0.000, 0.000, 15:20:19.985
169, -310.92, 6.97, 11.01, 8.70, 0.000, 0.000, 0.000, 15:20:19.986
170, -198.47, 6.39, 11.25, 13.17, 0.000, 0.000, 0.000, 15:20:19.986
171, 169.73, 7.04, 8.39, 12.49, 0.000, 0.000, 0.000, 15:20:20.008
172, 112.84, 14.09, 10.10, 7.01, 0.000, 0.000, 0.000, 15:20:20.008
173, -197.14, 3.83, 13.87, 16.22, 0.000, 0.000, 0.000, 15:20:20.008
174, 317.27, 6.80, 14.32, 13.06, 0.000, 0.000, 0.000, 15:20:20.009
175, 123.45, 13.82, 10.07, 8.77, 0.000, 0.000, 0.000, 15:20:20.009
176, -400.37, 11.13, 10.39, 14.25, 0.000, 0.000, 0.000, 15:20:20.009
177, -113.26, 10.98, 10.19, 13.47, 0.000, 0.000, 0.000, 15:20:20.030
178, 237.81, 5.68, 11.69, 12.62, 0.000, 0.000, 0.000, 15:20:20.031
179, -56.98, 12.08, 9.78, 7.53, 0.000, 0.000, 0.000, 15:20:20.031
180, -8.94, 5.98, 13.65, 13.02, 0.000, 0.000, 0.000, 15:20:20.031
181, 160.17, 9.79, 14.18, 12.80, 0.000, 0.000, 0.000, 15:20:20.053
182, -152.62, 4.83, 6.65, 10.14, 0.000, 0.000, 0.000, 15:20:20.053
183, -247.75, 9.13, 12.79, 13.74, 0.000, 0.000, 0.000, 15:20:20.054
184, 29.16, 9.63, 13.10, 17.10, 0.000, 0.000, 0.000, 15:20:20.054
185, 180.32, 13.18, 11.94, 11.63, 0.000, 0.000, 0.000, 15:20:20.075
186, -193.10, 15.75, 8.48, 9.72, 0.000, 0.000, 0.000, 15:20:20.076
187, -9.58, -0.80, 10.84, 13.21, 0.000, 0.000, 0.000, 15:20:20.076
188, 253.05, 7.84, 6.13, 8.77, 0.000, 0.000, 0.000, 15:20:20.076
189, -258.66, 9.63, 13.15, 9.72, 0.000, 0.000, 0.000, 15:20:20.098
190, -169.05, 2.65, 12.52, 11.40, 0.000, 0.000, 0.000, 15:20:20.098
191, 186.28, 8.08, 17.22, 15.14, 0.000, 0.000, 0.000, 15:20:20.099
192, -29.11, 10.37, 10.17, 9.40, 0.000, 0.000, 0.000, 15:20:20.099
193, -201.86, 5.55, 10.32, 14.31, 0.000, 0.000, 0.000, 15:20:20.099
194, -3.37, 11.34, 10.22, 10.71, 0.000, 0.000, 0.000, 15:20:20.099
195, 90.79, 11.46, 9.43, 10.87, 0.000, 0.000, 0.000, 15:20:20.120
196, -191.08, 5.98, 9.10, 12.98, 0.000, 0.000, 0.000, 15:20:20.120
197, -11.06, 6.03, 10.24, 16.23, 0.000, 0.000, 0.000, 15:20:20.121
198, 311.13, 11.50, 12.79, 13.01, 0.000, 0.000, 0.000, 15:20:20.121
199, -163.89, 15.35, 8.81, 6.72, 0.000, 0.000, 0.000, 15:20:20.143
200, -182.12, 4.96, 11.71, 10.51, 0.000, 0.000, 0.000, 15:20:20.143
0, 160.72, 3.72, 8.15, 8.76, 0.000, 0.000, 0.000, 15:20:20.144
1, 0.73, 9.71, 8.89, 13.40, 0.000, 0.000, 0.000, 15:20:20.144
2, -198.58, 9.69, 14.60, 17.93, 0.000, 0.000, 0.000, 15:20:20.144
3, 157.59, 10.09, 11.21, 14.92, 0.000, 0.000, 0.000, 15:20:20.165
4, 114.65, 6.37, 10.72, 11.48, 0.000, 0.000, 0.000, 15:20:20.166
5, -298.34, 10.36, 11.54, 9.64, 0.000, 0.000, 0.000, 15:20:20.166
6, 18.74, 8.76, 10.82, 13.09, 0.000, 0.000, 0.000, 15:20:20.166
7, 323.95, 9.07, 13.11, 10.65, 0.000, 0.000, 0.000, 15:20:20.188
8, -202.90, 6.52, 8.06, 9.26, 0.000, 0.000, 0.000, 15:20:20.188
9, -313.38, 7.67, 9.86, 12.75, 0.000, 0.000, 0.000, 15:20:20.188
10, 181.65, 6.97, 11.73, 12.41, 0.000, 0.000, 0.000, 15:20:20.188
11, 83.90, 14.08, 9.58, 7.24, 0.000, 0.000, 0.000, 15:20:20.211
12, -254.43, 11.31, 15.40, 15.95, 0.000, 0.000, 0.000, 15:20:20.211
13, 140.14, 1.90, 10.27, 15.48, 0.000, 0.000, 0.000, 15:20:20.211
14, 207.10, 9.41, 12.61, 10.29, 0.000, 0.000, 0.000, 15:20:20.211
15, -308.00, 6.46, 12.72, 11.14, 0.000, 0.000, 0.000, 15:20:20.233
16, -18.24, 7.41, 13.17, 12.48, 0.000, 0.000, 0.000, 15:20:20.233
17, 367.22, 4.36, 12.38, 13.15, 0.000, 0.000, 0.000, 15:20:20.233
18, -312.89, 15.19, 9.31, 10.77, 0.000, 0.000, 0.000, 15:20:20.234
19, -86.26, 5.09, 12.24, 13.86, 0.000, 0.000, 0.000, 15:20:20.234
20, 159.77, 8.71, 9.62, 11.35, 0.000, 0.000, 0.000, 15:20:20.235
21, -110.57, 13.07, 9.02, 8.68, 0.000, 0.000, 0.000, 15:20:20.255
22, -215.07, 6.49, 11.73, 15.36, 0.000, 0.000, 0.000, 15:20:20.255
23, 186.93, 5.41, 12.77, 10.62, 0.000, 0.000, 0.000, 15:20:20.256
24, 192.76, 8.43, 10.02, 12.35, 0.000, 0.000, 0.000, 15:20:20.256
25, -392.42, 6.89, 11.11, 8.93, 0.000, 0.000, 0.000, 15:20:20.278
26, 0.14, 3.86, 12.81, 14.26, 0.000, 0.000, 0.000, 15:20:20.278
27, 338.02, 6.70, 8.35, 12.07, 0.000, 0.000, 0.000, 15:20:20.278
28, -123.28, 7.67, 5.27, 8.71, 0.000, 0.000, 0.000, 15:20:20.279
29, -107.88, 2.21, 16.66, 16.22, 0.000, 0.000, 0.000, 15:20:20.300
30, 239.14, 12.60, 11.08, 12.20, 0.000, 0.000, 0.000, 15:20:20.300
31, -158.83, 8.39, 9.21, 11.40, 0.000, 0.000, 0.000, 15:20:20.301
32, -453.38, 8.58, 16.31, 12.60, 0.000, 0.000, 0.000, 15:20:20.301
33, 297.22, 6.46, 11.24, 10.63, 0.000, 0.000, 0.000, 15:20:20.323
34, 338.92, 13.54, 9.71, 6.33, 0.000, 0.000, 0.000, 15:20:20.323
35, -300.50, 7.56, 11.07, 12.87, 0.000, 0.000, 0.000, 15:20:20.323
36, -125.24, 8.69, 11.82, 11.15, 0.000, 0.000, 0.000, 15:20:20.323
37, 174.87, 10.28, 9.51, 14.77, 0.000, 0.000, 0.000, 15:20:20.324
38, -161.22, 18.19, 11.42, 8.34, 0.000, 0.000, 0.000, 15:20:20.324
39, -95.77, 6.05, 13.86, 10.03, 0.000, 0.000, 0.000, 15:20:20.345
40, 160.13, 4.43, 11.37, 13.14, 0.000, 0.000, 0.000, 15:20:20.345
41, 61.11, 11.66, 7.26, 10.15, 0.000, 0.000, 0.000, 15:20:20.346
42, -292.70, 6.84, 12.18, 16.25, 0.000, 0.000, 0.000, 15:20:20.346
43, 85.01, 8.31, 9.66, 17.37, 0.000, 0.000, 0.000, 15:20:20.368
44, 119.06, 6.96, 10.45, 13.84, 0.000, 0.000, 0.000, 15:20:20.368
45, -218.41, 9.86, 9.84, 12.98, 0.000, 0.000, 0.000, 15:20:20.368
46, 17.97, 5.21, 12.15, 13.04, 0.000, 0.000, 0.000, 15:20:20.368
47, 205.48, 6.53, 10.71, 14.14, 0.000, 0.000, 0.000, 15:20:20.392
48, -271.63, 14.78, 10.19, 9.96, 0.000, 0.000, 0.000, 15:20:20.392
49, -222.60, 1.15, 13.59, 9.30, 0.000, 0.000, 0.000, 15:20:20.393
50, 88.96, 7.74, 12.21, 11.63, 0.000, 0.000, 0.000, 15:20:20.393
51, 96.26, 10.54, 11.62, 8.82, 0.000, 0.000, 0.000, 15:20:20.413
52, -80.62, 6.69, 10.57, 14.26, 0.000, 0.000, 0.000, 15:20:20.413
53, 119.76, 6.23, 8.44, 9.75, 0.000, 0.000, 0.000, 15:20:20.413
54, 149.00, 11.62, 9.99, 11.48, 0.000, 0.000, 0.000, 15:20:20.413
55, -431.92, 10.36, 11.60, 12.69, 0.000, 0.000, 0.000, 15:20:20.414
56, -74.88, 6.57, 14.09, 14.07, 0.000, 0.000, 0.000, 15:20:20.414
57, 214.10, 10.94, 7.27, 9.15, 0.000, 0.000, 0.000, 15:20:20.435
58, -67.68, 6.52, 9.36, 8.07, 0.000, 0.000, 0.000, 15:20:20.435
59, -132.15, 4.14, 15.75, 11.82, 0.000, 0.000, 0.000, 15:20:20.436
60, 201.82, 4.89, 10.54, 10.81, 0.000, 0.000, 0.000, 15:20:20.436
61, -26.65, 8.98, 9.79, 11.02, 0.000, 0.000, 0.000, 15:20:20.458
62, -451.46, 5.35, 9.54, 13.18, 0.000, 0.000, 0.000, 15:20:20.458
63, 314.05, 9.87, 3.71, 14.69, 0.000, 0.000, 0.000, 15:20:20.458
64, 181.26, 8.64, 8.78, 12.46, 0.000, 0.000, 0.000, 15:20:20.459
65, -311.22, 7.00, 12.94, 13.07, 0.000, 0.000, 0.000, 15:20:20.480
66, -110.03, 14.19, 7.78, 15.43, 0.000, 0.000, 0.000, 15:20:20.480
67, 239.71, 6.25, 13.16, 13.38, 0.000, 0.000, 0.000, 15:20:20.481
68, -51.30, 10.13, 7.26, 8.68, 0.000, 0.000, 0.000, 15:20:20.481
69, -165.93, 5.73, 15.28, 9.47, 0.000, 0.000, 0.000, 15:20:20.503
70, 183.94, 11.36, 9.27, 9.75, 0.000, 0.000, 0.000, 15:20:20.503
71, -141.03, 7.97, 9.36, 8.93, 0.000, 0.000, 0.000, 15:20:20.504
72, -203.53, 8.71, 12.03, 10.73, 0.000, 0.000, 0.000, 15:20:20.504
73, 250.42, 6.08, 10.09, 14.85, 0.000, 0.000, 0.000, 15:20:20.504
74, 113.96, 10.94, 9.36, 12.81, 0.000, 0.000, 0.000, 15:20:20.504
75, -454.19, 14.55, 12.52, 9.32, 0.000, 0.000, 0.000, 15:20:20.525
76, -12.94, 4.84, 14.92, 14.02, 0.000, 0.000, 0.000, 15:20:20.526
77, 291.32, 10.02, 12.10, 17.57, 0.000, 0.000, 0.000, 15:20:20.526
78, -160.86, 10.45, 8.85, 9.45, 0.000, 0.000, 0.000, 15:20:20.526
79, -148.38, 6.11, 15.67, 14.37, 0.000, 0.000, 0.000, 15:20:20.548
80, 201.46, 5.42, 11.92, 10.93, 0.000, 0.000, 0.000, 15:20:20.548
81, 91.76, 10.76, 5.82, 11.63, 0.000, 0.000, 0.000, 15:20:20.548
82, -250.59, 6.27, 12.79, 10.16, 0.000, 0.000, 0.000, 15:20:20.548
83, 85.56, 9.96, 12.34, 14.70, 0.000, 0.000, 0.000, 15:20:20.570
84, 181.93, 11.46, 7.83, 9.78, 0.000, 0.000, 0.000, 15:20:20.570
85, -363.63, 4.27, 8.91, 10.36, 0.000, 0.000, 0.000, 15:20:20.571
86, -23.43, 5.40, 12.24, 12.18, 0.000, 0.000, 0.000, 15:20:20.571
87, 162.75, 8.44, 10.26, 12.12, 0.000, 0.000, 0.000, 15:20:20.593
88, -120.26, 8.51, 9.22, 14.16, 0.000, 0.000, 0.000, 15:20:20.593
89, -110.32, 2.60, 15.63, 14.72, 0.000, 0.000, 0.000, 15:20:20.593
90, 103.26, 6.30, 11.54, 12.89, 0.000, 0.000, 0.000, 15:20:20.593
91, -1.60, 12.78, 7.89, 7.11, 0.000, 0.000, 0.000, 15:20:20.594
92, -298.70, 8.96, 14.66, 13.29, 0.000, 0.000, 0.000, 15:20:20.594
93, 155.77, 12.36, 10.07, 11.13, 0.000, 0.000, 0.000, 15:20:20.615
94, 191.03, 2.16, 13.36, 10.09, 0.000, 0.000, 0.000, 15:20:20.615
95, -230.24, 11.09, 11.02, 13.76, 0.000, 0.000, 0.000, 15:20:20.616
96, 85.55, 5.12, 12.60, 15.34, 0.000, 0.000, 0.000, 15:20:20.616
97, 241.51, 8.76, 11.57, 7.92, 0.000, 0.000, 0.000, 15:20:20.638
98, -302.19, 10.20, 6.27, 5.35, 0.000, 0.000, 0.000, 15:20:20.638
99, -176.20, 11.22, 11.22, 15.45, 0.000, 0.000, 0.000, 15:20:20.638
100, 274.36, 6.86, 11.52, 10.91, 0.000, 0.000, 0.000, 15:20:20.638
101, -69.39, 9.27, 10.99, 10.27, 0.000, 0.000, 0.000, 15:20:20.660
102, -266.41, 14.31, 13.87, 10.47, 0.000, 0.000, 0.000, 15:20:20.661
103, -3.36, 3.47, 11.31, 10.56, 0.000, 0.000, 0.000, 15:20:20.661
104, 100.50, 8.66, 9.88, 13.74, 0.000, 0.000, 0.000, 15:20:20.661
105, -73.46, 11.79, 11.63, 13.70, 0.000, 0.000, 0.000, 15:20:20.683
106, 15.20, 7.49, 11.84, 11.87, 0.000, 0.000, 0.000, 15:20:20.683
107, 176.23, 4.19, 12.79, 11.03, 0.000, 0.000, 0.000, 15:20:20.683
108, -181.38, 11.06, 9.16, 11.09, 0.000, 0.000, 0.000, 15:20:20.684
109, -107.96, 8.93, 16.61, 17.05, 0.000, 0.000, 0.000, 15:20:20.684
110, 249.14, 4.84, 12.18, 10.90, 0.000, 0.000, 0.000, 15:20:20.684
111, -66.00, 14.98, 9.46, 9.54, 0.000, 0.000, 0.000, 15:20:20.705
112, -322.69, 1.93, 12.09, 15.89, 0.000, 0.000, 0.000, 15:20:20.705
113, 100.41, 9.29, 12.89, 15.05, 0.000, 0.000, 0.000, 15:20:20.706
114, 175.81, 11.92, 10.62, 10.74, 0.000, 0.000, 0.000, 15:20:20.706
115, -340.74, 12.38, 10.77, 14.96, 0.000, 0.000, 0.000, 15:20:20.728
116, -79.31, 4.52, 8.77, 13.53, 0.000, 0.000, 0.000, 15:20:20.728
117, 381.58, 9.05, 12.56, 11.67, 0.000, 0.000, 0.000, 15:20:20.728
118, -247.85, 13.53, 6.23, 8.41, 0.000, 0.000, 0.000, 15:20:20.728
119, -98.73, 6.20, 13.28, 13.85, 0.000, 0.000, 0.000, 15:20:20.750
120, 183.60, 9.28, 14.20, 10.07, 0.000, 0.000, 0.000, 15:20:20.750
121, 22.33, 9.66, 11.72, 7.79, 0.000, 0.000, 0.000, 15:20:20.751
122, -154.82, 8.90, 13.59, 12.54, 0.000, 0.000, 0.000, 15:20:20.751
123, 150.31, 6.53, 9.39, 10.97, 0.000, 0.000, 0.000, 15:20:20.773
124, 125.71, 11.27, 10.67, 13.23, 0.000, 0.000, 0.000, 15:20:20.773
125, -293.47, 8.30, 10.58, 12.63, 0.000, 0.000, 0.000, 15:20:20.773
126, -93.07, 4.18, 12.13, 12.51, 0.000, 0.000, 0.000, 15:20:20.773
127, 227.99, 6.63, 14.70, 12.01, 0.000, 0.000, 0.000, 15:20:20.774
128, -138.99, 11.26, 8.92, 9.06, 0.000, 0.000, 0.000, 15:20:20.774
129, -164.64, 9.09, 6.85, 15.16, 0.000, 0.000, 0.000, 15:20:20.795
130, 60.20, 2.79, 11.83, 11.06, 0.000, 0.000, 0.000, 15:20:20.795
131, -90.57, 10.64, 8.39, 7.73, 0.000, 0.000, 0.000, 15:20:20.796
132, -340.29, 7.37, 15.09, 14.28, 0.000, 0.000, 0.000, 15:20:20.796
133, 429.00, 9.11, 10.91, 10.90, 0.000, 0.000, 0.000, 15:20:20.818
134, 195.65, 6.33, 8.83, 12.04, 0.000, 0.000, 0.000, 15:20:20.818
135, -430.65, 7.08, 9.32, 14.23, 0.000, 0.000, 0.000, 15:20:20.818
136, -110.26, 6.85, 11.50, 11.39, 0.000, 0.000, 0.000, 15:20:20.819
137, 414.47, 10.78, 11.49, 8.73, 0.000, 0.000, 0.000, 15:20:20.840
138, -100.58, 16.38, 8.18, 7.89, 0.000, 0.000, 0.000, 15:20:20.840
139, -113.96, 1.30, 14.24, 15.79, 0.000, 0.000, 0.000, 15:20:20.841
140, 250.04, 9.34, 11.38, 15.09, 0.000, 0.000, 0.000, 15:20:20.841
141, -71.81, 8.50, 8.01, 12.80, 0.000, 0.000, 0.000, 15:20:20.863
142, -283.34, 7.04, 10.27, 12.22, 0.000, 0.000, 0.000, 15:20:20.863
143, 120.66, 4.56, 10.94, 14.18, 0.000, 0.000, 0.000, 15:20:20.863
144, 77.61, 11.09, 8.10, 8.18, 0.000, 0.000, 0.000, 15:20:20.864
145, -271.93, 13.05, 11.74, 16.17, 0.000, 0.000, 0.000, 15:20:20.864
146, -24.36, 6.71, 15.23, 15.89, 0.000, 0.000, 0.000, 15:20:20.865
147, 204.36, 9.66, 10.94, 9.26, 0.000, 0.000, 0.000, 15:20:20.885
148, -132.18, 10.65, 8.48, 7.90, 0.000, 0.000, 0.000, 15:20:20.886
149, -241.66, 7.17, 15.31, 15.84, 0.000, 0.000, 0.000, 15:20:20.886
150, 225.30, 7.39, 7.57, 10.23, 0.000, 0.000, 0.000, 15:20:20.886
151, 82.57, 14.94, 9.47, 7.17, 0.000, 0.000, 0.000, 15:20:20.908
152, -340.79, 4.91, 14.37, 12.32, 0.000, 0.000, 0.000, 15:20:20.909
153, 106.73, 2.71, 13.12, 16.01, 0.000, 0.000, 0.000, 15:20:20.909
154, 172.77, 11.47, 10.77, 9.82, 0.000, 0.000, 0.000, 15:20:20.909
155, -192.66, 5.06, 13.85, 12.14, 0.000, 0.000, 0.000, 15:20:20.930
156, 41.64, 13.26, 13.34, 8.72, 0.000, 0.000, 0.000, 15:20:20.931
157, 294.68, 3.76, 6.69, 11.41, 0.000, 0.000, 0.000, 15:20:20.931
158, -362.91, 8.59, 6.63, 11.61, 0.000, 0.000, 0.000, 15:20:20.931
159, -119.90, 5.11, 12.91, 17.36, 0.000, 0.000, 0.000, 15:20:20.953
160, 258.30, 9.17, 11.06, 10.64, 0.000, 0.000, 0.000, 15:20:20.953
161, -67.19, 9.76, 6.78, 12.05, 0.000, 0.000, 0.000, 15:20:20.953
162, -387.03, 5.38, 12.95, 12.17, 0.000, 0.000, 0.000, 15:20:20.953
163, -10.34, 5.41, 8.75, 11.45, 0.000, 0.000, 0.000, 15:20:20.954
164, 296.78, 8.55, 9.40, 13.21, 0.000, 0.000, 0.000, 15:20:20.954
165, -201.42, 12.91, 16.56, 12.82, 0.000, 0.000, 0.000, 15:20:20.975
166, -7.45, 4.84, 11.52, 9.73, 0.000, 0.000, 0.000, 15:20:20.975
167, 43.19, 9.20, 13.09, 13.63, 0.000, 0.000, 0.000, 15:20:20.976
168, -189.27, 13.62, 7.44, 6.04, 0.000, 0.000, 0.000, 15:20:20.976
169, 49.79, 4.21, 16.10, 14.38, 0.000, 0.000, 0.000, 15:20:20.998
170, 366.44, 5.17, 11.02, 13.22, 0.000, 0.000, 0.000, 15:20:20.998
171, -27.36, 11.82, 9.49, 11.28, 0.000, 0.000, 0.000, 15:20:20.998
172, -417.93, 6.72, 13.87, 11.41, 0.000, 0.000, 0.000, 15:20:20.998
173, 135.34, 9.44, 9.58, 11.71, 0.000, 0.000, 0.000, 15:20:21.020
174, 157.95, 14.35, 8.93, 12.87, 0.000, 0.000, 0.000, 15:20:21.020
175, -324.06, 4.58, 11.70, 15.33, 0.000, 0.000, 0.000, 15:20:21.021
176, 60.45, 6.26, 11.63, 13.47, 0.000, 0.000, 0.000, 15:20:21.021
177, 314.95, 8.82, 14.12, 9.81, 0.000, 0.000, 0.000, 15:20:21.043
178, -215.66, 10.08, 8.32, 12.14, 0.000, 0.000, 0.000, 15:20:21.043
179, -270.90, 2.85, 16.69, 10.24, 0.000, 0.000, 0.000, 15:20:21.043
180, 304.84, 9.86, 9.28, 10.81, 0.000, 0.000, 0.000, 15:20:21.043
181, 40.73, 12.76, 9.87, 8.16, 0.000, 0.000, 0.000, 15:20:21.044
182, -273.32, 5.55, 10.98, 13.77, 0.000, 0.000, 0.000, 15:20:21.044
183, 214.10, 10.42, 13.22, 12.12, 0.000, 0.000, 0.000, 15:20:21.066
184, 30.73, 7.44, 11.80, 12.42, 0.000, 0.000, 0.000, 15:20:21.066
185, -417.67, 3.66, 10.68, 12.53, 0.000, 0.000, 0.000, 15:20:21.066
186, 162.68, 6.68, 11.15, 18.72, 0.000, 0.000, 0.000, 15:20:21.066
187, 195.42, 10.93, 10.79, 11.18, 0.000, 0.000, 0.000, 15:20:21.088
188, -260.69, 8.57, 7.63, 6.86, 0.000, 0.000, 0.000, 15:20:21.088
189, -131.20, 6.38, 13.78, 14.76, 0.000, 0.000, 0.000, 15:20:21.088
190, 201.41, 9.23, 8.23, 8.87, 0.000, 0.000, 0.000, 15:20:21.088
191, -118.83, 12.52, 10.93, 7.29, 0.000, 0.000, 0.000, 15:20:21.110
192, -227.65, 13.16, 16.33, 14.80, 0.000, 0.000, 0.000, 15:20:21.110
193, 192.39, -1.44, 12.38, 19.95, 0.000, 0.000, 0.000, 15:20:21.111
194, 26.66, 11.76, 10.31, 10.62, 0.000, 0.000, 0.000, 15:20:21.111
195, -268.73, 12.55, 9.27, 11.41, 0.000, 0.000, 0.000, 15:20:21.133
196, 7.12, 5.55, 10.91, 13.79, 0.000, 0.000, 0.000, 15:20:21.133
197, 267.45, 7.59, 12.47, 15.27, 0.000, 0.000, 0.000, 15:20:21.133
198, -64.14, 13.06, 4.21, 11.08, 0.000, 0.000, 0.000, 15:20:21.133
199, -149.08, 6.86, 10.81, 13.11, 0.000, 0.000, 0.000, 15:20:21.134
200, 139.70, 9.02, 9.76, 10.96, 0.000, 0.000, 0.000, 15:20:21.134
0, 86.65, 15.15, 8.20, 9.63, 0.000, 0.000, 0.000, 15:20:21.155
1, -287.85, 2.87, 15.20, 11.68, 0.000, 0.000, 0.000, 15:20:21.156
2, 24.88, 5.08, 12.20, 12.19, 0.000, 0.000, 0.000, 15:20:21.156
3, 219.91, 11.77, 7.28, 7.67, 0.000, 0.000, 0.000, 15:20:21.178
4, -300.88, 9.43, 14.68, 12.37, 0.000, 0.000, 0.000, 15:20:21.178
5, -72.17, 5.51, 13.13, 14.68, 0.000, 0.000, 0.000, 15:20:21.178
6, 306.40, 10.03, 12.83, 12.09, 0.000, 0.000, 0.000, 15:20:21.178
7, -106.76, 5.49, 10.38, 9.51, 0.000, 0.000, 0.000, 15:20:21.179
8, -184.01, 1.92, 14.07, 14.05, 0.000, 0.000, 0.000, 15:20:21.179
9, 200.48, 10.76, 10.79, 11.99, 0.000, 0.000, 0.000, 15:20:21.200
10, 80.59, 9.48, 6.55, 8.58, 0.000, 0.000, 0.000, 15:20:21.200
11, -266.45, 10.04, 8.52, 14.72, 0.000, 0.000, 0.000, 15:20:21.201
12, 96.22, 6.03, 8.48, 8.16, 0.000, 0.000, 0.000, 15:20:21.201
13, -42.36, 8.58, 13.38, 14.97, 0.000, 0.000, 0.000, 15:20:21.223
14, -179.63, 10.74, 9.94, 11.40, 0.000, 0.000, 0.000, 15:20:21.223
15, 83.89, 7.75, 14.97, 14.22, 0.000, 0.000, 0.000, 15:20:21.223
16, 100.55, 6.39, 11.36, 12.84, 0.000, 0.000, 0.000, 15:20:21.223
17, -196.91, 10.01, 6.71, 6.57, 0.000, 0.000, 0.000, 15:20:21.245
18, -63.59, 11.82, 16.11, 11.56, 0.000, 0.000, 0.000, 15:20:21.245
19, 202.86, -0.18, 12.33, 12.80, 0.000, 0.000, 0.000, 15:20:21.246
20, 77.68, 11.18, 8.19, 12.41, 0.000, 0.000, 0.000, 15:20:21.246
21, -204.08, 7.53, 10.34, 14.49, 0.000, 0.000, 0.000, 15:20:21.268
22, 62.02, 8.01, 8.88, 12.29, 0.000, 0.000, 0.000, 15:20:21.268
23, 234.44, 9.60, 8.98, 14.19, 0.000, 0.000, 0.000, 15:20:21.268
24, -190.91, 12.24, 12.00, 11.74, 0.000, 0.000, 0.000, 15:20:21.268
25, -127.36, 10.49, 10.78, 12.61, 0.000, 0.000, 0.000, 15:20:21.269
26, 220.35, 6.22, 8.81, 10.18, 0.000, 0.000, 0.000, 15:20:21.269
27, -160.45, 16.76, 5.75, 9.54, 0.000, 0.000, 0.000, 15:20:21.290
28, -278.01, 2.71, 12.75, 13.56, 0.000, 0.000, 0.000, 15:20:21.291
29, 217.28, 7.35, 13.36, 12.47, 0.000, 0.000, 0.000, 15:20:21.291
30, 108.37, 13.09, 8.64, 10.74, 0.000, 0.000, 0.000, 15:20:21.291
31, -318.28, 7.71, 15.08, 13.08, 0.000, 0.000, 0.000, 15:20:21.313
32, 164.00, 8.33, 11.41, 10.98, 0.000, 0.000, 0.000, 15:20:21.313
33, 76.01, 10.75, 12.87, 13.80, 0.000, 0.000, 0.000, 15:20:21.313
34, -349.64, 10.09, 14.41, 13.36, 0.000, 0.000, 0.000, 15:20:21.313
35, 105.90, 1.74, 15.62, 10.13, 0.000, 0.000, 0.000, 15:20:21.335
36, 349.78, 11.14, 11.81, 9.36, 0.000, 0.000, 0.000, 15:20:21.335
37, -89.53, 3.47, 6.31, 12.97, 0.000, 0.000, 0.000, 15:20:21.336
38, -257.29, 5.42, 15.15, 13.37, 0.000, 0.000, 0.000, 15:20:21.336
39, 74.86, 8.28, 10.67, 13.23, 0.000, 0.000, 0.000, 15:20:21.358
40, -46.70, 9.19, 5.49, 7.17, 0.000, 0.000, 0.000, 15:20:21.358
41, -232.66, 6.48, 10.67, 13.21, 0.000, 0.000, 0.000, 15:20:21.358
42, 133.71, 9.05, 12.19, 10.30, 0.000, 0.000, 0.000, 15:20:21.359
43, 108.07, 10.68, 11.67, 11.83, 0.000, 0.000, 0.000, 15:20:21.359
44, -303.34, 5.31, 8.22, 10.67, 0.000, 0.000, 0.000, 15:20:21.359
45, -163.52, 10.03, 14.02, 15.87, 0.000, 0.000, 0.000, 15:20:21.380
46, 178.85, 3.24, 12.45, 11.10, 0.000, 0.000, 0.000, 15:20:21.380
47, 77.89, 11.06, 5.12, 13.28, 0.000, 0.000, 0.000, 15:20:21.381
48, -48.47, 7.89, 13.31, 12.50, 0.000, 0.000, 0.000, 15:20:21.381
49, 259.05, 9.63, 12.67, 11.99, 0.000, 0.000, 0.000, 15:20:21.403
50, -51.34, 7.94, 8.73, 7.51, 0.000, 0.000, 0.000, 15:20:21.403
51, -533.92, 5.62, 12.90, 12.41, 0.000, 0.000, 0.000, 15:20:21.403
52, 119.75, 7.74, 9.98, 13.41, 0.000, 0.000, 0.000, 15:20:21.403
53, 294.22, 7.04, 10.10, 10.72, 0.000, 0.000, 0.000, 15:20:21.425
54, -310.18, 13.09, 12.15, 8.53, 0.000, 0.000, 0.000, 15:20:21.426
55, -72.62, 0.97, 11.38, 12.69, 0.000, 0.000, 0.000, 15:20:21.426
56, 156.46, 10.94, 13.59, 9.07, 0.000, 0.000, 0.000, 15:20:21.426
57, 0.03, 10.25, 10.21, 11.84, 0.000, 0.000, 0.000, 15:20:21.448
58, -262.83, 5.15, 11.76, 17.09, 0.000, 0.000, 0.000, 15:20:21.448
59, 32.75, 5.80, 9.36, 11.03, 0.000, 0.000, 0.000, 15:20:21.448
60, 26.51, 12.72, 8.14, 11.56, 0.000, 0.000, 0.000, 15:20:21.449
61, -273.09, 6.61, 16.06, 14.38, 0.000, 0.000, 0.000, 15:20:21.449
62, 350.58, 9.38, 12.39, 12.93, 0.000, 0.000, 0.000, 15:20:21.449
63, 188.11, 11.13, 12.68, 10.03, 0.000, 0.000, 0.000, 15:20:21.470
64, -394.50, 9.79, 6.67, 10.55, 0.000, 0.000, 0.000, 15:20:21.470
65, -178.07, 8.54, 9.26, 11.70, 0.000, 0.000, 0.000, 15:20:21.471
66, 546.22, 10.49, 17.67, 14.07, 0.000, 0.000, 0.000, 15:20:21.471
67, -74.74, 11.95, 11.12, 11.34, 0.000, 0.000, 0.000, 15:20:21.493
68, -465.35, 4.38, 12.10, 17.57, 0.000, 0.000, 0.000, 15:20:21.493
69, 108.14, 11.53, 10.68, 14.02, 0.000, 0.000, 0.000, 15:20:21.493
70, 164.97, 7.43, 8.27, 7.58, 0.000, 0.000, 0.000, 15:20:21.494
71, -233.50, 7.84, 13.29, 14.15, 0.000, 0.000, 0.000, 15:20:21.515
72, 166.29, 10.15, 12.41, 12.50, 0.000, 0.000, 0.000, 15:20:21.516
73, 113.15, 1.56, 11.47, 13.94, 0.000, 0.000, 0.000, 15:20:21.516
74, -434.44, 9.39, 12.61, 9.59, 0.000, 0.000, 0.000, 15:20:21.516
75, -141.46, 7.02, 12.95, 15.42, 0.000, 0.000, 0.000, 15:20:21.538
76, 592.36, 10.34, 10.44, 10.76, 0.000, 0.000, 0.000, 15:20:21.538
77, -75.21, 8.27, 7.67, 8.23, 0.000, 0.000, 0.000, 15:20:21.539
78, -269.87, 8.04, 10.89, 15.14, 0.000, 0.000, 0.000, 15:20:21.539
79, -53.52, 8.83, 9.31, 13.89, 0.000, 0.000, 0.000, 15:20:21.539
80, 60.73, 14.62, 7.25, 9.90, 0.000, 0.000, 0.000, 15:20:21.539
81, -127.39, 9.20, 14.34, 17.41, 0.000, 0.000, 0.000, 15:20:21.560
82, 192.83, 2.64, 9.39, 11.72, 0.000, 0.000, 0.000, 15:20:21.560
83, 2.44, 6.32, 8.23, 9.81, 0.000, 0.000, 0.000, 15:20:21.561
84, -670.98, 11.09, 9.27, 6.44, 0.000, 0.000, 0.000, 15:20:21.561
85, 88.53, 6.29, 12.08, 16.51, 0.000, 0.000, 0.000, 15:20:21.583
86, 442.00, 7.31, 12.43, 12.27, 0.000, 0.000, 0.000, 15:20:21.583
87, 26.56, 12.20, 5.80, 8.61, 0.000, 0.000, 0.000, 15:20:21.583
88, -67.84, 3.87, 16.12, 15.80, 0.000, 0.000, 0.000, 15:20:21.583
89, 227.91, 5.87, 12.39, 9.00, 0.000, 0.000, 0.000, 15:20:21.605
90, -90.00, 18.65, 6.74, 11.11, 0.000, 0.000, 0.000, 15:20:21.606
91, -483.47, 4.75, 17.58, 14.23, 0.000, 0.000, 0.000, 15:20:21.606
92, 213.17, 7.17, 9.49, 12.63, 0.000, 0.000, 0.000, 15:20:21.606
93, 206.53, 10.20, 9.61, 11.00, 0.000, 0.000, 0.000, 15:20:21.628
94, -282.12, 8.11, 13.46, 9.02, 0.000, 0.000, 0.000, 15:20:21.628
95, -154.14, 1.73, 11.30, 14.81, 0.000, 0.000, 0.000, 15:20:21.628
96, -60.48, 10.53, 13.69, 13.63, 0.000, 0.000, 0.000, 15:20:21.628
97, -36.74, 12.29, 11.11, 11.08, 0.000, 0.000, 0.000, 15:20:21.629
98, -28.91, 8.06, 11.63, 16.81, 0.000, 0.000, 0.000, 15:20:21.629
99, 259.52, 13.41, 9.46, 12.17, 0.000, 0.000, 0.000, 15:20:21.650
100, 5.88, 8.40, 6.61, 10.00, 0.000, 0.000, 0.000, 15:20:21.650
101, -244.81, 6.83, 14.02, 11.93, 0.000, 0.000, 0.000, 15:20:21.651
102, 17.39, 11.37, 12.99, 7.77, 0.000, 0.000, 0.000, 15:20:21.651
103, 268.02, 11.07, 7.04, 10.80, 0.000, 0.000, 0.000, 15:20:21.673
104, -145.27, 5.83, 11.89, 14.93, 0.000, 0.000, 0.000, 15:20:21.673
105, 15.53, 6.08, 10.85, 12.05, 0.000, 0.000, 0.000, 15:20:21.674
106, -90.77, 4.88, 13.24, 11.72, 0.000, 0.000, 0.000, 15:20:21.674
107, -0.79, 14.13, 5.42, 6.63, 0.000, 0.000, 0.000, 15:20:21.695
108, -119.09, 12.32, 15.34, 13.21, 0.000, 0.000, 0.000, 15:20:21.695
109, 164.33, 1.49, 13.83, 10.41, 0.000, 0.000, 0.000, 15:20:21.696
110, 4.30, 12.70, 7.16, 9.68, 0.000, 0.000, 0.000, 15:20:21.696
111, -415.71, 5.04, 14.19, 13.27, 0.000, 0.000, 0.000, 15:20:21.718
112, 80.38, 7.93, 15.54, 10.71, 0.000, 0.000, 0.000, 15:20:21.718
113, 353.36, 5.05, 8.01, 11.21, 0.000, 0.000, 0.000, 15:20:21.718
114, -264.44, 12.22, 8.52, 13.10, 0.000, 0.000, 0.000, 15:20:21.718
115, -144.31, 6.59, 14.01, 18.33, 0.000, 0.000, 0.000, 15:20:21.719
116, 273.85, 10.31, 11.47, 11.31, 0.000, 0.000, 0.000, 15:20:21.719
117, -233.36, 12.92, 11.18, 10.92, 0.000, 0.000, 0.000, 15:20:21.740
118, -58.69, 4.59, 14.08, 12.90, 0.000, 0.000, 0.000, 15:20:21.741
119, 231.23, 7.49, 9.90, 12.72, 0.000, 0.000, 0.000, 15:20:21.741
120, 71.34, 10.94, 7.93, 13.66, 0.000, 0.000, 0.000, 15:20:21.741
121, -359.62, 8.22, 12.16, 10.50, 0.000, 0.000, 0.000, 15:20:21.763
122, 34.52, 3.84, 8.56, 13.81, 0.000, 0.000, 0.000, 15:20:21.763
123, 221.56, 10.93, 13.78, 12.42, 0.000, 0.000, 0.000, 15:20:21.763
124, -278.61, 8.71, 8.84, 8.01, 0.000, 0.000, 0.000, 15:20:21.763
125, -157.92, 6.05, 10.95, 15.46, 0.000, 0.000, 0.000, 15:20:21.785
126, 341.52, 12.18, 8.77, 13.32, 0.000, 0.000, 0.000, 15:20:21.785
127, -107.28, 3.22, 7.78, 9.52, 0.000, 0.000, 0.000, 15:20:21.786
128, -302.47, 4.93, 14.54, 12.54, 0.000, 0.000, 0.000, 15:20:21.786
129, 182.60, 8.42, 12.77, 9.09, 0.000, 0.000, 0.000, 15:20:21.808
130, 141.85, 12.76, 8.88, 8.50, 0.000, 0.000, 0.000, 15:20:21.808
131, -155.87, 5.03, 13.01, 15.83, 0.000, 0.000, 0.000, 15:20:21.808
132, 62.36, 9.06, 11.21, 5.31, 0.000, 0.000, 0.000, 15:20:21.808
133, 188.57, 9.02, 8.15, 9.68, 0.000, 0.000, 0.000, 15:20:21.809
134, -352.74, 8.22, 6.60, 9.63, 0.000, 0.000, 0.000, 15:20:21.809
135, -51.45, 7.47, 13.40, 14.32, 0.000, 0.000, 0.000, 15:20:21.830
136, 231.63, 6.58, 12.63, 11.41, 0.000, 0.000, 0.000, 15:20:21.831
137, -127.09, 10.39, 7.96, 14.12, 0.000, 0.000, 0.000, 15:20:21.831
138, -379.56, 1.31, 15.12, 11.17, 0.000, 0.000, 0.000, 15:20:21.831
139, -40.43, 7.80, 9.68, 9.23, 0.000, 0.000, 0.000, 15:20:21.853
140, 197.73, 8.01, 9.57, 14.99, 0.000, 0.000, 0.000, 15:20:21.853
141, 55.35, 10.30, 16.38, 13.10, 0.000, 0.000, 0.000, 15:20:21.853
142, 196.53, 5.66, 13.76, 13.18, 0.000, 0.000, 0.000, 15:20:21.853
143, 165.14, 8.63, 11.14, 10.72, 0.000, 0.000, 0.000, 15:20:21.875
144, -305.18, 14.25, 12.71, 7.80, 0.000, 0.000, 0.000, 15:20:21.875
145, -156.45, 0.93, 14.14, 16.28, 0.000, 0.000, 0.000, 15:20:21.876
146, 236.37, 8.98, 12.35, 9.01, 0.000, 0.000, 0.000, 15:20:21.876
147, -70.04, 11.76, 6.51, 10.48, 0.000, 0.000, 0.000, 15:20:21.898
148, -137.70, 13.19, 13.64, 15.83, 0.000, 0.000, 0.000, 15:20:21.898
149, 260.13, 8.50, 8.53, 10.25, 0.000, 0.000, 0.000, 15:20:21.898
150, -61.18, 14.65, 5.66, 7.88, 0.000, 0.000, 0.000, 15:20:21.899
151, -612.01, 8.63, 14.54, 16.71, 0.000, 0.000, 0.000, 15:20:21.899
152, -65.74, 8.40, 12.54, 7.39, 0.000, 0.000, 0.000, 15:20:21.899
153, 541.66, 13.62, 9.91, 10.40, 0.000, 0.000, 0.000, 15:20:21.920
154, -264.93, 6.94, 8.48, 12.96, 0.000, 0.000, 0.000, 15:20:21.921
155, -13.27, 4.89, 13.87, 15.82, 0.000, 0.000, 0.000, 15:20:21.921
156, 218.30, 6.49, 12.51, 14.69, 0.000, 0.000, 0.000, 15:20:21.921
157, -124.83, 9.99, 8.22, 9.53, 0.000, 0.000, 0.000, 15:20:21.943
158, -180.28, 4.54, 15.23, 10.14, 0.000, 0.000, 0.000, 15:20:21.943
159, 348.52, 11.02, 11.68, 14.05, 0.000, 0.000, 0.000, 15:20:21.943
160, 48.82, 5.73, 3.69, 12.58, 0.000, 0.000, 0.000, 15:20:21.943
161, -355.61, 4.37, 10.55, 15.06, 0.000, 0.000, 0.000, 15:20:21.965
162, 79.24, 15.03, 13.48, 11.88, 0.000, 0.000, 0.000, 15:20:21.966
163, -34.74, 6.30, 12.50, 10.14, 0.000, 0.000, 0.000, 15:20:21.966
164, -336.21, 9.98, 10.60, 12.02, 0.000, 0.000, 0.000, 15:20:21.966
165, -44.74, 5.87, 11.76, 12.63, 0.000, 0.000, 0.000, 15:20:21.988
166, 240.96, 6.89, 9.49, 10.41, 0.000, 0.000, 0.000, 15:20:21.989
167, -23.34, 8.16, 6.92, 8.09, 0.000, 0.000, 0.000, 15:20:21.989
168, -141.78, 4.82, 15.89, 14.05, 0.000, 0.000, 0.000, 15:20:21.989
169, 261.14, 9.65, 15.58, 12.69, 0.000, 0.000, 0.000, 15:20:21.989
170, -217.48, 9.94, 9.44, 13.41, 0.000, 0.000, 0.000, 15:20:21.990
171, -216.91, 9.80, 12.08, 12.37, 0.000, 0.000, 0.000, 15:20:22.010
172, 239.33, 7.02, 12.16, 14.53, 0.000, 0.000, 0.000, 15:20:22.011
173, 229.19, 8.49, 9.19, 9.55, 0.000, 0.000, 0.000, 15:20:22.011
174, -192.47, 10.05, 11.16, 14.49, 0.000, 0.000, 0.000, 15:20:22.011
175, -46.24, 6.48, 10.21, 10.93, 0.000, 0.000, 0.000, 15:20:22.033
176, 190.46, 3.89, 11.74, 14.27, 0.000, 0.000, 0.000, 15:20:22.033
177, -225.73, 7.52, 9.71, 11.39, 0.000, 0.000, 0.000, 15:20:22.033
178, -211.78, 3.66, 14.81, 13.14, 0.000, 0.000, 0.000, 15:20:22.033
179, 85.62, 9.61, 12.39, 11.12, 0.000, 0.000, 0.000, 15:20:22.056
180, 248.94, 17.11, 6.54, 11.35, 0.000, 0.000, 0.000, 15:20:22.056
181, -251.79, 1.99, 12.12, 12.21, 0.000, 0.000, 0.000, 15:20:22.056
182, 78.60, 8.26, 11.77, 12.55, 0.000, 0.000, 0.000, 15:20:22.056
183, 44.85, 9.50, 10.09, 15.55, 0.000, 0.000, 0.000, 15:20:22.078
184, -352.19, 14.41, 7.46, 12.59, 0.000, 0.000, 0.000, 15:20:22.078
185, 139.48, 5.74, 14.30, 15.29, 0.000, 0.000, 0.000, 15:20:22.078
186, 167.12, 10.09, 14.33, 10.86, 0.000, 0.000, 0.000, 15:20:22.078
187, -156.70, 14.30, 6.49, 7.89, 0.000, 0.000, 0.000, 15:20:22.079
188, -163.93, 6.42, 11.45, 16.70, 0.000, 0.000, 0.000, 15:20:22.079
189, 223.83, 8.74, 8.35, 13.93, 0.000, 0.000, 0.000, 15:20:22.100
190, -45.10, 5.39, 11.33, 9.96, 0.000, 0.000, 0.000, 15:20:22.100
191, -123.57, 8.28, 14.66, 11.20, 0.000, 0.000, 0.000, 15:20:22.101
192, 120.54, 10.77, 11.41, 11.51, 0.000, 0.000, 0.000, 15:20:22.101
193, 37.48, 9.66, 9.85, 9.35, 0.000, 0.000, 0.000, 15:20:22.123
194, -387.03, 9.67, 13.50, 12.22, 0.000, 0.000, 0.000, 15:20:22.123
195, -221.23, 5.85, 10.87, 14.52, 0.000, 0.000, 0.000, 15:20:22.123
196, 449.05, 6.12, 15.93, 8.05, 0.000, 0.000, 0.000, 15:20:22.124
197, -118.88, 14.05, 5.75, 6.61, 0.000, 0.000, 0.000, 15:20:22.145
198, -106.14, 13.82, 13.94, 14.93, 0.000, 0.000, 0.000, 15:20:22.146
199, 215.54, 3.54, 12.11, 15.41, 0.000, 0.000, 0.000, 15:20:22.146
200, -120.88, 14.90, 5.80, 9.19, 0.000, 0.000, 0.000, 15:20:22.146
0, -384.07, 10.37, 14.60, 12.46, 0.000, 0.000, 0.000, 15:20:22.147
1, 227.58, 9.30, 12.21, 9.90, 0.000, 0.000, 0.000, 15:20:22.168
2, 394.87, 9.46, 9.93, 12.22, 0.000, 0.000, 0.000, 15:20:22.168
3, -119.90, 6.98, 11.83, 11.20, 0.000, 0.000, 0.000, 15:20:22.168
4, -90.05, 4.27, 13.19, 18.55, 0.000, 0.000, 0.000, 15:20:22.168
5, 163.44, 6.54, 11.39, 12.24, 0.000, 0.000, 0.000, 15:20:22.190
6, -286.07, 15.37, 10.63, 8.34, 0.000, 0.000, 0.000, 15:20:22.190
7, -405.58, 0.45, 12.95, 10.22, 0.000, 0.000, 0.000, 15:20:22.191
8, 476.31, 7.52, 11.45, 12.49, 0.000, 0.000, 0.000, 15:20:22.191
9, 34.11, 7.33, 5.89, 9.43, 0.000, 0.000, 0.000, 15:20:22.219
10, -408.15, 4.73, 12.86, 11.45, 0.000, 0.000, 0.000, 15:20:22.219
11, 33.75, 5.60, 10.11, 9.34, 0.000, 0.000, 0.000, 15:20:22.219
12, 221.03, 9.59, 12.88, 13.32, 0.000, 0.000, 0.000, 15:20:22.219
13, -223.42, 8.29, 10.17, 11.93, 0.000, 0.000, 0.000, 15:20:22.219
14, 73.32, 8.03, 13.59, 15.57, 0.000, 0.000, 0.000, 15:20:22.220
15, 279.65, 8.00, 11.44, 13.98, 0.000, 0.000, 0.000, 15:20:22.235
16, -136.56, 8.41, 6.80, 10.39, 0.000, 0.000, 0.000, 15:20:22.236
17, -228.08, 3.84, 15.77, 14.52, 0.000, 0.000, 0.000, 15:20:22.236
18, 279.61, 5.37, 9.58, 14.16, 0.000, 0.000, 0.000, 15:20:22.236
19, -93.04, 13.33, 6.75, 10.43, 0.000, 0.000, 0.000, 15:20:22.259
20, -370.76, 4.18, 11.65, 15.46, 0.000, 0.000, 0.000, 15:20:22.260
21, 222.44, 7.97, 10.58, 16.81, 0.000, 0.000, 0.000, 15:20:22.260
22, 290.54, 8.43, 11.53, 14.87, 0.000, 0.000, 0.000, 15:20:22.260
23, -615.23, 8.28, 13.23, 9.72, 0.000, 0.000, 0.000, 15:20:22.280
24, -67.94, 11.29, 11.34, 11.06, 0.000, 0.000, 0.000, 15:20:22.281
25, 308.79, 4.40, 10.64, 8.27, 0.000, 0.000, 0.000, 15:20:22.281
26, 13.90, 15.73, 6.34, 10.00, 0.000, 0.000, 0.000, 15:20:22.281
27, 99.98, 6.19, 10.91, 11.33, 0.000, 0.000, 0.000, 15:20:22.303
28, 306.24, 7.97, 12.12, 10.06, 0.000, 0.000, 0.000, 15:20:22.303
29, -106.18, 8.88, 9.83, 6.96, 0.000, 0.000, 0.000, 15:20:22.304
30, -487.72, 8.45, 14.98, 13.83, 0.000, 0.000, 0.000, 15:20:22.305
31, 227.89, 8.63, 12.22, 12.50, 0.000, 0.000, 0.000, 15:20:22.305
32, 300.76, 11.90, 14.43, 8.62, 0.000, 0.000, 0.000, 15:20:22.305
33, -399.77, 12.50, 10.22, 8.47, 0.000, 0.000, 0.000, 15:20:22.325
34, -205.58, 3.92, 14.65, 14.56, 0.000, 0.000, 0.000, 15:20:22.326
35, 353.33, 7.58, 10.83, 14.96, 0.000, 0.000, 0.000, 15:20:22.326
36, -299.03, 9.41, 6.09, 8.02, 0.000, 0.000, 0.000, 15:20:22.327
37, -154.77, 3.24, 11.81, 17.13, 0.000, 0.000, 0.000, 15:20:22.348
38, 264.10, 7.14, 13.89, 15.17, 0.000, 0.000, 0.000, 15:20:22.348
39, 49.77, 9.95, 9.07, 13.88, 0.000, 0.000, 0.000, 15:20:22.348
40, -399.54, 10.34, 17.52, 14.25, 0.000, 0.000, 0.000, 15:20:22.348
41, 46.25, 8.21, 13.34, 12.72, 0.000, 0.000, 0.000, 15:20:22.370
42, 151.00, 12.24, 11.85, 12.12, 0.000, 0.000, 0.000, 15:20:22.371
43, -68.82, 5.23, 9.36, 8.92, 0.000, 0.000, 0.000, 15:20:22.371
44, 95.33, 7.06, 12.88, 12.13, 0.000, 0.000, 0.000, 15:20:22.371
45, 296.09, 9.09, 10.18, 12.70, 0.000, 0.000, 0.000, 15:20:22.393
46, -232.79, 11.08, 5.68, 7.81, 0.000, 0.000, 0.000, 15:20:22.393
47, -353.26, 2.04, 12.44, 13.85, 0.000, 0.000, 0.000, 15:20:22.393
48, 3.40, 5.86, 12.50, 13.09, 0.000, 0.000, 0.000, 15:20:22.393
49, 165.86, 8.92, 10.98, 12.36, 0.000, 0.000, 0.000, 15:20:22.394
50, -226.33, 8.84, 12.88, 14.33, 0.000, 0.000, 0.000, 15:20:22.394
51, 60.61, 10.65, 10.68, 14.58, 0.000, 0.000, 0.000, 15:20:22.415
52, -93.59, 9.50, 11.25, 10.97, 0.000, 0.000, 0.000, 15:20:22.416
53, -133.44, 5.87, 8.98, 12.77, 0.000, 0.000, 0.000, 15:20:22.416
54, 44.21, 9.06, 14.79, 14.25, 0.000, 0.000, 0.000, 15:20:22.416
55, 283.11, 11.12, 10.47, 11.93, 0.000, 0.000, 0.000, 15:20:22.438
56, -201.46, 8.28, 10.31, 13.46, 0.000, 0.000, 0.000, 15:20:22.438
57, 20.58, 4.56, 14.37, 15.15, 0.000, 0.000, 0.000, 15:20:22.438
58, 106.47, 11.61, 12.07, 16.26, 0.000, 0.000, 0.000, 15:20:22.439
59, -45.47, 12.10, 7.79, 9.43, 0.000, 0.000, 0.000, 15:20:22.460
60, -314.83, 11.98, 16.54, 15.49, 0.000, 0.000, 0.000, 15:20:22.460
61, 106.88, 1.93, 12.95, 11.86, 0.000, 0.000, 0.000, 15:20:22.461
62, 227.73, 9.11, 10.93, 11.55, 0.000, 0.000, 0.000, 15:20:22.461
63, -276.27, 11.29, 7.05, 11.98, 0.000, 0.000, 0.000, 15:20:22.483
64, -163.37, 4.35, 9.86, 9.33, 0.000, 0.000, 0.000, 15:20:22.483
65, 243.27, 7.09, 12.96, 9.91, 0.000, 0.000, 0.000, 15:20:22.483
66, -192.53, 10.21, 9.94, 6.52, 0.000, 0.000, 0.000, 15:20:22.483
67, -130.66, 1.92, 13.35, 9.42, 0.000, 0.000, 0.000, 15:20:22.484
68, 313.74, 6.79, 8.93, 12.71, 0.000, 0.000, 0.000, 15:20:22.484
69, 26.50, 10.48, 11.24, 9.68, 0.000, 0.000, 0.000, 15:20:22.505
70, -439.05, 3.43, 10.40, 14.17, 0.000, 0.000, 0.000, 15:20:22.506
71, 69.54, 9.40, 14.39, 11.50, 0.000, 0.000, 0.000, 15:20:22.506
72, 270.27, 10.25, 11.14, 14.98, 0.000, 0.000, 0.000, 15:20:22.506
73, -182.74, 12.60, 10.44, 7.66, 0.000, 0.000, 0.000, 15:20:22.528
74, -17.48, 5.13, 10.77, 16.77, 0.000, 0.000, 0.000, 15:20:22.528
75, 195.52, 12.58, 9.34, 11.17, 0.000, 0.000, 0.000, 15:20:22.528
76, -99.00, 10.18, 8.21, 5.49, 0.000, 0.000, 0.000, 15:20:22.528
77, -247.82, 5.58, 13.24, 16.51, 0.000, 0.000, 0.000, 15:20:22.550
78, 42.76, 14.05, 9.70, 6.60, 0.000, 0.000, 0.000, 15:20:22.550
79, 114.31, 4.51, 9.46, 7.42, 0.000, 0.000, 0.000, 15:20:22.551
80, -414.35, 6.09, 13.00, 13.88, 0.000, 0.000, 0.000, 15:20:22.551
81, 258.98, 5.35, 8.48, 15.30, 0.000, 0.000, 0.000, 15:20:22.573
82, 279.41, 10.47, 8.17, 9.21, 0.000, 0.000, 0.000, 15:20:22.573
83, -327.76, 6.95, 10.75, 14.41, 0.000, 0.000, 0.000, 15:20:22.573
84, -62.13, 6.94, 12.56, 15.20, 0.000, 0.000, 0.000, 15:20:22.573
85, 293.13, 8.29, 10.95, 11.96, 0.000, 0.000, 0.000, 15:20:22.574
86, -319.61, 10.37, 9.32, 9.17, 0.000, 0.000, 0.000, 15:20:22.574
87, -191.53, 9.76, 11.55, 14.13, 0.000, 0.000, 0.000, 15:20:22.595
88, 258.22, 6.22, 11.75, 6.25, 0.000, 0.000, 0.000, 15:20:22.595
89, 108.85, 9.91, 10.62, 12.30, 0.000, 0.000, 0.000, 15:20:22.596
90, -411.36, 5.64, 13.68, 11.68, 0.000, 0.000, 0.000, 15:20:22.596
91, 223.81, 9.94, 10.97, 11.86, 0.000, 0.000, 0.000, 15:20:22.618
92, 252.69, 7.69, 10.03, 11.84, 0.000, 0.000, 0.000, 15:20:22.618
93, -331.55, 11.41, 10.65, 9.34, 0.000, 0.000, 0.000, 15:20:22.618
94, -148.09, 6.93, 12.09, 14.88, 0.000, 0.000, 0.000, 15:20:22.618
95, 191.64, 7.80, 11.59, 13.24, 0.000, 0.000, 0.000, 15:20:22.640
96, 15.80, 14.60, 6.96, 8.24, 0.000, 0.000, 0.000, 15:20:22.640
97, -156.55, -0.99, 14.81, 14.26, 0.000, 0.000, 0.000, 15:20:22.641
98, 107.45, 11.96, 11.65, 10.48, 0.000, 0.000, 0.000, 15:20:22.641
99, -93.11, 17.10, 7.87, 8.38, 0.000, 0.000, 0.000, 15:20:22.663
100, -197.27, 10.28, 10.77, 14.79, 0.000, 0.000, 0.000, 15:20:22.663
101, 91.26, 6.03, 10.43, 11.43, 0.000, 0.000, 0.000, 15:20:22.664
102, 219.45, 10.75, 9.25, 11.00, 0.000, 0.000, 0.000, 15:20:22.664
103, -225.39, 9.60, 7.16, 10.49, 0.000, 0.000, 0.000, 15:20:22.664
104, -113.74, 4.11, 16.63, 13.99, 0.000, 0.000, 0.000, 15:20:22.664
105, 137.87, 10.60, 10.03, 8.56, 0.000, 0.000, 0.000, 15:20:22.685
106, -249.10, 10.08, 5.94, 5.42, 0.000, 0.000, 0.000, 15:20:22.686
107, -49.48, 6.01, 13.50, 10.52, 0.000, 0.000, 0.000, 15:20:22.686
108, 364.01, 7.32, 10.36, 13.97, 0.000, 0.000, 0.000, 15:20:22.686
109, 124.45, 10.55, 5.56, 7.22, 0.000, 0.000, 0.000, 15:20:22.708
110, -403.53, 2.97, 10.62, 12.75, 0.000, 0.000, 0.000, 15:20:22.708
111, 10.05, 9.62, 9.07, 14.68, 0.000, 0.000, 0.000, 15:20:22.708
112, 183.55, 8.95, 12.94, 8.79, 0.000, 0.000, 0.000, 15:20:22.708
113, -222.25, 7.74, 9.15, 11.09, 0.000, 0.000, 0.000, 15:20:22.730
114, -53.88, 7.12, 12.80, 14.56, 0.000, 0.000, 0.000, 15:20:22.730
115, 218.98, 1.52, 9.91, 17.89, 0.000, 0.000, 0.000, 15:20:22.731
116, -140.34, 8.60, 11.43, 9.21, 0.000, 0.000, 0.000, 15:20:22.731
117, -130.13, 8.70, 12.46, 15.03, 0.000, 0.000, 0.000, 15:20:22.753
118, 138.21, 5.52, 11.24, 12.01, 0.000, 0.000, 0.000, 15:20:22.753
119, -69.96, 9.63, 10.09, 10.25, 0.000, 0.000, 0.000, 15:20:22.753
120, -383.37, 6.80, 16.37, 16.98, 0.000, 0.000, 0.000, 15:20:22.754
121, 331.71, 6.27, 12.73, 17.34, 0.000, 0.000, 0.000, 15:20:22.754
122, 231.85, 10.01, 10.77, 7.80, 0.000, 0.000, 0.000, 15:20:22.754
123, -249.57, 12.97, 8.80, 12.97, 0.000, 0.000, 0.000, 15:20:22.775
124, -146.81, 4.30, 11.21, 12.11, 0.000, 0.000, 0.000, 15:20:22.775
125, 159.17, 8.96, 12.30, 9.53, 0.000, 0.000, 0.000, 15:20:22.776
126, -27.31, 14.99, 8.57, 9.75, 0.000, 0.000, 0.000, 15:20:22.776
127, -167.16, 8.43, 14.88, 13.95, 0.000, 0.000, 0.000, 15:20:22.798
128, 286.93, 8.92, 11.85, 17.82, 0.000, 0.000, 0.000, 15:20:22.798
129, -0.96, 10.17, 6.96, 7.75, 0.000, 0.000, 0.000, 15:20:22.798
130, -491.38, 5.09, 14.78, 10.56, 0.000, 0.000, 0.000, 15:20:22.798
131, -21.44, 6.02, 7.74, 13.08, 0.000, 0.000, 0.000, 15:20:22.820
132, 224.79, 16.87, 8.10, 11.24, 0.000, 0.000, 0.000, 15:20:22.821
133, -235.36, 6.27, 14.12, 12.90, 0.000, 0.000, 0.000, 15:20:22.843
134, 67.28, 6.64, 13.62, 13.39, 0.000, 0.000, 0.000, 15:20:22.843
135, 115.82, 6.11, 12.75, 14.94, 0.000, 0.000, 0.000, 15:20:22.843
136, -169.77, 10.46, 6.74, 12.26, 0.000, 0.000, 0.000, 15:20:22.843
137, 166.23, 6.51, 11.42, 13.04, 0.000, 0.000, 0.000, 15:20:22.844
138, 304.64, 6.37, 12.13, 12.71, 0.000, 0.000, 0.000, 15:20:22.844
139, 34.59, 13.11, 6.59, 9.63, 0.000, 0.000, 0.000, 15:20:22.845
140, -390.86, 4.95, 12.18, 12.68, 0.000, 0.000, 0.000, 15:20:22.845
141, 17.05, 8.79, 12.06, 10.22, 0.000, 0.000, 0.000, 15:20:22.865
142, 36.42, 11.08, 10.14, 13.49, 0.000, 0.000, 0.000, 15:20:22.865
143, -180.69, 12.98, 12.05, 13.83, 0.000, 0.000, 0.000, 15:20:22.866
144, -223.78, 4.60, 13.03, 10.61, 0.000, 0.000, 0.000, 15:20:22.866
145, 224.71, 7.10, 12.59, 11.00, 0.000, 0.000, 0.000, 15:20:22.888
146, -109.49, 8.47, 9.32, 11.41, 0.000, 0.000, 0.000, 15:20:22.888
147, -303.61, 3.80, 13.59, 12.82, 0.000, 0.000, 0.000, 15:20:22.888
148, 396.86, 8.05, 10.58, 11.71, 0.000, 0.000, 0.000, 15:20:22.889
149, 77.54, 10.71, 12.60, 9.79, 0.000, 0.000, 0.000, 15:20:22.910
150, -239.92, 12.61, 11.85, 11.69, 0.000, 0.000, 0.000, 15:20:22.911
151, 132.98, 3.95, 14.05, 13.78, 0.000, 0.000, 0.000, 15:20:22.911
152, 241.38, 12.58, 8.43, 7.47, 0.000, 0.000, 0.000, 15:20:22.911
153, -353.87, 12.32, 8.88, 10.00, 0.000, 0.000, 0.000, 15:20:22.933
154, -68.10, 4.13, 12.17, 9.84, 0.000, 0.000, 0.000, 15:20:22.933
155, 290.46, 5.83, 7.60, 13.13, 0.000, 0.000, 0.000, 15:20:22.933
156, -133.46, 14.69, 8.91, 12.44, 0.000, 0.000, 0.000, 15:20:22.933
157, -288.57, 7.64, 13.22, 18.44, 0.000, 0.000, 0.000, 15:20:22.934
158, 168.44, 8.54, 9.95, 15.21, 0.000, 0.000, 0.000, 15:20:22.934
159, -31.53, 15.49, 10.74, 7.81, 0.000, 0.000, 0.000, 15:20:22.955
160, -325.80, 6.56, 11.16, 13.90, 0.000, 0.000, 0.000, 15:20:22.955
161, 277.31, 7.83, 14.41, 7.74, 0.000, 0.000, 0.000, 15:20:22.956
162, 51.22, 5.32, 14.90, 13.37, 0.000, 0.000, 0.000, 15:20:22.956
163, -296.24, 11.13, 9.73, 9.93, 0.000, 0.000, 0.000, 15:20:22.978
164, 132.49, 7.95, 14.70, 11.79, 0.000, 0.000, 0.000, 15:20:22.978
165, 205.58, 6.13, 13.06, 11.30, 0.000, 0.000, 0.000, 15:20:22.978
166, -251.86, 8.15, 8.94, 11.38, 0.000, 0.000, 0.000, 15:20:22.979
167, -107.57, 2.70, 12.66, 11.37, 0.000, 0.000, 0.000, 15:20:23.000
168, 359.39, 11.77, 7.65, 10.99, 0.000, 0.000, 0.000, 15:20:23.001
169, 105.20, 3.05, 13.53, 10.99, 0.000, 0.000, 0.000, 15:20:23.001
170, -359.81, 10.80, 14.56, 15.61, 0.000, 0.000, 0.000, 15:20:23.001
171, 20.79, 11.03, 15.71, 13.79, 0.000, 0.000, 0.000, 15:20:23.023
172, 118.79, 8.56, 8.47, 10.46, 0.000, 0.000, 0.000, 15:20:23.023
173, -374.98, 9.75, 7.82, 9.26, 0.000, 0.000, 0.000, 15:20:23.023
174, -131.71, 6.94, 8.48, 10.31, 0.000, 0.000, 0.000, 15:20:23.023
175, 275.55, 9.88, 9.78, 8.67, 0.000, 0.000, 0.000, 15:20:23.024
176, -81.97, 10.24, 9.50, 8.62, 0.000, 0.000, 0.000, 15:20:23.024
177, -229.92, 10.28, 12.38, 14.53, 0.000, 0.000, 0.000, 15:20:23.045
178, 278.14, 8.12, 10.50, 13.85, 0.000, 0.000, 0.000, 15:20:23.045
179, 99.18, 7.82, 11.12, 10.36, 0.000, 0.000, 0.000, 15:20:23.046
180, -321.11, 5.60, 11.48, 15.11, 0.000, 0.000, 0.000, 15:20:23.046
181, 121.86, 7.88, 12.98, 14.75, 0.000, 0.000, 0.000, 15:20:23.068
182, 26.29, 9.68, 7.74, 11.46, 0.000, 0.000, 0.000, 15:20:23.068
183, -106.11, 9.17, 7.83, 9.88, 0.000, 0.000, 0.000, 15:20:23.068
184, 44.15, 6.83, 14.60, 11.30, 0.000, 0.000, 0.000, 15:20:23.069
185, 243.59, 6.13, 12.74, 12.53, 0.000, 0.000, 0.000, 15:20:23.090
186, -182.66, 14.30, 7.50, 12.16, 0.000, 0.000, 0.000, 15:20:23.090
187, -178.18, 1.05, 15.28, 13.30, 0.000, 0.000, 0.000, 15:20:23.091
188, 222.35, 9.22, 9.87, 15.19, 0.000, 0.000, 0.000, 15:20:23.091
189, 48.25, 12.62, 5.11, 9.83, 0.000, 0.000, 0.000, 15:20:23.113
190, -333.53, 7.86, 14.18, 14.12, 0.000, 0.000, 0.000, 15:20:23.113
191, 88.53, 1.90, 11.66, 13.46, 0.000, 0.000, 0.000, 15:20:23.113
192, 102.45, 9.37, 11.09, 14.80, 0.000, 0.000, 0.000, 15:20:23.114
193, -347.58, 10.04, 11.28, 9.18, 0.000, 0.000, 0.000, 15:20:23.114
194, 21.97, 6.56, 12.92, 15.39, 0.000, 0.000, 0.000, 15:20:23.114
195, 133.27, 11.37, 12.84, 13.75, 0.000, 0.000, 0.000, 15:20:23.136
