%OpenBCI Raw EEG Data
%
%Sample Rate = 200.0 Hz
%First Column = SampleIndex
%Last Column = Timestamp 
%Other Columns = EEG data in microvolts followed by Accel Data (in G) interleaved with Aux Data
0, -232.16, 12.29, 11.16, 11.37, 0.000, 0.000, 0.000, 14:35:08.421
1, 197.95, -0.09, 18.06, 15.58, 0.000, 0.000, 0.000, 14:35:08.425
2, 239.69, 14.06, 2.51, 8.00, 0.000, 0.000, 0.000, 14:35:08.426
3, -195.82, 16.02, 7.76, 8.90, 0.000, 0.000, 0.000, 14:35:08.442
4, -30.93, -4.74, 22.79, 22.48, 0.000, 0.000, 0.000, 14:35:08.442
5, 280.63, 12.05, 5.03, 9.43, 0.000, 0.000, 0.000, 14:35:08.443
6, -48.93, 14.61, 3.55, 9.34, 0.000, 0.000, 0.000, 14:35:08.443
7, -204.05, 5.81, 17.57, 18.57, 0.000, 0.000, 0.000, 14:35:08.444
8, 276.95, 1.15, 15.22, 12.67, 0.000, 0.000, 0.000, 14:35:08.444
9, 93.42, 17.98, 4.56, 5.79, 0.000, 0.000, 0.000, 14:35:08.464
10, -257.83, 10.15, 12.65, 10.83, 0.000, 0.000, 0.000, 14:35:08.465
11, 152.80, -1.38, 18.85, 20.54, 0.000, 0.000, 0.000, 14:35:08.465
12, 224.89, 9.52, 3.76, 8.23, 0.000, 0.000, 0.000, 14:35:08.466
13, -185.13, 14.00, 4.59, 12.23, 0.000, 0.000, 0.000, 14:35:08.467
14, -31.88, 2.80, 22.85, 19.61, 0.000, 0.000, 0.000, 14:35:08.467
15, 303.56, 9.64, 5.85, 8.29, 0.000, 0.000, 0.000, 14:35:08.490
16, -34.71, 15.83, 2.04, 6.19, 0.000, 0.000, 0.000, 14:35:08.490
17, -193.30, 0.95, 16.83, 18.23, 0.000, 0.000, 0.000, 14:35:08.493
18, 287.60, 2.53, 13.71, 13.00, 0.000, 0.000, 0.000, 14:35:08.494
19, 119.02, 16.16, 3.81, 8.88, 0.000, 0.000, 0.000, 14:35:08.494
20, -256.83, 8.79, 9.10, 15.13, 0.000, 0.000, 0.000, 14:35:08.494
21, 147.29, 8.63, 22.36, 18.25, 0.000, 0.000, 0.000, 14:35:08.512
22, 233.51, 10.94, 6.51, 10.42, 0.000, 0.000, 0.000, 14:35:08.513
23, -183.10, 13.71, 6.25, 9.38, 0.000, 0.000, 0.000, 14:35:08.514
24, -33.46, -2.41, 22.99, 16.56, 0.000, 0.000, 0.000, 14:35:08.514
25, 307.35, 10.23, 5.59, 3.89, 0.000, 0.000, 0.000, 14:35:08.532
26, -23.56, 18.06, 2.68, 7.08, 0.000, 0.000, 0.000, 14:35:08.532
27, -195.63, -0.10, 21.24, 18.43, 0.000, 0.000, 0.000, 14:35:08.533
28, 288.88, 3.80, 14.81, 14.28, 0.000, 0.000, 0.000, 14:35:08.534
29, 104.72, 15.74, 6.53, 3.42, 0.000, 0.000, 0.000, 14:35:08.554
30, -248.54, 12.30, 13.10, 10.10, 0.000, 0.000, 0.000, 14:35:08.555
31, 166.52, -3.07, 21.13, 24.01, 0.000, 0.000, 0.000, 14:35:08.559
32, 218.01, 17.53, 0.54, 5.08, 0.000, 0.000, 0.000, 14:35:08.559
33, -165.64, 11.00, 7.03, 8.33, 0.000, 0.000, 0.000, 14:35:08.582
34, -43.85, -4.44, 21.10, 17.04, 0.000, 0.000, 0.000, 14:35:08.583
35, 296.85, 9.08, 2.83, 4.95, 0.000, 0.000, 0.000, 14:35:08.586
36, -35.87, 16.41, 5.01, 3.67, 0.000, 0.000, 0.000, 14:35:08.586
37, -193.58, 0.76, 19.51, 18.67, 0.000, 0.000, 0.000, 14:35:08.587
38, 283.30, 2.15, 16.50, 13.04, 0.000, 0.000, 0.000, 14:35:08.587
39, 119.54, 21.19, 3.67, 5.16, 0.000, 0.000, 0.000, 14:35:08.599
40, -252.50, 6.62, 13.08, 14.51, 0.000, 0.000, 0.000, 14:35:08.600
41, 149.86, 0.05, 19.11, 21.73, 0.000, 0.000, 0.000, 14:35:08.600
42, 226.51, 16.99, 4.45, 6.62, 0.000, 0.000, 0.000, 14:35:08.600
43, -168.27, 15.02, 4.53, 7.01, 0.000, 0.000, 0.000, 14:35:08.623
44, -31.56, -3.92, 19.02, 21.78, 0.000, 0.000, 0.000, 14:35:08.624
45, 297.80, 12.82, 6.86, 6.86, 0.000, 0.000, 0.000, 14:35:08.624
46, -29.91, 17.14, 2.09, 7.44, 0.000, 0.000, 0.000, 14:35:08.625
47, -208.19, 3.60, 16.71, 17.74, 0.000, 0.000, 0.000, 14:35:08.643
48, 260.80, 8.70, 15.76, 13.64, 0.000, 0.000, 0.000, 14:35:08.644
49, 146.50, 10.77, 3.34, 9.71, 0.000, 0.000, 0.000, 14:35:08.644
50, -245.18, 9.02, 14.08, 11.37, 0.000, 0.000, 0.000, 14:35:08.645
51, 177.40, 0.26, 21.15, 18.24, 0.000, 0.000, 0.000, 14:35:08.666
52, 219.85, 11.91, 5.49, 6.16, 0.000, 0.000, 0.000, 14:35:08.666
53, -171.59, 10.63, 5.51, 9.88, 0.000, 0.000, 0.000, 14:35:08.667
54, -39.32, -0.56, 21.99, 19.68, 0.000, 0.000, 0.000, 14:35:08.667
55, 305.38, 7.88, 5.56, 11.23, 0.000, 0.000, 0.000, 14:35:08.668
56, -37.85, 17.70, 2.82, 7.46, 0.000, 0.000, 0.000, 14:35:08.668
57, -205.14, 9.09, 21.90, 18.84, 0.000, 0.000, 0.000, 14:35:08.688
58, 277.62, 0.60, 16.14, 13.24, 0.000, 0.000, 0.000, 14:35:08.689
59, 94.85, 14.96, 0.24, 5.01, 0.000, 0.000, 0.000, 14:35:08.689
60, -243.85, 7.63, 9.28, 10.99, 0.000, 0.000, 0.000, 14:35:08.690
61, 156.10, -2.26, 18.10, 16.00, 0.000, 0.000, 0.000, 14:35:08.711
62, 223.21, 11.24, 4.38, 5.20, 0.000, 0.000, 0.000, 14:35:08.711
63, -184.01, 17.34, 7.66, 9.67, 0.000, 0.000, 0.000, 14:35:08.712
64, -42.89, 0.67, 23.12, 23.22, 0.000, 0.000, 0.000, 14:35:08.712
65, 293.08, 5.41, 5.57, 9.76, 0.000, 0.000, 0.000, 14:35:08.733
66, -32.80, 16.82, 5.33, 2.42, 0.000, 0.000, 0.000, 14:35:08.734
67, -191.02, -2.69, 18.26, 18.87, 0.000, 0.000, 0.000, 14:35:08.734
68, 275.99, 3.85, 13.70, 13.24, 0.000, 0.000, 0.000, 14:35:08.734
69, 108.54, 15.15, 3.08, 3.28, 0.000, 0.000, 0.000, 14:35:08.756
70, -254.74, 9.11, 12.56, 13.53, 0.000, 0.000, 0.000, 14:35:08.756
71, 147.92, 0.34, 22.12, 17.08, 0.000, 0.000, 0.000, 14:35:08.757
72, 232.50, 16.79, 5.25, 6.59, 0.000, 0.000, 0.000, 14:35:08.757
73, -167.46, 15.54, 1.05, 7.32, 0.000, 0.000, 0.000, 14:35:08.758
74, -40.67, 0.03, 25.79, 18.89, 0.000, 0.000, 0.000, 14:35:08.758
75, 304.15, 14.11, 7.04, 11.28, 0.000, 0.000, 0.000, 14:35:08.779
76, -39.18, 12.62, 4.02, 7.00, 0.000, 0.000, 0.000, 14:35:08.779
77, -210.58, 1.53, 18.73, 21.06, 0.000, 0.000, 0.000, 14:35:08.779
78, 282.81, 5.68, 12.03, 15.69, 0.000, 0.000, 0.000, 14:35:08.779
79, 104.72, 17.16, 2.07, 2.61, 0.000, 0.000, 0.000, 14:35:08.801
80, -252.07, 7.68, 9.82, 14.42, 0.000, 0.000, 0.000, 14:35:08.802
81, 152.19, -1.92, 22.47, 22.71, 0.000, 0.000, 0.000, 14:35:08.802
82, 216.13, 16.73, 3.19, 7.34, 0.000, 0.000, 0.000, 14:35:08.802
83, -162.71, 12.01, 6.60, 6.54, 0.000, 0.000, 0.000, 14:35:08.824
84, -37.02, 2.27, 25.46, 18.97, 0.000, 0.000, 0.000, 14:35:08.824
85, 299.54, 5.45, 5.70, 5.81, 0.000, 0.000, 0.000, 14:35:08.825
86, -27.68, 13.39, 1.56, 7.86, 0.000, 0.000, 0.000, 14:35:08.825
87, -212.08, 5.68, 19.60, 17.91, 0.000, 0.000, 0.000, 14:35:08.846
88, 283.94, -0.40, 10.86, 9.67, 0.000, 0.000, 0.000, 14:35:08.846
89, 118.42, 18.33, -0.26, 9.69, 0.000, 0.000, 0.000, 14:35:08.847
90, -260.29, 10.08, 9.54, 9.46, 0.000, 0.000, 0.000, 14:35:08.847
91, 156.89, 1.51, 24.73, 20.20, 0.000, 0.000, 0.000, 14:35:08.847
92, 217.27, 14.86, 5.22, 8.53, 0.000, 0.000, 0.000, 14:35:08.848
93, -176.45, 17.97, 10.77, 10.56, 0.000, 0.000, 0.000, 14:35:08.868
94, -38.71, -3.48, 22.42, 21.53, 0.000, 0.000, 0.000, 14:35:08.869
95, 290.90, 11.94, 10.00, 11.87, 0.000, 0.000, 0.000, 14:35:08.869
96, -22.45, 17.47, 7.58, 9.82, 0.000, 0.000, 0.000, 14:35:08.869
97, -203.73, 3.45, 19.09, 15.55, 0.000, 0.000, 0.000, 14:35:08.891
98, 300.99, 1.55, 14.85, 15.85, 0.000, 0.000, 0.000, 14:35:08.892
99, 104.08, 18.93, 1.19, 6.88, 0.000, 0.000, 0.000, 14:35:08.892
100, -257.75, 5.64, 12.96, 11.54, 0.000, 0.000, 0.000, 14:35:08.892
101, 138.75, -5.21, 17.91, 17.97, 0.000, 0.000, 0.000, 14:35:08.914
102, 239.73, 15.69, 0.54, 2.31, 0.000, 0.000, 0.000, 14:35:08.914
103, -177.74, 8.57, 3.74, 9.78, 0.000, 0.000, 0.000, 14:35:08.914
104, -51.24, -3.93, 21.66, 21.58, 0.000, 0.000, 0.000, 14:35:08.915
105, 298.84, 13.82, 6.82, 6.16, 0.000, 0.000, 0.000, 14:35:08.936
106, -26.35, 19.67, 0.63, 5.19, 0.000, 0.000, 0.000, 14:35:08.936
107, -214.41, 2.29, 22.30, 19.34, 0.000, 0.000, 0.000, 14:35:08.937
108, 288.69, 1.36, 15.22, 16.33, 0.000, 0.000, 0.000, 14:35:08.937
109, 105.80, 17.27, 0.67, 4.85, 0.000, 0.000, 0.000, 14:35:08.937
110, -260.50, 6.34, 9.92, 12.82, 0.000, 0.000, 0.000, 14:35:08.938
111, 184.05, 1.58, 22.62, 20.47, 0.000, 0.000, 0.000, 14:35:08.958
112, 239.19, 10.37, 3.40, 7.26, 0.000, 0.000, 0.000, 14:35:08.959
113, -187.63, 12.82, 4.89, 5.41, 0.000, 0.000, 0.000, 14:35:08.959
114, -44.54, -0.30, 25.58, 20.55, 0.000, 0.000, 0.000, 14:35:08.959
115, 288.48, 11.37, 3.84, 6.35, 0.000, 0.000, 0.000, 14:35:08.981
116, -54.14, 12.92, 3.58, 5.51, 0.000, 0.000, 0.000, 14:35:08.981
117, -180.55, -0.25, 16.55, 16.86, 0.000, 0.000, 0.000, 14:35:08.982
118, 303.42, 1.81, 15.93, 16.02, 0.000, 0.000, 0.000, 14:35:08.982
119, 97.97, 16.27, 5.44, 4.75, 0.000, 0.000, 0.000, 14:35:09.003
120, -258.94, 16.52, 15.86, 8.41, 0.000, 0.000, 0.000, 14:35:09.004
121, 170.03, -5.49, 20.93, 19.64, 0.000, 0.000, 0.000, 14:35:09.004
122, 262.56, 14.08, 5.43, 7.46, 0.000, 0.000, 0.000, 14:35:09.005
123, -159.41, 15.65, 4.47, 7.48, 0.000, 0.000, 0.000, 14:35:09.026
124, -41.37, -1.06, 24.15, 25.47, 0.000, 0.000, 0.000, 14:35:09.026
125, 299.12, 7.34, 7.11, 7.32, 0.000, 0.000, 0.000, 14:35:09.028
126, -78.09, 17.64, 1.95, 8.31, 0.000, 0.000, 0.000, 14:35:09.029
127, -166.50, 3.92, 17.17, 17.14, 0.000, 0.000, 0.000, 14:35:09.031
128, 305.13, 4.31, 13.94, 17.02, 0.000, 0.000, 0.000, 14:35:09.031
129, 56.67, 18.95, 3.48, 7.39, 0.000, 0.000, 0.000, 14:35:09.049
130, -331.15, 9.59, 9.91, 15.44, 0.000, 0.000, 0.000, 14:35:09.049
131, 150.21, -3.66, 21.24, 23.34, 0.000, 0.000, 0.000, 14:35:09.049
132, 238.67, 15.18, 3.05, 4.41, 0.000, 0.000, 0.000, 14:35:09.050
133, -126.91, 13.38, 3.89, 3.66, 0.000, 0.000, 0.000, 14:35:09.071
134, -32.14, -3.29, 24.05, 20.07, 0.000, 0.000, 0.000, 14:35:09.072
135, 362.28, 9.50, 7.74, 8.53, 0.000, 0.000, 0.000, 14:35:09.072
136, -69.26, 15.85, 4.01, 0.80, 0.000, 0.000, 0.000, 14:35:09.072
137, -295.40, 3.09, 19.38, 17.71, 0.000, 0.000, 0.000, 14:35:09.093
138, 298.33, 3.83, 15.37, 14.59, 0.000, 0.000, 0.000, 14:35:09.094
139, 232.64, 14.39, 2.21, 6.71, 0.000, 0.000, 0.000, 14:35:09.094
140, -248.95, 7.17, 8.47, 11.59, 0.000, 0.000, 0.000, 14:35:09.094
141, 107.80, 1.00, 21.59, 20.19, 0.000, 0.000, 0.000, 14:35:09.117
142, 148.64, 14.85, 3.35, 5.73, 0.000, 0.000, 0.000, 14:35:09.118
143, -230.38, 18.50, 5.97, 5.45, 0.000, 0.000, 0.000, 14:35:09.118
144, -8.64, -0.17, 22.70, 21.23, 0.000, 0.000, 0.000, 14:35:09.118
145, 369.28, 9.79, 8.33, 14.16, 0.000, 0.000, 0.000, 14:35:09.119
146, -228.65, 18.97, 2.51, 6.71, 0.000, 0.000, 0.000, 14:35:09.119
147, -338.19, 3.34, 16.51, 18.60, 0.000, 0.000, 0.000, 14:35:09.138
148, 325.17, 0.31, 14.73, 14.25, 0.000, 0.000, 0.000, 14:35:09.139
149, 264.53, 14.65, 1.74, 4.00, 0.000, 0.000, 0.000, 14:35:09.139
150, -133.31, 9.05, 13.10, 10.06, 0.000, 0.000, 0.000, 14:35:09.139
151, 241.11, -4.10, 25.12, 19.44, 0.000, 0.000, 0.000, 14:35:09.161
152, 213.69, 12.49, 2.76, 2.16, 0.000, 0.000, 0.000, 14:35:09.161
153, -316.58, 17.69, 3.93, 9.90, 0.000, 0.000, 0.000, 14:35:09.162
154, -172.88, -2.16, 26.12, 20.14, 0.000, 0.000, 0.000, 14:35:09.162
155, 526.46, 9.62, 4.65, 10.48, 0.000, 0.000, 0.000, 14:35:09.183
156, 172.33, 26.49, 1.44, 4.35, 0.000, 0.000, 0.000, 14:35:09.184
157, -190.19, -3.45, 17.07, 19.62, 0.000, 0.000, 0.000, 14:35:09.184
158, 128.53, -0.54, 17.94, 16.13, 0.000, 0.000, 0.000, 14:35:09.184
159, -38.14, 15.85, 0.64, 3.97, 0.000, 0.000, 0.000, 14:35:09.206
160, -122.77, 9.87, 8.49, 11.42, 0.000, 0.000, 0.000, 14:35:09.207
161, 285.76, -2.96, 23.39, 20.22, 0.000, 0.000, 0.000, 14:35:09.207
162, 43.78, 12.10, 2.49, 7.60, 0.000, 0.000, 0.000, 14:35:09.208
163, -557.07, 14.78, 5.73, 5.22, 0.000, 0.000, 0.000, 14:35:09.208
164, -213.74, -3.24, 23.45, 20.69, 0.000, 0.000, 0.000, 14:35:09.208
165, 568.55, 9.48, 5.90, 8.47, 0.000, 0.000, 0.000, 14:35:09.229
166, 53.03, 12.84, -0.69, 6.17, 0.000, 0.000, 0.000, 14:35:09.229
167, -269.10, 5.32, 17.20, 17.39, 0.000, 0.000, 0.000, 14:35:09.230
168, 138.56, -0.28, 14.62, 14.04, 0.000, 0.000, 0.000, 14:35:09.230
169, 193.61, 18.09, 1.48, 7.61, 0.000, 0.000, 0.000, 14:35:09.251
170, -42.59, 10.99, 10.86, 10.64, 0.000, 0.000, 0.000, 14:35:09.251
171, 346.12, -0.30, 24.77, 23.21, 0.000, 0.000, 0.000, 14:35:09.252
172, 293.56, 14.62, 2.29, 5.39, 0.000, 0.000, 0.000, 14:35:09.252
173, -270.27, 18.85, 5.07, 5.57, 0.000, 0.000, 0.000, 14:35:09.273
174, -65.72, 0.02, 27.47, 18.32, 0.000, 0.000, 0.000, 14:35:09.274
175, 261.32, 4.18, 10.20, 12.25, 0.000, 0.000, 0.000, 14:35:09.274
176, -45.05, 15.72, 2.27, 6.50, 0.000, 0.000, 0.000, 14:35:09.274
177, -123.14, 2.62, 21.08, 15.82, 0.000, 0.000, 0.000, 14:35:09.296
178, 250.37, 3.57, 15.99, 11.56, 0.000, 0.000, 0.000, 14:35:09.297
179, 106.27, 19.85, 4.34, 5.54, 0.000, 0.000, 0.000, 14:35:09.297
180, -307.83, 12.98, 13.42, 13.22, 0.000, 0.000, 0.000, 14:35:09.298
181, 273.39, -3.68, 24.85, 21.78, 0.000, 0.000, 0.000, 14:35:09.298
182, 155.12, 13.00, 4.24, 4.12, 0.000, 0.000, 0.000, 14:35:09.298
183, -421.38, 20.39, 2.92, 9.44, 0.000, 0.000, 0.000, 14:35:09.318
184, -291.84, -5.83, 19.08, 24.69, 0.000, 0.000, 0.000, 14:35:09.319
185, 540.64, 9.71, 8.88, 11.03, 0.000, 0.000, 0.000, 14:35:09.320
186, -76.44, 13.90, 2.11, 7.88, 0.000, 0.000, 0.000, 14:35:09.320
187, -120.25, 5.76, 15.92, 14.69, 0.000, 0.000, 0.000, 14:35:09.341
188, 251.34, 2.43, 17.45, 19.90, 0.000, 0.000, 0.000, 14:35:09.341
189, 70.21, 19.91, -0.40, 7.69, 0.000, 0.000, 0.000, 14:35:09.342
190, -170.43, 13.54, 7.16, 9.59, 0.000, 0.000, 0.000, 14:35:09.342
191, 414.55, -1.85, 24.19, 19.83, 0.000, 0.000, 0.000, 14:35:09.367
192, 408.57, 20.21, 2.74, 3.40, 0.000, 0.000, 0.000, 14:35:09.367
193, -239.91, 13.03, 5.64, 4.38, 0.000, 0.000, 0.000, 14:35:09.368
194, -250.32, -6.30, 26.79, 25.82, 0.000, 0.000, 0.000, 14:35:09.368
195, 304.12, 8.48, 6.68, 8.18, 0.000, 0.000, 0.000, 14:35:09.386
196, 42.82, 12.41, 0.06, -1.40, 0.000, 0.000, 0.000, 14:35:09.387
197, -145.62, 4.55, 16.82, 18.94, 0.000, 0.000, 0.000, 14:35:09.387
198, 164.01, 1.40, 16.95, 16.92, 0.000, 0.000, 0.000, 14:35:09.387
199, -106.88, 19.62, -3.86, 2.36, 0.000, 0.000, 0.000, 14:35:09.388
200, -280.95, 9.29, 12.44, 10.13, 0.000, 0.000, 0.000, 14:35:09.388
0, 280.86, 2.82, 21.45, 24.24, 0.000, 0.000, 0.000, 14:35:09.408
1, 157.51, 10.26, 1.37, 5.97, 0.000, 0.000, 0.000, 14:35:09.409
2, -210.05, 15.89, 4.71, 4.21, 0.000, 0.000, 0.000, 14:35:09.409
3, -94.90, -2.25, 24.98, 21.69, 0.000, 0.000, 0.000, 14:35:09.431
4, 386.05, 3.82, 9.75, 5.79, 0.000, 0.000, 0.000, 14:35:09.431
5, -15.58, 16.64, 4.40, 4.61, 0.000, 0.000, 0.000, 14:35:09.432
6, 9.93, 4.14, 13.44, 19.49, 0.000, 0.000, 0.000, 14:35:09.432
7, 404.88, -1.03, 21.90, 20.19, 0.000, 0.000, 0.000, 14:35:09.432
8, 113.20, 16.63, 3.18, 4.78, 0.000, 0.000, 0.000, 14:35:09.432
9, -299.53, 13.88, 6.17, 10.84, 0.000, 0.000, 0.000, 14:35:09.453
10, 14.46, -3.39, 22.79, 21.48, 0.000, 0.000, 0.000, 14:35:09.454
11, 178.22, 15.20, 3.41, 8.55, 0.000, 0.000, 0.000, 14:35:09.454
12, -41.03, 12.88, 6.81, 4.68, 0.000, 0.000, 0.000, 14:35:09.454
13, -148.67, -1.56, 22.71, 21.71, 0.000, 0.000, 0.000, 14:35:09.476
14, 90.46, 5.58, 10.02, 9.94, 0.000, 0.000, 0.000, 14:35:09.476
15, -103.55, 17.51, -1.28, -0.06, 0.000, 0.000, 0.000, 14:35:09.477
16, -54.95, 7.27, 17.50, 14.24, 0.000, 0.000, 0.000, 14:35:09.477
17, 380.22, 0.73, 17.66, 15.07, 0.000, 0.000, 0.000, 14:35:09.498
18, 106.68, 19.54, 2.53, 5.15, 0.000, 0.000, 0.000, 14:35:09.499
19, -182.11, 8.05, 10.31, 10.65, 0.000, 0.000, 0.000, 14:35:09.499
20, -189.74, 0.47, 22.05, 22.72, 0.000, 0.000, 0.000, 14:35:09.499
21, 390.00, 14.08, 4.62, 6.47, 0.000, 0.000, 0.000, 14:35:09.521
22, -73.58, 16.67, 3.96, 8.78, 0.000, 0.000, 0.000, 14:35:09.521
23, -15.98, -5.43, 23.21, 20.25, 0.000, 0.000, 0.000, 14:35:09.522
24, 243.16, 10.21, 6.59, 10.34, 0.000, 0.000, 0.000, 14:35:09.522
25, 7.87, 17.06, 3.47, 2.54, 0.000, 0.000, 0.000, 14:35:09.522
26, -143.58, 7.95, 22.40, 18.65, 0.000, 0.000, 0.000, 14:35:09.523
27, 334.89, 3.51, 17.47, 18.67, 0.000, 0.000, 0.000, 14:35:09.543
28, 50.08, 18.50, 4.65, 6.83, 0.000, 0.000, 0.000, 14:35:09.544
29, -234.93, 10.31, 6.67, 10.17, 0.000, 0.000, 0.000, 14:35:09.544
30, 87.76, -3.33, 23.91, 19.06, 0.000, 0.000, 0.000, 14:35:09.545
31, 91.19, 9.79, 3.13, 10.98, 0.000, 0.000, 0.000, 14:35:09.566
32, -100.95, 15.67, 3.10, 5.66, 0.000, 0.000, 0.000, 14:35:09.566
33, 19.85, -2.43, 23.97, 24.08, 0.000, 0.000, 0.000, 14:35:09.566
34, 378.80, 9.66, 4.81, 9.79, 0.000, 0.000, 0.000, 14:35:09.567
35, -75.12, 17.63, -0.42, 3.08, 0.000, 0.000, 0.000, 14:35:09.588
36, -360.15, 6.46, 16.81, 18.43, 0.000, 0.000, 0.000, 14:35:09.589
37, 254.63, -1.55, 19.03, 17.74, 0.000, 0.000, 0.000, 14:35:09.589
38, 171.62, 17.69, 4.26, 4.50, 0.000, 0.000, 0.000, 14:35:09.589
39, -179.63, 10.68, 13.50, 13.59, 0.000, 0.000, 0.000, 14:35:09.611
40, 243.37, -3.73, 19.16, 16.58, 0.000, 0.000, 0.000, 14:35:09.612
41, 230.06, 14.90, 3.00, 4.09, 0.000, 0.000, 0.000, 14:35:09.612
42, -301.88, 14.64, 3.48, 3.03, 0.000, 0.000, 0.000, 14:35:09.612
43, -60.49, -2.15, 24.39, 24.48, 0.000, 0.000, 0.000, 14:35:09.613
44, 235.21, 8.32, 9.62, 7.18, 0.000, 0.000, 0.000, 14:35:09.613
45, 185.36, 23.53, 2.49, 1.89, 0.000, 0.000, 0.000, 14:35:09.633
46, -105.94, 2.74, 16.17, 17.27, 0.000, 0.000, 0.000, 14:35:09.634
47, 239.89, 2.87, 17.52, 14.64, 0.000, 0.000, 0.000, 14:35:09.635
48, -33.83, 16.15, 6.31, 5.85, 0.000, 0.000, 0.000, 14:35:09.635
49, -272.00, 9.34, 10.89, 17.16, 0.000, 0.000, 0.000, 14:35:09.657
50, 182.59, -4.73, 20.73, 19.16, 0.000, 0.000, 0.000, 14:35:09.657
51, 242.06, 14.96, 4.09, 3.93, 0.000, 0.000, 0.000, 14:35:09.657
52, -195.93, 14.26, 4.48, 5.11, 0.000, 0.000, 0.000, 14:35:09.658
53, -332.98, -2.44, 24.29, 19.93, 0.000, 0.000, 0.000, 14:35:09.678
54, 602.11, 13.16, 10.16, 12.29, 0.000, 0.000, 0.000, 14:35:09.679
55, 69.11, 14.17, -1.17, 8.43, 0.000, 0.000, 0.000, 14:35:09.679
56, -237.95, 5.40, 14.80, 16.30, 0.000, 0.000, 0.000, 14:35:09.679
57, 285.89, -0.14, 13.82, 14.77, 0.000, 0.000, 0.000, 14:35:09.701
58, -67.47, 17.56, -0.76, 5.70, 0.000, 0.000, 0.000, 14:35:09.701
59, -201.43, 8.69, 7.65, 11.38, 0.000, 0.000, 0.000, 14:35:09.702
60, 305.79, -3.06, 25.90, 18.62, 0.000, 0.000, 0.000, 14:35:09.703
61, 319.40, 13.97, 8.34, 4.88, 0.000, 0.000, 0.000, 14:35:09.703
62, -163.26, 12.00, 6.08, 1.66, 0.000, 0.000, 0.000, 14:35:09.704
63, -176.60, 0.38, 21.29, 20.69, 0.000, 0.000, 0.000, 14:35:09.723
64, 174.57, 6.07, 9.29, 13.80, 0.000, 0.000, 0.000, 14:35:09.724
65, -45.54, 19.29, -0.22, 6.11, 0.000, 0.000, 0.000, 14:35:09.724
66, -266.52, 0.25, 16.63, 17.18, 0.000, 0.000, 0.000, 14:35:09.724
67, 249.88, -0.22, 19.51, 17.45, 0.000, 0.000, 0.000, 14:35:09.746
68, 134.00, 14.32, 2.84, 7.60, 0.000, 0.000, 0.000, 14:35:09.746
69, -292.69, 10.66, 8.84, 9.96, 0.000, 0.000, 0.000, 14:35:09.746
70, -11.09, -4.93, 24.36, 22.88, 0.000, 0.000, 0.000, 14:35:09.747
71, 516.04, 9.95, 2.87, 4.10, 0.000, 0.000, 0.000, 14:35:09.768
72, -69.21, 22.36, 3.71, 8.11, 0.000, 0.000, 0.000, 14:35:09.769
73, 54.66, -5.09, 23.33, 19.09, 0.000, 0.000, 0.000, 14:35:09.769
74, 319.67, 9.67, 9.16, 11.25, 0.000, 0.000, 0.000, 14:35:09.769
75, -148.23, 15.71, -0.74, 4.79, 0.000, 0.000, 0.000, 14:35:09.791
76, -360.84, 7.47, 16.91, 19.58, 0.000, 0.000, 0.000, 14:35:09.791
77, 403.60, 5.25, 16.21, 18.89, 0.000, 0.000, 0.000, 14:35:09.791
78, 203.57, 20.37, 3.29, 9.01, 0.000, 0.000, 0.000, 14:35:09.792
79, -265.90, 14.06, 11.53, 13.24, 0.000, 0.000, 0.000, 14:35:09.792
80, 222.87, -4.29, 24.10, 22.82, 0.000, 0.000, 0.000, 14:35:09.792
81, 32.84, 16.04, 4.24, 3.12, 0.000, 0.000, 0.000, 14:35:09.813
82, -459.29, 16.33, 4.45, 4.66, 0.000, 0.000, 0.000, 14:35:09.814
83, -9.34, -0.91, 19.51, 19.60, 0.000, 0.000, 0.000, 14:35:09.814
84, 304.46, 5.83, 8.12, 13.39, 0.000, 0.000, 0.000, 14:35:09.814
85, 52.51, 15.54, -2.85, 1.24, 0.000, 0.000, 0.000, 14:35:09.836
86, -234.54, 6.80, 18.24, 19.77, 0.000, 0.000, 0.000, 14:35:09.836
87, 389.66, 2.18, 16.52, 15.11, 0.000, 0.000, 0.000, 14:35:09.836
88, 258.17, 15.96, 3.40, -0.46, 0.000, 0.000, 0.000, 14:35:09.837
89, -235.90, 8.36, 13.20, 7.67, 0.000, 0.000, 0.000, 14:35:09.858
90, 128.30, 0.46, 27.71, 22.93, 0.000, 0.000, 0.000, 14:35:09.859
91, 211.02, 7.64, 5.53, 8.04, 0.000, 0.000, 0.000, 14:35:09.859
92, -158.19, 15.42, 2.61, 4.24, 0.000, 0.000, 0.000, 14:35:09.859
93, -114.14, 0.39, 20.97, 20.81, 0.000, 0.000, 0.000, 14:35:09.881
94, 311.28, 7.83, 7.51, 9.18, 0.000, 0.000, 0.000, 14:35:09.881
95, 27.06, 19.41, 1.52, 8.02, 0.000, 0.000, 0.000, 14:35:09.882
96, -356.97, 7.08, 17.76, 15.67, 0.000, 0.000, 0.000, 14:35:09.882
97, 216.83, 2.35, 15.85, 17.40, 0.000, 0.000, 0.000, 14:35:09.882
98, 234.47, 18.91, 1.02, 4.90, 0.000, 0.000, 0.000, 14:35:09.882
99, -96.72, 13.16, 11.09, 10.42, 0.000, 0.000, 0.000, 14:35:09.903
100, 58.68, -7.75, 26.47, 23.51, 0.000, 0.000, 0.000, 14:35:09.904
101, 146.40, 13.35, 1.48, 7.13, 0.000, 0.000, 0.000, 14:35:09.904
102, -199.22, 15.28, 1.74, 7.20, 0.000, 0.000, 0.000, 14:35:09.904
103, -38.08, 0.62, 22.88, 20.90, 0.000, 0.000, 0.000, 14:35:09.926
104, 230.46, 8.62, 10.03, 7.89, 0.000, 0.000, 0.000, 14:35:09.926
105, -80.30, 16.46, 0.45, 5.72, 0.000, 0.000, 0.000, 14:35:09.927
106, -205.21, 1.95, 19.49, 16.98, 0.000, 0.000, 0.000, 14:35:09.927
107, 404.76, -2.23, 20.51, 16.11, 0.000, 0.000, 0.000, 14:35:09.948
108, 146.77, 21.77, 2.10, 6.05, 0.000, 0.000, 0.000, 14:35:09.949
109, -233.15, 5.21, 9.19, 15.49, 0.000, 0.000, 0.000, 14:35:09.949
110, 164.18, -1.79, 24.90, 21.89, 0.000, 0.000, 0.000, 14:35:09.950
111, 263.43, 12.73, 2.67, 6.94, 0.000, 0.000, 0.000, 14:35:09.971
112, -197.48, 16.18, 3.45, 2.90, 0.000, 0.000, 0.000, 14:35:09.971
113, -152.07, -3.53, 22.03, 23.73, 0.000, 0.000, 0.000, 14:35:09.972
114, 301.58, 7.13, 12.33, 11.06, 0.000, 0.000, 0.000, 14:35:09.972
115, 37.46, 14.71, 2.58, 0.81, 0.000, 0.000, 0.000, 14:35:09.972
116, -248.18, 1.21, 17.61, 19.53, 0.000, 0.000, 0.000, 14:35:09.973
117, 261.07, 1.46, 16.83, 16.03, 0.000, 0.000, 0.000, 14:35:09.993
118, 165.28, 9.57, 0.44, 3.70, 0.000, 0.000, 0.000, 14:35:09.994
119, -251.16, 16.12, 6.40, 9.65, 0.000, 0.000, 0.000, 14:35:09.994
120, 151.05, -2.06, 22.89, 21.40, 0.000, 0.000, 0.000, 14:35:09.994
121, 260.33, 16.62, 1.47, 6.71, 0.000, 0.000, 0.000, 14:35:10.016
122, -178.85, 16.46, 2.54, 4.45, 0.000, 0.000, 0.000, 14:35:10.016
123, -86.72, 0.53, 26.02, 24.70, 0.000, 0.000, 0.000, 14:35:10.017
124, 336.53, 7.68, 8.02, 5.07, 0.000, 0.000, 0.000, 14:35:10.017
125, -17.45, 19.16, 1.25, 4.41, 0.000, 0.000, 0.000, 14:35:10.038
126, -248.05, 11.29, 17.84, 14.25, 0.000, 0.000, 0.000, 14:35:10.039
127, 298.97, -1.09, 18.81, 19.03, 0.000, 0.000, 0.000, 14:35:10.039
128, 135.25, 16.95, 2.64, 4.92, 0.000, 0.000, 0.000, 14:35:10.039
129, -268.37, 8.32, 8.69, 10.65, 0.000, 0.000, 0.000, 14:35:10.061
130, 130.30, -6.26, 22.75, 20.99, 0.000, 0.000, 0.000, 14:35:10.061
131, 262.06, 9.22, 2.68, 6.26, 0.000, 0.000, 0.000, 14:35:10.061
132, -170.62, 16.23, 5.36, 3.69, 0.000, 0.000, 0.000, 14:35:10.062
133, -91.83, -3.21, 25.43, 20.57, 0.000, 0.000, 0.000, 14:35:10.062
134, 336.20, 8.71, 10.47, 10.69, 0.000, 0.000, 0.000, 14:35:10.062
135, -3.02, 20.25, 2.49, 2.22, 0.000, 0.000, 0.000, 14:35:10.083
136, -244.44, 2.11, 11.70, 17.95, 0.000, 0.000, 0.000, 14:35:10.084
137, 280.39, -3.38, 18.50, 18.48, 0.000, 0.000, 0.000, 14:35:10.084
138, 163.44, 18.66, 0.61, 2.02, 0.000, 0.000, 0.000, 14:35:10.084
139, -263.66, 7.85, 11.31, 11.60, 0.000, 0.000, 0.000, 14:35:10.106
140, 109.27, -4.36, 25.57, 24.45, 0.000, 0.000, 0.000, 14:35:10.106
141, 283.27, 11.92, 0.79, 6.97, 0.000, 0.000, 0.000, 14:35:10.106
142, -168.27, 16.90, 5.76, 6.00, 0.000, 0.000, 0.000, 14:35:10.107
143, -132.99, 0.22, 23.53, 19.43, 0.000, 0.000, 0.000, 14:35:10.129
144, 357.41, 10.14, 9.94, 9.79, 0.000, 0.000, 0.000, 14:35:10.130
145, 11.83, 14.48, -3.01, 2.06, 0.000, 0.000, 0.000, 14:35:10.130
146, -222.29, 1.35, 12.41, 13.39, 0.000, 0.000, 0.000, 14:35:10.130
147, 276.68, 2.25, 19.74, 16.66, 0.000, 0.000, 0.000, 14:35:10.151
148, 172.32, 15.84, 4.36, 5.55, 0.000, 0.000, 0.000, 14:35:10.151
149, -253.44, 12.17, 8.56, 14.00, 0.000, 0.000, 0.000, 14:35:10.152
150, 91.05, -1.91, 24.77, 21.07, 0.000, 0.000, 0.000, 14:35:10.152
151, 267.70, 11.91, 4.98, 11.66, 0.000, 0.000, 0.000, 14:35:10.152
152, -135.97, 16.00, 4.02, 10.04, 0.000, 0.000, 0.000, 14:35:10.153
153, -117.01, 9.86, 22.51, 19.94, 0.000, 0.000, 0.000, 14:35:10.173
154, 318.68, 5.83, 10.45, 12.61, 0.000, 0.000, 0.000, 14:35:10.174
155, 21.89, 17.43, 3.76, 3.62, 0.000, 0.000, 0.000, 14:35:10.174
156, -244.11, 5.56, 17.09, 15.94, 0.000, 0.000, 0.000, 14:35:10.174
157, 254.98, 0.76, 15.47, 14.41, 0.000, 0.000, 0.000, 14:35:10.196
158, 163.15, 16.87, 3.62, 8.32, 0.000, 0.000, 0.000, 14:35:10.196
159, -253.46, 12.88, 10.38, 12.38, 0.000, 0.000, 0.000, 14:35:10.196
160, 117.51, -2.55, 23.45, 23.50, 0.000, 0.000, 0.000, 14:35:10.197
161, 261.98, 12.65, 3.57, 6.95, 0.000, 0.000, 0.000, 14:35:10.219
162, -165.80, 24.29, 4.59, 5.04, 0.000, 0.000, 0.000, 14:35:10.219
163, -101.41, -5.91, 21.97, 22.91, 0.000, 0.000, 0.000, 14:35:10.221
164, 341.53, 4.05, 10.49, 12.44, 0.000, 0.000, 0.000, 14:35:10.221
165, -5.39, 17.22, 3.85, 2.97, 0.000, 0.000, 0.000, 14:35:10.241
166, -251.82, 8.67, 15.24, 13.47, 0.000, 0.000, 0.000, 14:35:10.241
167, 283.83, 1.53, 16.55, 19.96, 0.000, 0.000, 0.000, 14:35:10.242
168, 143.21, 18.53, 2.23, 5.08, 0.000, 0.000, 0.000, 14:35:10.242
169, -272.18, 9.48, 9.66, 10.70, 0.000, 0.000, 0.000, 14:35:10.242
170, 119.55, -1.57, 25.13, 24.31, 0.000, 0.000, 0.000, 14:35:10.243
171, 264.80, 19.07, 4.35, 6.16, 0.000, 0.000, 0.000, 14:35:10.264
172, -156.10, 13.40, 2.33, 6.63, 0.000, 0.000, 0.000, 14:35:10.264
173, -100.02, -1.08, 22.94, 19.56, 0.000, 0.000, 0.000, 14:35:10.286
174, 337.41, 4.80, 13.79, 11.28, 0.000, 0.000, 0.000, 14:35:10.287
175, 0.37, 16.49, 2.97, 5.85, 0.000, 0.000, 0.000, 14:35:10.287
176, -250.79, 3.16, 17.61, 16.42, 0.000, 0.000, 0.000, 14:35:10.287
177, 284.58, -0.25, 17.79, 17.06, 0.000, 0.000, 0.000, 14:35:10.288
178, 145.05, 17.67, -0.20, 4.81, 0.000, 0.000, 0.000, 14:35:10.288
179, -262.26, 7.85, 6.00, 8.01, 0.000, 0.000, 0.000, 14:35:10.308
180, 121.42, -0.39, 22.25, 21.04, 0.000, 0.000, 0.000, 14:35:10.309
181, 265.33, 9.76, 3.50, 6.01, 0.000, 0.000, 0.000, 14:35:10.309
182, -149.70, 16.85, 4.13, 6.04, 0.000, 0.000, 0.000, 14:35:10.309
183, -104.29, -3.31, 22.60, 22.44, 0.000, 0.000, 0.000, 14:35:10.332
184, 338.48, 7.71, 12.71, 10.81, 0.000, 0.000, 0.000, 14:35:10.332
185, 0.04, 16.62, -1.26, 5.24, 0.000, 0.000, 0.000, 14:35:10.332
186, -252.37, 8.84, 11.62, 12.11, 0.000, 0.000, 0.000, 14:35:10.332
187, 282.87, 2.18, 17.51, 21.64, 0.000, 0.000, 0.000, 14:35:10.335
188, 150.90, 15.22, 4.08, 5.99, 0.000, 0.000, 0.000, 14:35:10.335
189, -275.75, 15.06, 6.39, 12.31, 0.000, 0.000, 0.000, 14:35:10.355
190, 113.40, -7.24, 24.60, 21.25, 0.000, 0.000, 0.000, 14:35:10.355
191, 270.03, 11.42, 1.11, 4.50, 0.000, 0.000, 0.000, 14:35:10.355
192, -157.38, 14.52, 1.94, 4.40, 0.000, 0.000, 0.000, 14:35:10.355
193, -103.86, -2.18, 24.10, 20.43, 0.000, 0.000, 0.000, 14:35:10.376
194, 342.89, 6.02, 12.08, 12.95, 0.000, 0.000, 0.000, 14:35:10.377
195, -0.64, 21.17, 0.53, 4.99, 0.000, 0.000, 0.000, 14:35:10.377
196, -253.50, 4.85, 20.40, 16.72, 0.000, 0.000, 0.000, 14:35:10.377
197, 283.64, 0.59, 18.10, 13.87, 0.000, 0.000, 0.000, 14:35:10.398
198, 154.90, 18.66, 3.29, 6.76, 0.000, 0.000, 0.000, 14:35:10.399
199, -266.34, 8.58, 9.91, 7.98, 0.000, 0.000, 0.000, 14:35:10.399
200, 111.42, -3.06, 23.17, 20.87, 0.000, 0.000, 0.000, 14:35:10.399
0, 268.94, 16.71, 6.50, 8.77, 0.000, 0.000, 0.000, 14:35:10.399
1, -153.71, 17.59, 3.84, 0.78, 0.000, 0.000, 0.000, 14:35:10.421
2, -105.24, -2.34, 23.30, 25.29, 0.000, 0.000, 0.000, 14:35:10.421
3, 344.74, 4.08, 8.35, 12.20, 0.000, 0.000, 0.000, 14:35:10.423
4, 7.21, 17.76, 2.34, 6.17, 0.000, 0.000, 0.000, 14:35:10.423
5, -249.50, 4.69, 14.74, 16.31, 0.000, 0.000, 0.000, 14:35:10.444
6, 282.83, 5.89, 15.23, 17.94, 0.000, 0.000, 0.000, 14:35:10.444
7, 171.73, 13.21, 3.09, 3.65, 0.000, 0.000, 0.000, 14:35:10.445
8, -250.96, 14.31, 8.23, 7.26, 0.000, 0.000, 0.000, 14:35:10.445
9, 119.76, -7.00, 19.91, 25.67, 0.000, 0.000, 0.000, 14:35:10.466
10, 271.54, 13.18, 5.27, 4.06, 0.000, 0.000, 0.000, 14:35:10.466
11, -135.74, 17.30, 5.14, 8.51, 0.000, 0.000, 0.000, 14:35:10.467
12, -135.67, 1.53, 21.85, 17.86, 0.000, 0.000, 0.000, 14:35:10.467
13, 303.64, 6.32, 10.51, 9.37, 0.000, 0.000, 0.000, 14:35:10.467
14, 10.50, 15.35, 3.73, 6.70, 0.000, 0.000, 0.000, 14:35:10.467
15, -264.30, 9.67, 19.28, 18.84, 0.000, 0.000, 0.000, 14:35:10.488
16, 228.31, -2.17, 18.27, 18.53, 0.000, 0.000, 0.000, 14:35:10.489
17, 159.89, 15.02, 3.73, 2.04, 0.000, 0.000, 0.000, 14:35:10.489
18, -246.92, 13.67, 6.77, 8.33, 0.000, 0.000, 0.000, 14:35:10.489
19, 88.35, -3.94, 20.41, 23.38, 0.000, 0.000, 0.000, 14:35:10.511
20, 272.37, 6.25, 4.58, 7.58, 0.000, 0.000, 0.000, 14:35:10.511
21, -119.01, 15.62, 5.76, 4.84, 0.000, 0.000, 0.000, 14:35:10.511
22, -123.63, 2.90, 23.28, 20.39, 0.000, 0.000, 0.000, 14:35:10.512
23, 324.08, 5.44, 9.14, 11.16, 0.000, 0.000, 0.000, 14:35:10.533
24, 23.98, 21.53, 0.28, 4.56, 0.000, 0.000, 0.000, 14:35:10.534
25, -238.00, -0.17, 14.22, 14.82, 0.000, 0.000, 0.000, 14:35:10.535
26, 283.47, -1.28, 15.81, 21.25, 0.000, 0.000, 0.000, 14:35:10.535
27, 157.11, 17.95, 2.10, 7.29, 0.000, 0.000, 0.000, 14:35:10.556
28, -266.51, 9.43, 5.35, 7.91, 0.000, 0.000, 0.000, 14:35:10.556
29, 105.69, -4.64, 25.71, 21.88, 0.000, 0.000, 0.000, 14:35:10.556
30, 278.84, 15.39, 3.02, 8.19, 0.000, 0.000, 0.000, 14:35:10.557
31, -150.31, 15.46, -1.49, 5.54, 0.000, 0.000, 0.000, 14:35:10.557
32, -105.99, -1.55, 23.81, 18.07, 0.000, 0.000, 0.000, 14:35:10.557
33, 342.26, 11.30, 10.94, 14.50, 0.000, 0.000, 0.000, 14:35:10.578
34, -1.08, 16.94, 3.60, 1.62, 0.000, 0.000, 0.000, 14:35:10.579
35, -264.28, 4.42, 14.28, 14.84, 0.000, 0.000, 0.000, 14:35:10.579
36, 272.50, 1.47, 18.07, 16.67, 0.000, 0.000, 0.000, 14:35:10.579
37, 158.63, 14.03, 4.00, 7.22, 0.000, 0.000, 0.000, 14:35:10.601
38, -262.46, 11.41, 12.82, 10.80, 0.000, 0.000, 0.000, 14:35:10.601
39, 108.17, -5.54, 25.24, 21.37, 0.000, 0.000, 0.000, 14:35:10.602
40, 273.65, 15.48, 4.08, 10.86, 0.000, 0.000, 0.000, 14:35:10.602
41, -148.73, 15.98, 4.03, 2.67, 0.000, 0.000, 0.000, 14:35:10.623
42, -110.13, 5.19, 22.13, 19.15, 0.000, 0.000, 0.000, 14:35:10.624
43, 344.17, 3.54, 12.43, 10.56, 0.000, 0.000, 0.000, 14:35:10.624
44, 14.24, 18.73, 3.82, 5.39, 0.000, 0.000, 0.000, 14:35:10.624
45, -250.99, 2.49, 16.82, 16.23, 0.000, 0.000, 0.000, 14:35:10.646
46, 273.29, -1.83, 17.26, 18.83, 0.000, 0.000, 0.000, 14:35:10.647
47, 157.47, 17.03, 2.00, 4.46, 0.000, 0.000, 0.000, 14:35:10.647
48, -262.44, 19.59, 8.60, 10.52, 0.000, 0.000, 0.000, 14:35:10.647
49, 104.73, -6.86, 24.80, 22.34, 0.000, 0.000, 0.000, 14:35:10.647
50, 282.28, 15.41, 4.61, 6.78, 0.000, 0.000, 0.000, 14:35:10.648
51, -137.17, 21.67, 0.36, 3.74, 0.000, 0.000, 0.000, 14:35:10.668
52, -111.67, -4.55, 21.87, 25.11, 0.000, 0.000, 0.000, 14:35:10.669
53, 347.12, 5.43, 9.00, 13.65, 0.000, 0.000, 0.000, 14:35:10.670
54, 6.04, 16.49, -0.99, 2.54, 0.000, 0.000, 0.000, 14:35:10.670
55, -250.96, 5.01, 17.48, 17.19, 0.000, 0.000, 0.000, 14:35:10.691
56, 278.68, 0.69, 18.37, 18.63, 0.000, 0.000, 0.000, 14:35:10.691
57, 158.63, 18.97, -0.43, 6.30, 0.000, 0.000, 0.000, 14:35:10.691
58, -266.74, 10.44, 8.91, 9.78, 0.000, 0.000, 0.000, 14:35:10.692
59, 99.72, -1.49, 26.93, 21.70, 0.000, 0.000, 0.000, 14:35:10.713
60, 276.58, 16.08, 5.76, 7.62, 0.000, 0.000, 0.000, 14:35:10.713
61, -138.57, 12.39, 5.72, 6.09, 0.000, 0.000, 0.000, 14:35:10.714
62, -113.66, -3.17, 23.66, 15.14, 0.000, 0.000, 0.000, 14:35:10.714
63, 339.11, 2.67, 10.37, 6.23, 0.000, 0.000, 0.000, 14:35:10.736
64, 8.81, 16.61, 0.76, 3.73, 0.000, 0.000, 0.000, 14:35:10.736
65, -264.31, 7.21, 14.67, 15.95, 0.000, 0.000, 0.000, 14:35:10.737
66, 270.26, 1.85, 16.84, 18.18, 0.000, 0.000, 0.000, 14:35:10.737
67, 154.97, 15.41, 4.11, 4.72, 0.000, 0.000, 0.000, 14:35:10.737
68, -275.76, 13.29, 10.03, 14.89, 0.000, 0.000, 0.000, 14:35:10.737
69, 99.56, -1.48, 24.98, 22.66, 0.000, 0.000, 0.000, 14:35:10.759
70, 273.69, 12.63, 4.64, 7.06, 0.000, 0.000, 0.000, 14:35:10.759
71, -144.33, 18.67, 2.44, 4.61, 0.000, 0.000, 0.000, 14:35:10.759
72, -126.84, -2.07, 20.30, 22.03, 0.000, 0.000, 0.000, 14:35:10.759
73, 339.25, 8.12, 8.28, 8.86, 0.000, 0.000, 0.000, 14:35:10.781
74, 11.99, 16.47, 1.10, 5.58, 0.000, 0.000, 0.000, 14:35:10.781
75, -258.92, 8.12, 15.34, 16.24, 0.000, 0.000, 0.000, 14:35:10.782
76, 266.48, -4.20, 15.59, 21.29, 0.000, 0.000, 0.000, 14:35:10.782
77, 163.84, 15.23, 4.02, 3.06, 0.000, 0.000, 0.000, 14:35:10.803
78, -270.43, 14.13, 8.21, 9.71, 0.000, 0.000, 0.000, 14:35:10.804
79, 87.81, -7.70, 23.50, 27.86, 0.000, 0.000, 0.000, 14:35:10.804
80, 275.85, 18.02, 5.56, 11.67, 0.000, 0.000, 0.000, 14:35:10.804
81, -145.79, 16.19, 3.53, 6.20, 0.000, 0.000, 0.000, 14:35:10.826
82, -127.87, -0.65, 22.82, 18.92, 0.000, 0.000, 0.000, 14:35:10.826
83, 346.39, 3.94, 12.15, 9.13, 0.000, 0.000, 0.000, 14:35:10.826
84, 10.51, 19.79, -0.13, 1.05, 0.000, 0.000, 0.000, 14:35:10.827
85, -260.04, 9.05, 13.90, 16.54, 0.000, 0.000, 0.000, 14:35:10.827
86, 263.99, -3.02, 21.07, 16.39, 0.000, 0.000, 0.000, 14:35:10.827
87, 166.23, 20.54, 2.76, 5.82, 0.000, 0.000, 0.000, 14:35:10.848
88, -265.20, 10.25, 9.22, 8.53, 0.000, 0.000, 0.000, 14:35:10.849
89, 97.67, -0.17, 20.40, 21.03, 0.000, 0.000, 0.000, 14:35:10.849
90, 281.16, 11.02, 4.14, 4.14, 0.000, 0.000, 0.000, 14:35:10.850
91, -143.96, 17.40, 2.98, 5.54, 0.000, 0.000, 0.000, 14:35:10.871
92, -131.48, -3.97, 20.93, 18.80, 0.000, 0.000, 0.000, 14:35:10.871
93, 354.16, 6.73, 12.16, 14.49, 0.000, 0.000, 0.000, 14:35:10.871
94, 12.76, 15.17, 0.38, 2.98, 0.000, 0.000, 0.000, 14:35:10.872
95, -262.20, 4.47, 15.86, 15.10, 0.000, 0.000, 0.000, 14:35:10.893
96, 272.68, 1.17, 20.95, 17.82, 0.000, 0.000, 0.000, 14:35:10.894
97, 164.08, 12.52, 0.45, 6.62, 0.000, 0.000, 0.000, 14:35:10.894
98, -259.45, 15.95, 8.11, 7.22, 0.000, 0.000, 0.000, 14:35:10.894
99, 88.16, -0.64, 23.74, 21.79, 0.000, 0.000, 0.000, 14:35:10.916
100, 278.86, 9.08, 3.16, 8.89, 0.000, 0.000, 0.000, 14:35:10.916
101, -140.43, 14.41, 3.41, 5.80, 0.000, 0.000, 0.000, 14:35:10.917
102, -130.44, 1.06, 24.08, 19.38, 0.000, 0.000, 0.000, 14:35:10.918
103, 345.62, 3.59, 11.02, 14.51, 0.000, 0.000, 0.000, 14:35:10.918
104, 19.11, 13.37, 0.34, 5.36, 0.000, 0.000, 0.000, 14:35:10.918
105, -263.81, 6.88, 16.71, 16.44, 0.000, 0.000, 0.000, 14:35:10.939
106, 263.15, -4.40, 20.33, 18.75, 0.000, 0.000, 0.000, 14:35:10.939
107, 164.61, 20.12, 2.25, 3.18, 0.000, 0.000, 0.000, 14:35:10.939
108, -269.05, 12.70, 5.83, 5.51, 0.000, 0.000, 0.000, 14:35:10.939
109, 89.12, -4.60, 24.23, 22.59, 0.000, 0.000, 0.000, 14:35:10.961
110, 284.46, 11.75, 1.45, 9.15, 0.000, 0.000, 0.000, 14:35:10.961
111, -132.85, 22.49, 5.75, 6.11, 0.000, 0.000, 0.000, 14:35:10.962
112, -132.66, -1.88, 20.41, 15.23, 0.000, 0.000, 0.000, 14:35:10.962
113, 342.65, 4.85, 11.75, 12.37, 0.000, 0.000, 0.000, 14:35:10.983
114, 19.59, 23.63, 1.83, 3.24, 0.000, 0.000, 0.000, 14:35:10.983
115, -260.07, 2.73, 16.60, 16.65, 0.000, 0.000, 0.000, 14:35:10.984
116, 261.96, 0.44, 23.08, 19.26, 0.000, 0.000, 0.000, 14:35:10.984
117, 166.58, 17.38, 2.21, 7.07, 0.000, 0.000, 0.000, 14:35:11.006
118, -263.97, 13.33, 7.87, 5.72, 0.000, 0.000, 0.000, 14:35:11.006
119, 85.58, -3.93, 23.55, 16.77, 0.000, 0.000, 0.000, 14:35:11.028
120, 285.69, 15.53, 1.91, 6.74, 0.000, 0.000, 0.000, 14:35:11.029
121, -132.61, 18.15, -0.95, 7.44, 0.000, 0.000, 0.000, 14:35:11.029
122, -137.31, -2.73, 25.65, 19.31, 0.000, 0.000, 0.000, 14:35:11.029
123, 339.59, 0.64, 15.08, 13.96, 0.000, 0.000, 0.000, 14:35:11.030
124, 17.08, 19.70, 3.95, 5.38, 0.000, 0.000, 0.000, 14:35:11.030
125, -264.76, 9.46, 15.68, 13.47, 0.000, 0.000, 0.000, 14:35:11.051
126, 267.64, -0.58, 18.05, 19.37, 0.000, 0.000, 0.000, 14:35:11.051
127, 167.55, 14.64, 2.16, 4.63, 0.000, 0.000, 0.000, 14:35:11.051
128, -265.25, 10.44, 6.06, 8.30, 0.000, 0.000, 0.000, 14:35:11.051
129, 82.30, -5.84, 22.71, 23.53, 0.000, 0.000, 0.000, 14:35:11.052
130, 284.27, 11.44, 3.28, 7.61, 0.000, 0.000, 0.000, 14:35:11.052
131, -132.31, 18.49, 4.76, 9.24, 0.000, 0.000, 0.000, 14:35:11.073
132, -138.30, 1.33, 21.92, 18.52, 0.000, 0.000, 0.000, 14:35:11.073
133, 340.76, 3.05, 14.71, 11.75, 0.000, 0.000, 0.000, 14:35:11.074
134, 20.88, 18.05, 1.64, 5.78, 0.000, 0.000, 0.000, 14:35:11.074
135, -264.21, 11.01, 14.10, 15.36, 0.000, 0.000, 0.000, 14:35:11.096
136, 261.41, -0.91, 17.82, 18.54, 0.000, 0.000, 0.000, 14:35:11.096
137, 172.25, 15.73, 1.63, 9.05, 0.000, 0.000, 0.000, 14:35:11.096
138, -261.47, 12.49, 4.28, 10.20, 0.000, 0.000, 0.000, 14:35:11.097
139, 75.61, -2.91, 25.86, 23.65, 0.000, 0.000, 0.000, 14:35:11.097
140, 283.16, 12.67, 5.98, 8.64, 0.000, 0.000, 0.000, 14:35:11.098
141, -131.61, 16.12, 2.05, 5.28, 0.000, 0.000, 0.000, 14:35:11.118
142, -137.19, 0.44, 20.56, 22.49, 0.000, 0.000, 0.000, 14:35:11.119
143, 343.25, 2.78, 10.05, 12.62, 0.000, 0.000, 0.000, 14:35:11.119
144, 17.18, 19.16, 6.24, 5.07, 0.000, 0.000, 0.000, 14:35:11.119
145, -262.69, 8.67, 15.28, 14.21, 0.000, 0.000, 0.000, 14:35:11.141
146, 259.53, -3.09, 21.70, 17.01, 0.000, 0.000, 0.000, 14:35:11.141
147, 171.84, 17.21, 2.37, 1.55, 0.000, 0.000, 0.000, 14:35:11.141
148, -259.85, 16.72, 5.22, 9.08, 0.000, 0.000, 0.000, 14:35:11.141
149, 78.55, -1.49, 24.94, 22.96, 0.000, 0.000, 0.000, 14:35:11.163
150, 283.39, 13.84, 5.14, 4.36, 0.000, 0.000, 0.000, 14:35:11.163
151, -128.10, 12.29, 2.21, 8.53, 0.000, 0.000, 0.000, 14:35:11.164
152, -141.56, -3.23, 21.17, 17.92, 0.000, 0.000, 0.000, 14:35:11.164
153, 339.88, 7.64, 11.90, 11.51, 0.000, 0.000, 0.000, 14:35:11.186
154, 29.50, 18.61, -3.17, 4.56, 0.000, 0.000, 0.000, 14:35:11.186
155, -263.95, 5.48, 16.62, 15.05, 0.000, 0.000, 0.000, 14:35:11.186
156, 261.69, -0.50, 20.14, 19.21, 0.000, 0.000, 0.000, 14:35:11.187
157, 176.55, 12.47, 4.40, 2.38, 0.000, 0.000, 0.000, 14:35:11.187
158, -255.77, 12.45, 9.46, 7.68, 0.000, 0.000, 0.000, 14:35:11.187
159, 74.69, -2.90, 27.87, 21.04, 0.000, 0.000, 0.000, 14:35:11.208
160, 289.37, 9.87, 1.97, 7.78, 0.000, 0.000, 0.000, 14:35:11.209
161, -126.31, 18.69, 5.46, 10.05, 0.000, 0.000, 0.000, 14:35:11.209
162, -143.73, -2.07, 20.28, 26.66, 0.000, 0.000, 0.000, 14:35:11.209
163, 339.83, 9.44, 13.02, 13.67, 0.000, 0.000, 0.000, 14:35:11.231
164, 24.22, 16.81, 0.30, 5.51, 0.000, 0.000, 0.000, 14:35:11.231
165, -266.52, 5.90, 10.92, 11.66, 0.000, 0.000, 0.000, 14:35:11.232
166, 255.89, 0.19, 17.85, 19.47, 0.000, 0.000, 0.000, 14:35:11.232
167, 174.76, 17.47, 0.70, 3.82, 0.000, 0.000, 0.000, 14:35:11.253
168, -254.03, 20.87, 5.02, 10.48, 0.000, 0.000, 0.000, 14:35:11.254
169, 67.23, -9.85, 22.13, 20.08, 0.000, 0.000, 0.000, 14:35:11.254
170, 289.41, 12.39, 5.17, 7.35, 0.000, 0.000, 0.000, 14:35:11.254
171, -122.79, 15.69, -0.50, 1.97, 0.000, 0.000, 0.000, 14:35:11.276
172, -144.22, 0.71, 21.80, 17.69, 0.000, 0.000, 0.000, 14:35:11.276
173, 344.05, 5.93, 14.33, 14.45, 0.000, 0.000, 0.000, 14:35:11.276
174, 26.77, 21.85, 5.12, 5.36, 0.000, 0.000, 0.000, 14:35:11.276
175, -262.90, 7.00, 16.66, 14.62, 0.000, 0.000, 0.000, 14:35:11.277
176, 256.89, -1.37, 20.71, 20.08, 0.000, 0.000, 0.000, 14:35:11.277
177, 180.24, 11.65, 0.44, 1.09, 0.000, 0.000, 0.000, 14:35:11.298
178, -255.47, 6.94, 6.28, 7.04, 0.000, 0.000, 0.000, 14:35:11.298
179, 72.19, -4.84, 24.72, 24.22, 0.000, 0.000, 0.000, 14:35:11.299
180, 290.61, 14.73, 3.88, 3.00, 0.000, 0.000, 0.000, 14:35:11.299
181, -122.08, 15.56, 2.25, 3.97, 0.000, 0.000, 0.000, 14:35:11.321
182, -151.94, -2.61, 19.09, 23.82, 0.000, 0.000, 0.000, 14:35:11.321
183, 343.58, 8.05, 14.16, 10.47, 0.000, 0.000, 0.000, 14:35:11.321
184, 32.20, 19.28, 4.68, 3.64, 0.000, 0.000, 0.000, 14:35:11.321
185, -269.14, 6.13, 15.12, 14.06, 0.000, 0.000, 0.000, 14:35:11.343
186, 248.90, 4.11, 16.41, 17.22, 0.000, 0.000, 0.000, 14:35:11.343
187, 176.53, 14.60, 5.63, 6.64, 0.000, 0.000, 0.000, 14:35:11.344
188, -259.62, 12.39, 6.74, 8.63, 0.000, 0.000, 0.000, 14:35:11.344
189, 63.44, -1.38, 25.02, 23.45, 0.000, 0.000, 0.000, 14:35:11.366
190, 282.58, 8.41, 4.93, 7.28, 0.000, 0.000, 0.000, 14:35:11.366
191, -124.10, 17.33, 3.45, 5.95, 0.000, 0.000, 0.000, 14:35:11.366
192, -154.79, 0.76, 22.86, 18.74, 0.000, 0.000, 0.000, 14:35:11.366
193, 341.45, 3.21, 12.52, 10.85, 0.000, 0.000, 0.000, 14:35:11.367
194, 32.86, 17.38, -0.91, 4.18, 0.000, 0.000, 0.000, 14:35:11.367
195, -265.66, 11.04, 12.65, 15.21, 0.000, 0.000, 0.000, 14:35:11.388
196, 250.87, -5.79, 20.56, 20.07, 0.000, 0.000, 0.000, 14:35:11.388
197, 184.59, 12.48, -1.36, 4.15, 0.000, 0.000, 0.000, 14:35:11.389
198, -255.34, 16.60, 7.57, 12.32, 0.000, 0.000, 0.000, 14:35:11.389
199, 62.78, -3.20, 24.08, 20.94, 0.000, 0.000, 0.000, 14:35:11.411
200, 296.07, 10.55, 4.24, 6.05, 0.000, 0.000, 0.000, 14:35:11.411
0, -116.17, 20.71, 4.56, 4.07, 0.000, 0.000, 0.000, 14:35:11.411
1, -149.35, -1.51, 26.70, 21.39, 0.000, 0.000, 0.000, 14:35:11.412
2, 346.03, 2.28, 12.51, 16.71, 0.000, 0.000, 0.000, 14:35:11.412
3, 30.36, 19.89, 3.77, 2.67, 0.000, 0.000, 0.000, 14:35:11.433
4, -268.89, 7.53, 14.46, 14.15, 0.000, 0.000, 0.000, 14:35:11.434
5, 252.84, -0.30, 17.28, 21.43, 0.000, 0.000, 0.000, 14:35:11.434
6, 185.89, 16.95, 2.79, 6.95, 0.000, 0.000, 0.000, 14:35:11.434
7, -249.97, 16.16, 9.35, 5.38, 0.000, 0.000, 0.000, 14:35:11.456
8, 65.73, -5.72, 24.14, 24.90, 0.000, 0.000, 0.000, 14:35:11.456
9, 298.96, 16.72, 7.06, 8.63, 0.000, 0.000, 0.000, 14:35:11.456
10, -100.69, 17.24, 4.84, -0.21, 0.000, 0.000, 0.000, 14:35:11.456
11, -143.91, -2.85, 21.88, 22.62, 0.000, 0.000, 0.000, 14:35:11.478
12, 345.91, 4.83, 10.49, 17.78, 0.000, 0.000, 0.000, 14:35:11.479
13, 31.23, 12.77, 3.43, 3.67, 0.000, 0.000, 0.000, 14:35:11.479
14, -280.78, 10.21, 11.64, 12.84, 0.000, 0.000, 0.000, 14:35:11.480
15, 238.61, -0.34, 18.13, 22.57, 0.000, 0.000, 0.000, 14:35:11.501
16, 176.30, 13.19, -0.61, 6.91, 0.000, 0.000, 0.000, 14:35:11.501
17, -260.67, 11.58, 5.29, 8.59, 0.000, 0.000, 0.000, 14:35:11.502
18, 47.09, -5.22, 24.13, 20.31, 0.000, 0.000, 0.000, 14:35:11.502
19, 285.10, 13.89, 6.44, 4.69, 0.000, 0.000, 0.000, 14:35:11.502
20, -122.64, 19.09, 3.10, 8.76, 0.000, 0.000, 0.000, 14:35:11.502
21, -163.69, 1.30, 20.23, 19.80, 0.000, 0.000, 0.000, 14:35:11.523
22, 346.26, 2.59, 13.95, 13.72, 0.000, 0.000, 0.000, 14:35:11.523
23, 39.76, 17.68, 4.07, 4.01, 0.000, 0.000, 0.000, 14:35:11.524
24, -267.72, 9.97, 10.93, 15.94, 0.000, 0.000, 0.000, 14:35:11.524
25, 251.43, 2.88, 19.96, 23.13, 0.000, 0.000, 0.000, 14:35:11.546
26, 189.25, 15.49, 1.03, 7.64, 0.000, 0.000, 0.000, 14:35:11.546
27, -253.76, 14.48, 6.40, 8.01, 0.000, 0.000, 0.000, 14:35:11.547
28, 56.68, -7.75, 24.76, 23.65, 0.000, 0.000, 0.000, 14:35:11.547
29, 296.00, 10.34, 9.22, 3.98, 0.000, 0.000, 0.000, 14:35:11.568
30, -110.02, 23.80, 4.24, 3.64, 0.000, 0.000, 0.000, 14:35:11.568
31, -155.25, -6.78, 21.42, 18.98, 0.000, 0.000, 0.000, 14:35:11.569
32, 346.07, 4.04, 13.71, 14.10, 0.000, 0.000, 0.000, 14:35:11.569
33, 39.93, 19.43, 5.40, 4.44, 0.000, 0.000, 0.000, 14:35:11.591
34, -269.28, 8.89, 15.50, 15.72, 0.000, 0.000, 0.000, 14:35:11.591
35, 246.84, -3.10, 22.32, 18.82, 0.000, 0.000, 0.000, 14:35:11.591
36, 189.25, 15.78, -0.34, 6.69, 0.000, 0.000, 0.000, 14:35:11.592
37, -245.68, 12.13, 6.29, 6.24, 0.000, 0.000, 0.000, 14:35:11.592
38, 51.47, -6.77, 23.59, 25.40, 0.000, 0.000, 0.000, 14:35:11.593
39, 294.96, 15.70, 3.60, 6.57, 0.000, 0.000, 0.000, 14:35:11.613
40, -105.14, 14.79, -1.57, 4.21, 0.000, 0.000, 0.000, 14:35:11.613
41, -160.77, -1.52, 22.16, 23.05, 0.000, 0.000, 0.000, 14:35:11.614
42, 341.87, 6.62, 12.96, 13.87, 0.000, 0.000, 0.000, 14:35:11.614
43, 44.18, 18.37, 1.51, 6.01, 0.000, 0.000, 0.000, 14:35:11.636
44, -265.87, 8.93, 12.19, 13.20, 0.000, 0.000, 0.000, 14:35:11.636
45, 244.13, -0.27, 16.99, 17.08, 0.000, 0.000, 0.000, 14:35:11.636
46, 189.49, 14.99, 0.97, 0.96, 0.000, 0.000, 0.000, 14:35:11.636
47, -247.06, 14.07, 6.53, 6.84, 0.000, 0.000, 0.000, 14:35:11.658
48, 54.40, 0.84, 24.20, 22.82, 0.000, 0.000, 0.000, 14:35:11.658
49, 298.98, 6.00, 2.86, 10.04, 0.000, 0.000, 0.000, 14:35:11.659
50, -113.57, 17.56, 2.01, 7.38, 0.000, 0.000, 0.000, 14:35:11.659
51, -161.03, 0.07, 20.36, 20.17, 0.000, 0.000, 0.000, 14:35:11.681
52, 345.73, 5.56, 14.31, 13.45, 0.000, 0.000, 0.000, 14:35:11.681
53, 48.68, 14.07, 3.72, 4.56, 0.000, 0.000, 0.000, 14:35:11.681
54, -269.81, 11.24, 10.79, 15.23, 0.000, 0.000, 0.000, 14:35:11.681
55, 244.87, -1.10, 20.53, 19.36, 0.000, 0.000, 0.000, 14:35:11.682
56, 191.90, 17.27, 3.66, 7.76, 0.000, 0.000, 0.000, 14:35:11.683
57, -247.18, 18.61, 6.36, 10.79, 0.000, 0.000, 0.000, 14:35:11.703
58, 45.08, -7.06, 28.21, 23.78, 0.000, 0.000, 0.000, 14:35:11.703
59, 302.89, 8.35, 7.73, 7.54, 0.000, 0.000, 0.000, 14:35:11.704
60, -102.49, 16.51, 4.19, 4.75, 0.000, 0.000, 0.000, 14:35:11.704
61, -161.07, -0.89, 22.28, 17.38, 0.000, 0.000, 0.000, 14:35:11.726
62, 344.21, 4.35, 13.01, 15.93, 0.000, 0.000, 0.000, 14:35:11.726
63, 45.79, 18.18, 3.28, 3.77, 0.000, 0.000, 0.000, 14:35:11.727
64, -273.04, 0.65, 13.40, 13.05, 0.000, 0.000, 0.000, 14:35:11.727
65, 237.69, 0.36, 21.09, 19.78, 0.000, 0.000, 0.000, 14:35:11.748
66, 191.82, 26.89, 0.71, 7.46, 0.000, 0.000, 0.000, 14:35:11.748
67, -241.21, 9.76, 4.17, 8.25, 0.000, 0.000, 0.000, 14:35:11.749
68, 46.40, -1.48, 21.87, 22.53, 0.000, 0.000, 0.000, 14:35:11.749
69, 300.65, 12.77, 5.41, 5.10, 0.000, 0.000, 0.000, 14:35:11.771
70, -109.26, 18.31, 2.06, 5.50, 0.000, 0.000, 0.000, 14:35:11.771
71, -171.47, -2.06, 20.67, 21.73, 0.000, 0.000, 0.000, 14:35:11.772
72, 341.50, 5.70, 13.36, 14.56, 0.000, 0.000, 0.000, 14:35:11.772
73, 43.57, 16.81, 4.57, 3.33, 0.000, 0.000, 0.000, 14:35:11.774
74, -277.35, 3.98, 12.30, 13.05, 0.000, 0.000, 0.000, 14:35:11.775
75, 234.44, 1.37, 19.43, 18.59, 0.000, 0.000, 0.000, 14:35:11.795
76, 191.95, 13.69, 5.26, 6.53, 0.000, 0.000, 0.000, 14:35:11.795
77, -247.97, 12.71, 5.12, 7.03, 0.000, 0.000, 0.000, 14:35:11.795
78, 42.99, -0.68, 24.84, 21.25, 0.000, 0.000, 0.000, 14:35:11.795
79, 297.48, 13.67, 1.92, 5.61, 0.000, 0.000, 0.000, 14:35:11.816
80, -114.79, 19.47, -0.14, 4.43, 0.000, 0.000, 0.000, 14:35:11.816
81, -161.56, 1.46, 20.49, 19.96, 0.000, 0.000, 0.000, 14:35:11.817
82, 345.05, 3.30, 13.84, 11.32, 0.000, 0.000, 0.000, 14:35:11.817
83, 45.39, 19.14, 0.08, 2.68, 0.000, 0.000, 0.000, 14:35:11.838
84, -274.76, 9.33, 15.28, 12.72, 0.000, 0.000, 0.000, 14:35:11.838
85, 235.98, -9.72, 20.33, 21.10, 0.000, 0.000, 0.000, 14:35:11.839
86, 194.49, 16.87, 5.54, 6.96, 0.000, 0.000, 0.000, 14:35:11.839
87, -246.94, 14.80, 4.58, 7.25, 0.000, 0.000, 0.000, 14:35:11.861
88, 36.66, -2.25, 25.24, 20.63, 0.000, 0.000, 0.000, 14:35:11.861
89, 293.61, 11.05, 6.25, 8.75, 0.000, 0.000, 0.000, 14:35:11.862
90, -109.65, 19.37, 4.20, 1.15, 0.000, 0.000, 0.000, 14:35:11.862
91, -173.30, -5.97, 20.29, 18.02, 0.000, 0.000, 0.000, 14:35:11.862
92, 340.32, 3.97, 12.17, 14.63, 0.000, 0.000, 0.000, 14:35:11.862
93, 45.34, 19.47, 0.75, 1.60, 0.000, 0.000, 0.000, 14:35:11.883
94, -274.84, 4.33, 12.15, 13.99, 0.000, 0.000, 0.000, 14:35:11.884
95, 235.38, 1.23, 21.10, 21.37, 0.000, 0.000, 0.000, 14:35:11.884
96, 190.53, 14.14, 6.58, 7.31, 0.000, 0.000, 0.000, 14:35:11.884
97, -252.92, 16.24, 5.62, 8.56, 0.000, 0.000, 0.000, 14:35:11.906
98, 39.19, -2.79, 23.47, 24.07, 0.000, 0.000, 0.000, 14:35:11.906
99, 309.62, 15.44, 5.68, 6.75, 0.000, 0.000, 0.000, 14:35:11.906
100, -99.59, 15.39, -0.00, 7.88, 0.000, 0.000, 0.000, 14:35:11.907
101, -171.63, 0.12, 22.94, 18.84, 0.000, 0.000, 0.000, 14:35:11.932
102, 331.03, 2.67, 10.71, 12.04, 0.000, 0.000, 0.000, 14:35:11.932
103, 52.82, 12.55, 3.81, 1.87, 0.000, 0.000, 0.000, 14:35:11.932
104, -264.73, 8.16, 14.31, 12.58, 0.000, 0.000, 0.000, 14:35:11.932
105, 230.58, 0.25, 20.63, 17.64, 0.000, 0.000, 0.000, 14:35:11.951
106, 201.14, 19.64, 1.59, 5.67, 0.000, 0.000, 0.000, 14:35:11.951
107, -241.02, 14.67, 8.65, 7.38, 0.000, 0.000, 0.000, 14:35:11.953
108, 24.93, -1.43, 24.71, 23.25, 0.000, 0.000, 0.000, 14:35:11.953
109, 305.83, 11.90, 5.40, 6.47, 0.000, 0.000, 0.000, 14:35:11.954
110, -94.26, 18.62, 4.36, 3.37, 0.000, 0.000, 0.000, 14:35:11.954
111, -182.79, 5.63, 21.21, 22.73, 0.000, 0.000, 0.000, 14:35:11.973
112, 339.63, 1.85, 14.41, 14.34, 0.000, 0.000, 0.000, 14:35:11.973
113, 56.79, 20.20, 2.18, 4.78, 0.000, 0.000, 0.000, 14:35:11.974
114, -275.39, 10.62, 11.74, 14.94, 0.000, 0.000, 0.000, 14:35:11.974
115, 230.27, -1.75, 19.63, 22.00, 0.000, 0.000, 0.000, 14:35:11.996
116, 203.34, 12.91, 3.92, 5.62, 0.000, 0.000, 0.000, 14:35:11.996
117, -250.11, 12.77, 6.48, 5.08, 0.000, 0.000, 0.000, 14:35:11.996
118, 30.99, -5.50, 22.81, 23.21, 0.000, 0.000, 0.000, 14:35:11.996
119, 306.56, 10.46, 5.65, 10.48, 0.000, 0.000, 0.000, 14:35:12.018
120, -105.87, 23.25, 2.30, 7.00, 0.000, 0.000, 0.000, 14:35:12.019
121, -183.70, -5.50, 20.40, 19.08, 0.000, 0.000, 0.000, 14:35:12.019
122, 351.55, 7.10, 16.22, 15.06, 0.000, 0.000, 0.000, 14:35:12.019
123, 50.06, 16.53, 0.89, 5.73, 0.000, 0.000, 0.000, 14:35:12.041
124, -279.02, 11.57, 12.23, 9.64, 0.000, 0.000, 0.000, 14:35:12.041
125, 236.53, -3.91, 21.94, 17.39, 0.000, 0.000, 0.000, 14:35:12.042
126, 201.77, 16.72, 0.82, 5.49, 0.000, 0.000, 0.000, 14:35:12.042
127, -241.58, 18.04, 7.32, 10.45, 0.000, 0.000, 0.000, 14:35:12.042
128, 33.74, -6.14, 23.27, 24.61, 0.000, 0.000, 0.000, 14:35:12.042
129, 303.00, 13.89, 5.55, 7.41, 0.000, 0.000, 0.000, 14:35:12.063
130, -120.10, 11.98, 2.21, 5.88, 0.000, 0.000, 0.000, 14:35:12.064
131, -167.76, -3.32, 20.69, 17.85, 0.000, 0.000, 0.000, 14:35:12.064
132, 350.93, 6.37, 11.62, 9.54, 0.000, 0.000, 0.000, 14:35:12.064
133, 54.82, 17.32, 0.13, 5.12, 0.000, 0.000, 0.000, 14:35:12.086
134, -262.10, 6.61, 14.35, 11.72, 0.000, 0.000, 0.000, 14:35:12.086
135, 232.54, -1.11, 18.99, 16.91, 0.000, 0.000, 0.000, 14:35:12.086
136, 186.59, 17.11, 5.11, 4.57, 0.000, 0.000, 0.000, 14:35:12.086
137, -246.56, 18.52, 3.51, 6.60, 0.000, 0.000, 0.000, 14:35:12.108
138, 36.85, 2.08, 25.32, 22.02, 0.000, 0.000, 0.000, 14:35:12.109
139, 290.74, 5.83, 3.10, 11.62, 0.000, 0.000, 0.000, 14:35:12.109
140, -86.26, 15.37, 1.30, 6.18, 0.000, 0.000, 0.000, 14:35:12.109
141, -173.73, 2.82, 17.83, 19.91, 0.000, 0.000, 0.000, 14:35:12.131
142, 333.04, 7.20, 17.20, 16.44, 0.000, 0.000, 0.000, 14:35:12.131
143, 59.54, 15.60, 2.33, 1.48, 0.000, 0.000, 0.000, 14:35:12.131
144, -311.33, 8.64, 9.72, 13.16, 0.000, 0.000, 0.000, 14:35:12.132
145, 281.21, -1.64, 21.12, 19.97, 0.000, 0.000, 0.000, 14:35:12.132
146, 256.99, 16.25, 0.96, 6.52, 0.000, 0.000, 0.000, 14:35:12.132
147, -211.07, 15.03, 6.77, 11.24, 0.000, 0.000, 0.000, 14:35:12.153
148, 12.64, -5.72, 23.89, 18.42, 0.000, 0.000, 0.000, 14:35:12.154
149, 256.62, 10.28, 7.76, 8.95, 0.000, 0.000, 0.000, 14:35:12.154
150, -121.36, 18.93, 2.22, 6.39, 0.000, 0.000, 0.000, 14:35:12.154
151, -207.34, 0.54, 21.18, 19.93, 0.000, 0.000, 0.000, 14:35:12.176
152, 286.39, 0.87, 14.30, 19.83, 0.000, 0.000, 0.000, 14:35:12.176
153, 44.68, 17.45, 2.51, 4.28, 0.000, 0.000, 0.000, 14:35:12.176
154, -260.22, 12.72, 13.75, 13.67, 0.000, 0.000, 0.000, 14:35:12.176
155, 249.65, -6.13, 19.90, 20.51, 0.000, 0.000, 0.000, 14:35:12.198
156, 223.32, 17.38, 2.60, 4.71, 0.000, 0.000, 0.000, 14:35:12.198
157, -228.77, 11.03, 4.56, 7.78, 0.000, 0.000, 0.000, 14:35:12.199
158, -12.40, -0.85, 25.18, 23.27, 0.000, 0.000, 0.000, 14:35:12.200
159, 304.73, 8.14, 5.70, 7.56, 0.000, 0.000, 0.000, 14:35:12.221
160, -35.62, 16.30, 1.88, 4.05, 0.000, 0.000, 0.000, 14:35:12.221
161, -121.67, -0.42, 20.75, 21.84, 0.000, 0.000, 0.000, 14:35:12.222
162, 363.98, 3.10, 13.54, 11.49, 0.000, 0.000, 0.000, 14:35:12.222
163, 28.25, 16.67, -0.54, 1.46, 0.000, 0.000, 0.000, 14:35:12.222
164, -342.63, 8.39, 10.42, 12.96, 0.000, 0.000, 0.000, 14:35:12.222
165, 190.59, -0.04, 24.28, 19.27, 0.000, 0.000, 0.000, 14:35:12.243
166, 270.57, 14.40, 2.69, 6.13, 0.000, 0.000, 0.000, 14:35:12.243
167, -233.48, 14.71, 3.87, 5.47, 0.000, 0.000, 0.000, 14:35:12.244
168, -97.55, -2.26, 24.69, 21.90, 0.000, 0.000, 0.000, 14:35:12.244
169, 224.87, 8.20, 2.96, 7.41, 0.000, 0.000, 0.000, 14:35:12.267
170, -99.52, 15.96, 1.85, 5.00, 0.000, 0.000, 0.000, 14:35:12.267
171, -152.98, -0.17, 19.80, 19.26, 0.000, 0.000, 0.000, 14:35:12.267
172, 416.85, 6.27, 14.72, 16.11, 0.000, 0.000, 0.000, 14:35:12.267
173, 91.38, 16.41, 3.34, 4.95, 0.000, 0.000, 0.000, 14:35:12.288
174, -297.02, 13.95, 13.45, 10.14, 0.000, 0.000, 0.000, 14:35:12.288
175, 206.41, -8.85, 21.51, 20.25, 0.000, 0.000, 0.000, 14:35:12.289
176, 206.06, 19.96, 2.46, 6.83, 0.000, 0.000, 0.000, 14:35:12.289
177, -137.00, 12.78, 9.56, 10.58, 0.000, 0.000, 0.000, 14:35:12.311
178, 93.60, -0.95, 24.16, 23.84, 0.000, 0.000, 0.000, 14:35:12.311
179, 211.74, 10.61, 5.15, 11.81, 0.000, 0.000, 0.000, 14:35:12.312
180, -201.79, 17.13, 2.29, 0.69, 0.000, 0.000, 0.000, 14:35:12.312
181, -161.15, 0.39, 18.63, 16.55, 0.000, 0.000, 0.000, 14:35:12.312
182, 268.35, 5.53, 15.84, 13.62, 0.000, 0.000, 0.000, 14:35:12.312
183, 134.64, 20.50, 4.78, 6.48, 0.000, 0.000, 0.000, 14:35:12.333
184, -272.01, 3.82, 10.91, 11.43, 0.000, 0.000, 0.000, 14:35:12.334
185, 191.82, -2.36, 17.84, 21.07, 0.000, 0.000, 0.000, 14:35:12.334
186, 123.07, 13.59, 6.12, 7.15, 0.000, 0.000, 0.000, 14:35:12.334
187, -179.96, 13.95, 6.57, 8.41, 0.000, 0.000, 0.000, 14:35:12.356
188, 101.81, -4.46, 23.61, 18.73, 0.000, 0.000, 0.000, 14:35:12.356
189, 259.32, 11.99, 6.42, 8.61, 0.000, 0.000, 0.000, 14:35:12.356
190, -256.46, 21.35, 0.94, 4.52, 0.000, 0.000, 0.000, 14:35:12.357
191, -194.83, 0.05, 19.20, 19.86, 0.000, 0.000, 0.000, 14:35:12.378
192, 467.16, 8.34, 14.97, 12.93, 0.000, 0.000, 0.000, 14:35:12.378
193, 242.18, 12.70, 2.25, 4.74, 0.000, 0.000, 0.000, 14:35:12.379
194, -392.28, 7.01, 10.82, 11.86, 0.000, 0.000, 0.000, 14:35:12.379
195, 27.82, -2.95, 22.91, 18.29, 0.000, 0.000, 0.000, 14:35:12.401
196, 285.63, 19.46, -0.10, 3.01, 0.000, 0.000, 0.000, 14:35:12.401
197, -145.93, 14.31, 1.98, 6.64, 0.000, 0.000, 0.000, 14:35:12.401
198, 196.73, -3.25, 22.40, 19.50, 0.000, 0.000, 0.000, 14:35:12.402
199, 280.90, 13.79, 3.74, 10.68, 0.000, 0.000, 0.000, 14:35:12.402
200, -292.16, 18.03, 0.47, 8.34, 0.000, 0.000, 0.000, 14:35:12.402
0, -351.98, 5.36, 21.17, 19.61, 0.000, 0.000, 0.000, 14:35:12.423
1, 600.65, -0.61, 12.13, 12.84, 0.000, 0.000, 0.000, 14:35:12.424
2, 159.85, 18.63, 0.77, 6.56, 0.000, 0.000, 0.000, 14:35:12.424
3, -418.91, 6.90, 15.87, 11.68, 0.000, 0.000, 0.000, 14:35:12.446
4, -63.65, -8.03, 20.03, 22.19, 0.000, 0.000, 0.000, 14:35:12.446
5, 283.16, 12.27, 5.67, 2.41, 0.000, 0.000, 0.000, 14:35:12.449
6, -247.02, 17.03, 8.27, 8.83, 0.000, 0.000, 0.000, 14:35:12.449
7, 86.62, -2.49, 28.09, 23.41, 0.000, 0.000, 0.000, 14:35:12.449
8, 298.46, 9.74, 10.66, 11.67, 0.000, 0.000, 0.000, 14:35:12.450
9, -247.00, 19.00, 2.60, 5.47, 0.000, 0.000, 0.000, 14:35:12.468
10, -172.13, -2.13, 21.31, 18.38, 0.000, 0.000, 0.000, 14:35:12.468
11, 500.65, 3.32, 13.05, 17.45, 0.000, 0.000, 0.000, 14:35:12.469
12, 275.67, 16.63, 0.70, 4.23, 0.000, 0.000, 0.000, 14:35:12.469
13, -179.32, 13.61, 9.33, 13.07, 0.000, 0.000, 0.000, 14:35:12.491
14, 172.46, -0.87, 20.77, 19.94, 0.000, 0.000, 0.000, 14:35:12.491
15, 119.09, 15.43, 4.68, 3.44, 0.000, 0.000, 0.000, 14:35:12.491
16, -291.53, 18.25, 6.57, 8.15, 0.000, 0.000, 0.000, 14:35:12.491
17, 156.24, -1.52, 23.20, 23.49, 0.000, 0.000, 0.000, 14:35:12.514
18, 295.33, 11.65, 7.44, 8.31, 0.000, 0.000, 0.000, 14:35:12.514
19, -260.56, 9.81, 2.18, 2.29, 0.000, 0.000, 0.000, 14:35:12.514
20, -265.09, 6.21, 23.14, 20.41, 0.000, 0.000, 0.000, 14:35:12.514
21, 114.32, 2.33, 15.93, 15.82, 0.000, 0.000, 0.000, 14:35:12.536
22, 118.24, 18.53, 3.16, 6.24, 0.000, 0.000, 0.000, 14:35:12.536
23, -203.93, 8.56, 10.53, 14.23, 0.000, 0.000, 0.000, 14:35:12.536
24, 377.55, -1.34, 23.18, 20.04, 0.000, 0.000, 0.000, 14:35:12.536
25, 76.58, 9.16, -5.19, 5.77, 0.000, 0.000, 0.000, 14:35:12.537
26, -385.58, 13.62, 3.13, 5.04, 0.000, 0.000, 0.000, 14:35:12.537
27, 236.39, -1.57, 25.02, 22.08, 0.000, 0.000, 0.000, 14:35:12.558
28, 572.53, 6.28, 8.12, 8.31, 0.000, 0.000, 0.000, 14:35:12.559
29, -64.38, 17.37, 4.61, 5.12, 0.000, 0.000, 0.000, 14:35:12.559
30, -305.89, 2.23, 21.78, 18.81, 0.000, 0.000, 0.000, 14:35:12.559
31, 40.84, 4.07, 17.86, 16.51, 0.000, 0.000, 0.000, 14:35:12.581
32, 125.73, 16.15, 1.85, 1.58, 0.000, 0.000, 0.000, 14:35:12.581
33, -58.38, 7.95, 10.34, 11.26, 0.000, 0.000, 0.000, 14:35:12.581
34, 110.31, -6.50, 22.14, 18.50, 0.000, 0.000, 0.000, 14:35:12.582
35, 301.18, 15.78, 2.40, 4.43, 0.000, 0.000, 0.000, 14:35:12.603
36, -213.59, 22.01, 6.66, 7.84, 0.000, 0.000, 0.000, 14:35:12.603
37, -107.78, -5.34, 23.23, 24.13, 0.000, 0.000, 0.000, 14:35:12.604
38, 342.10, 11.10, 3.89, 11.61, 0.000, 0.000, 0.000, 14:35:12.604
39, -62.86, 17.56, 4.82, 4.61, 0.000, 0.000, 0.000, 14:35:12.626
40, -28.78, 2.15, 19.25, 18.77, 0.000, 0.000, 0.000, 14:35:12.626
41, 406.18, 1.68, 15.63, 16.39, 0.000, 0.000, 0.000, 14:35:12.626
42, -124.52, 20.88, 1.32, 3.52, 0.000, 0.000, 0.000, 14:35:12.626
43, -286.61, 11.66, 11.55, 11.72, 0.000, 0.000, 0.000, 14:35:12.627
44, 260.21, -1.89, 20.48, 22.07, 0.000, 0.000, 0.000, 14:35:12.627
45, 263.18, 15.87, 0.24, 5.54, 0.000, 0.000, 0.000, 14:35:12.649
46, -294.87, 17.08, 6.68, 5.94, 0.000, 0.000, 0.000, 14:35:12.649
47, -218.90, -0.94, 22.67, 20.04, 0.000, 0.000, 0.000, 14:35:12.649
48, 357.02, 9.87, 5.74, 12.00, 0.000, 0.000, 0.000, 14:35:12.649
49, -120.13, 19.29, 4.94, 6.14, 0.000, 0.000, 0.000, 14:35:12.671
50, -227.52, -1.08, 18.38, 20.77, 0.000, 0.000, 0.000, 14:35:12.671
51, 359.19, -2.88, 17.43, 17.61, 0.000, 0.000, 0.000, 14:35:12.671
52, 317.86, 15.53, 4.43, 4.89, 0.000, 0.000, 0.000, 14:35:12.671
53, -311.76, 6.13, 13.73, 12.42, 0.000, 0.000, 0.000, 14:35:12.693
54, 267.98, 1.00, 20.17, 18.69, 0.000, 0.000, 0.000, 14:35:12.694
55, 223.63, 12.47, 2.80, 8.89, 0.000, 0.000, 0.000, 14:35:12.694
56, -153.12, 13.82, 1.53, 8.36, 0.000, 0.000, 0.000, 14:35:12.694
57, 5.28, -1.13, 22.71, 21.39, 0.000, 0.000, 0.000, 14:35:12.716
58, -50.07, 13.76, 7.89, 8.18, 0.000, 0.000, 0.000, 14:35:12.716
59, 47.05, 17.06, 0.99, 5.49, 0.000, 0.000, 0.000, 14:35:12.717
60, -8.52, 0.55, 22.02, 17.30, 0.000, 0.000, 0.000, 14:35:12.717
61, 209.55, -1.68, 13.61, 11.36, 0.000, 0.000, 0.000, 14:35:12.717
62, -8.58, 16.24, 0.70, 3.59, 0.000, 0.000, 0.000, 14:35:12.717
63, -462.31, 11.68, 13.94, 10.44, 0.000, 0.000, 0.000, 14:35:12.738
64, 330.55, -5.16, 22.60, 19.91, 0.000, 0.000, 0.000, 14:35:12.739
65, 353.64, 16.26, 4.44, 1.82, 0.000, 0.000, 0.000, 14:35:12.739
66, -143.29, 17.60, 6.44, 5.82, 0.000, 0.000, 0.000, 14:35:12.739
67, -68.17, -3.53, 25.46, 24.63, 0.000, 0.000, 0.000, 14:35:12.761
68, 99.90, 11.97, 9.36, 5.81, 0.000, 0.000, 0.000, 14:35:12.761
69, -75.54, 18.66, 3.25, 2.82, 0.000, 0.000, 0.000, 14:35:12.761
70, -67.06, 3.79, 18.56, 23.62, 0.000, 0.000, 0.000, 14:35:12.761
71, 461.49, 2.25, 12.61, 16.86, 0.000, 0.000, 0.000, 14:35:12.783
72, 275.41, 19.39, -1.08, 3.64, 0.000, 0.000, 0.000, 14:35:12.784
73, -490.15, 3.55, 15.84, 13.75, 0.000, 0.000, 0.000, 14:35:12.784
74, 89.11, -1.69, 23.41, 21.53, 0.000, 0.000, 0.000, 14:35:12.784
75, 150.05, 16.34, 3.81, 6.59, 0.000, 0.000, 0.000, 14:35:12.806
76, -381.98, 17.35, 7.05, 7.77, 0.000, 0.000, 0.000, 14:35:12.806
77, 164.16, -6.28, 22.71, 20.06, 0.000, 0.000, 0.000, 14:35:12.807
78, 166.27, 10.58, 6.00, 10.60, 0.000, 0.000, 0.000, 14:35:12.809
79, -43.13, 16.40, 1.00, 3.52, 0.000, 0.000, 0.000, 14:35:12.810
80, 47.10, 2.79, 20.46, 18.34, 0.000, 0.000, 0.000, 14:35:12.810
81, 314.90, 5.95, 15.76, 14.85, 0.000, 0.000, 0.000, 14:35:12.828
82, 147.74, 16.42, 1.19, 5.80, 0.000, 0.000, 0.000, 14:35:12.829
83, -278.65, 9.09, 8.40, 11.90, 0.000, 0.000, 0.000, 14:35:12.829
84, 68.53, -3.90, 17.97, 20.09, 0.000, 0.000, 0.000, 14:35:12.829
85, 319.82, 18.18, 4.89, 2.78, 0.000, 0.000, 0.000, 14:35:12.851
86, -221.20, 14.38, 4.35, 8.99, 0.000, 0.000, 0.000, 14:35:12.851
87, -165.75, -5.02, 24.25, 26.36, 0.000, 0.000, 0.000, 14:35:12.852
88, 153.19, 9.56, 7.15, 5.87, 0.000, 0.000, 0.000, 14:35:12.852
89, 102.61, 17.75, 3.77, 5.31, 0.000, 0.000, 0.000, 14:35:12.874
90, -284.01, 8.97, 19.28, 18.71, 0.000, 0.000, 0.000, 14:35:12.874
91, 451.83, -1.54, 18.22, 16.20, 0.000, 0.000, 0.000, 14:35:12.874
92, -15.79, 19.58, 1.14, 8.23, 0.000, 0.000, 0.000, 14:35:12.874
93, -187.54, 11.63, 12.47, 11.82, 0.000, 0.000, 0.000, 14:35:12.896
94, 249.56, -3.98, 23.36, 18.55, 0.000, 0.000, 0.000, 14:35:12.896
95, 121.32, 12.39, 1.38, 1.59, 0.000, 0.000, 0.000, 14:35:12.897
96, -148.06, 14.10, 0.06, 9.39, 0.000, 0.000, 0.000, 14:35:12.897
97, 66.09, -1.36, 23.41, 21.22, 0.000, 0.000, 0.000, 14:35:12.897
98, 381.10, 12.30, 7.32, 7.60, 0.000, 0.000, 0.000, 14:35:12.897
99, -422.48, 16.97, 1.84, 3.45, 0.000, 0.000, 0.000, 14:35:12.918
100, -234.28, -1.97, 19.26, 19.08, 0.000, 0.000, 0.000, 14:35:12.919
101, 540.05, 0.45, 15.35, 13.89, 0.000, 0.000, 0.000, 14:35:12.919
102, 62.91, 16.13, 0.35, 2.24, 0.000, 0.000, 0.000, 14:35:12.919
103, -219.24, 11.44, 9.62, 14.66, 0.000, 0.000, 0.000, 14:35:12.941
104, 272.15, -9.33, 21.72, 19.85, 0.000, 0.000, 0.000, 14:35:12.941
105, 199.18, 13.22, 2.99, 4.46, 0.000, 0.000, 0.000, 14:35:12.941
106, -236.38, 17.60, 5.43, 8.70, 0.000, 0.000, 0.000, 14:35:12.941
107, -119.28, -1.88, 23.13, 23.26, 0.000, 0.000, 0.000, 14:35:12.963
108, 538.88, 18.86, 8.21, 11.02, 0.000, 0.000, 0.000, 14:35:12.964
109, -106.74, 12.90, 2.72, 4.39, 0.000, 0.000, 0.000, 14:35:12.964
110, -264.34, -0.37, 18.64, 19.93, 0.000, 0.000, 0.000, 14:35:12.964
111, 354.69, 6.08, 16.13, 13.89, 0.000, 0.000, 0.000, 14:35:12.986
112, -68.38, 15.90, -0.60, -1.87, 0.000, 0.000, 0.000, 14:35:12.986
113, -301.22, 10.36, 11.16, 9.08, 0.000, 0.000, 0.000, 14:35:12.986
114, 58.63, -3.05, 21.73, 21.67, 0.000, 0.000, 0.000, 14:35:12.987
115, 262.70, 12.02, 3.66, 5.88, 0.000, 0.000, 0.000, 14:35:12.987
116, -78.15, 14.93, 6.63, 7.70, 0.000, 0.000, 0.000, 14:35:12.987
117, -41.51, 3.00, 24.54, 24.89, 0.000, 0.000, 0.000, 14:35:13.008
118, 214.06, 4.06, 7.92, 8.92, 0.000, 0.000, 0.000, 14:35:13.008
119, 51.98, 18.51, 4.07, 6.77, 0.000, 0.000, 0.000, 14:35:13.009
120, -64.74, 4.80, 17.34, 19.34, 0.000, 0.000, 0.000, 14:35:13.009
121, 355.32, -0.11, 18.35, 13.21, 0.000, 0.000, 0.000, 14:35:13.031
122, 96.86, 16.65, 1.89, 4.79, 0.000, 0.000, 0.000, 14:35:13.031
123, -427.87, 10.37, 9.50, 13.47, 0.000, 0.000, 0.000, 14:35:13.032
124, 200.33, -3.30, 24.85, 20.67, 0.000, 0.000, 0.000, 14:35:13.032
125, 297.11, 17.24, 2.13, 3.17, 0.000, 0.000, 0.000, 14:35:13.053
126, -210.53, 24.40, 2.65, 4.08, 0.000, 0.000, 0.000, 14:35:13.054
127, -53.22, -7.04, 23.54, 22.24, 0.000, 0.000, 0.000, 14:35:13.054
128, 358.56, 8.40, 5.91, 7.81, 0.000, 0.000, 0.000, 14:35:13.054
129, -155.97, 17.06, -1.45, 6.25, 0.000, 0.000, 0.000, 14:35:13.076
130, -207.71, 2.95, 20.09, 14.98, 0.000, 0.000, 0.000, 14:35:13.076
131, 297.31, 0.77, 15.67, 14.88, 0.000, 0.000, 0.000, 14:35:13.076
132, 180.46, 14.16, 1.75, 5.59, 0.000, 0.000, 0.000, 14:35:13.076
133, -433.16, 9.91, 13.01, 11.79, 0.000, 0.000, 0.000, 14:35:13.077
134, 172.98, -3.68, 26.00, 24.08, 0.000, 0.000, 0.000, 14:35:13.077
135, 301.12, 16.02, 2.47, 8.76, 0.000, 0.000, 0.000, 14:35:13.098
136, -256.51, 8.70, 8.37, 8.11, 0.000, 0.000, 0.000, 14:35:13.098
137, 121.37, -3.78, 25.29, 21.09, 0.000, 0.000, 0.000, 14:35:13.099
138, 355.87, 13.25, 6.54, 9.27, 0.000, 0.000, 0.000, 14:35:13.099
139, -80.32, 18.10, 0.57, 3.26, 0.000, 0.000, 0.000, 14:35:13.121
140, -226.07, 3.67, 17.93, 18.93, 0.000, 0.000, 0.000, 14:35:13.121
141, 319.63, 4.01, 15.82, 11.92, 0.000, 0.000, 0.000, 14:35:13.121
142, 123.66, 18.82, 1.97, 4.39, 0.000, 0.000, 0.000, 14:35:13.122
143, -347.20, 9.52, 10.20, 12.43, 0.000, 0.000, 0.000, 14:35:13.144
144, 247.95, 1.06, 26.59, 18.61, 0.000, 0.000, 0.000, 14:35:13.144
145, 305.38, 5.88, 4.64, 6.58, 0.000, 0.000, 0.000, 14:35:13.144
146, -270.65, 16.78, 5.36, 8.33, 0.000, 0.000, 0.000, 14:35:13.144
147, -56.71, -1.78, 22.43, 23.79, 0.000, 0.000, 0.000, 14:35:13.166
148, 475.10, 10.38, 4.19, 10.31, 0.000, 0.000, 0.000, 14:35:13.166
149, -338.70, 15.45, 0.55, 8.77, 0.000, 0.000, 0.000, 14:35:13.166
150, -249.30, 5.76, 18.60, 17.12, 0.000, 0.000, 0.000, 14:35:13.167
151, 482.78, 3.97, 17.59, 15.45, 0.000, 0.000, 0.000, 14:35:13.167
152, 85.81, 15.02, -0.82, 4.30, 0.000, 0.000, 0.000, 14:35:13.167
153, -339.86, 11.74, 11.93, 10.73, 0.000, 0.000, 0.000, 14:35:13.188
154, 216.16, -6.14, 21.42, 19.97, 0.000, 0.000, 0.000, 14:35:13.189
155, 412.55, 12.99, 2.56, 5.93, 0.000, 0.000, 0.000, 14:35:13.189
156, -375.47, 13.77, 4.82, 9.72, 0.000, 0.000, 0.000, 14:35:13.189
157, 17.09, -1.30, 24.80, 23.41, 0.000, 0.000, 0.000, 14:35:13.211
158, 212.24, 10.78, 9.13, 9.74, 0.000, 0.000, 0.000, 14:35:13.211
159, 79.45, 14.49, 1.70, 4.16, 0.000, 0.000, 0.000, 14:35:13.211
160, -139.66, 3.63, 20.74, 15.45, 0.000, 0.000, 0.000, 14:35:13.211
161, 371.41, 1.34, 16.87, 14.41, 0.000, 0.000, 0.000, 14:35:13.233
162, 76.28, 21.10, -1.18, 3.41, 0.000, 0.000, 0.000, 14:35:13.233
163, -371.71, 5.08, 10.39, 11.43, 0.000, 0.000, 0.000, 14:35:13.234
164, 13.12, 1.07, 22.89, 17.87, 0.000, 0.000, 0.000, 14:35:13.234
165, 341.87, 15.18, 2.36, 4.05, 0.000, 0.000, 0.000, 14:35:13.256
166, -223.26, 19.20, 6.66, 8.67, 0.000, 0.000, 0.000, 14:35:13.256
167, -37.69, -6.87, 24.60, 20.02, 0.000, 0.000, 0.000, 14:35:13.257
168, 296.00, 9.99, 6.06, 10.03, 0.000, 0.000, 0.000, 14:35:13.257
169, -73.13, 16.64, 0.25, 7.42, 0.000, 0.000, 0.000, 14:35:13.257
170, -301.74, -0.11, 15.96, 18.36, 0.000, 0.000, 0.000, 14:35:13.257
171, 404.31, 4.64, 18.19, 15.20, 0.000, 0.000, 0.000, 14:35:13.279
172, 72.80, 13.26, 0.95, 3.69, 0.000, 0.000, 0.000, 14:35:13.279
173, -143.10, 10.48, 10.82, 10.76, 0.000, 0.000, 0.000, 14:35:13.279
174, 248.91, -4.83, 22.20, 21.69, 0.000, 0.000, 0.000, 14:35:13.279
175, 197.61, 14.60, 1.42, 6.92, 0.000, 0.000, 0.000, 14:35:13.301
176, -128.89, 14.67, 1.54, 9.06, 0.000, 0.000, 0.000, 14:35:13.301
177, 0.51, -4.39, 26.56, 23.30, 0.000, 0.000, 0.000, 14:35:13.301
178, 187.00, 13.31, 8.31, 10.38, 0.000, 0.000, 0.000, 14:35:13.301
179, -248.15, 17.60, 1.57, 4.49, 0.000, 0.000, 0.000, 14:35:13.324
180, -125.87, 7.76, 20.11, 18.13, 0.000, 0.000, 0.000, 14:35:13.324
181, 435.99, -2.47, 17.14, 17.48, 0.000, 0.000, 0.000, 14:35:13.325
182, 150.78, 14.98, 3.79, 2.79, 0.000, 0.000, 0.000, 14:35:13.325
183, -374.69, 10.11, 8.58, 11.35, 0.000, 0.000, 0.000, 14:35:13.346
184, 106.96, -5.29, 25.95, 23.89, 0.000, 0.000, 0.000, 14:35:13.347
185, 95.33, 16.09, 4.73, 5.19, 0.000, 0.000, 0.000, 14:35:13.347
186, -217.48, 17.41, 6.46, 7.23, 0.000, 0.000, 0.000, 14:35:13.347
187, 128.62, -1.73, 23.15, 20.52, 0.000, 0.000, 0.000, 14:35:13.348
188, 371.75, 7.28, 6.63, 7.93, 0.000, 0.000, 0.000, 14:35:13.348
189, -19.51, 22.77, 3.25, 8.65, 0.000, 0.000, 0.000, 14:35:13.368
190, -238.94, 0.13, 18.93, 18.33, 0.000, 0.000, 0.000, 14:35:13.369
191, 267.04, 1.60, 14.48, 11.94, 0.000, 0.000, 0.000, 14:35:13.369
192, 187.52, 20.98, -3.68, 2.79, 0.000, 0.000, 0.000, 14:35:13.369
193, -279.69, 13.57, 8.52, 10.66, 0.000, 0.000, 0.000, 14:35:13.391
194, 171.47, -1.54, 25.45, 22.38, 0.000, 0.000, 0.000, 14:35:13.391
195, 225.24, 12.40, 2.90, 6.42, 0.000, 0.000, 0.000, 14:35:13.392
196, -207.45, 10.02, -0.20, 6.38, 0.000, 0.000, 0.000, 14:35:13.392
197, -42.49, -1.99, 22.87, 22.66, 0.000, 0.000, 0.000, 14:35:13.414
198, 327.02, 15.06, 8.24, 8.72, 0.000, 0.000, 0.000, 14:35:13.414
199, -57.02, 16.45, 5.33, 4.76, 0.000, 0.000, 0.000, 14:35:13.414
200, -232.45, 7.43, 18.78, 16.19, 0.000, 0.000, 0.000, 14:35:13.415
0, 316.04, 0.60, 14.54, 18.01, 0.000, 0.000, 0.000, 14:35:13.415
1, 110.50, 15.93, 1.52, 3.71, 0.000, 0.000, 0.000, 14:35:13.436
2, -275.98, 9.90, 11.13, 8.25, 0.000, 0.000, 0.000, 14:35:13.436
3, 174.38, -5.11, 24.92, 21.84, 0.000, 0.000, 0.000, 14:35:13.436
4, 235.92, 13.42, 0.49, 8.50, 0.000, 0.000, 0.000, 14:35:13.437
5, -205.83, 18.26, 1.92, 6.93, 0.000, 0.000, 0.000, 14:35:13.459
6, -42.74, 2.47, 24.02, 23.91, 0.000, 0.000, 0.000, 14:35:13.459
7, 330.73, 5.34, 6.69, 9.21, 0.000, 0.000, 0.000, 14:35:13.459
8, -42.55, 16.14, -2.37, 6.32, 0.000, 0.000, 0.000, 14:35:13.459
9, -216.81, -0.49, 20.58, 14.82, 0.000, 0.000, 0.000, 14:35:13.481
10, 326.05, 1.49, 17.43, 19.86, 0.000, 0.000, 0.000, 14:35:13.481
11, 103.20, 19.05, 3.96, 6.37, 0.000, 0.000, 0.000, 14:35:13.481
12, -257.80, 10.76, 11.69, 11.08, 0.000, 0.000, 0.000, 14:35:13.482
13, 178.66, -5.39, 21.90, 18.88, 0.000, 0.000, 0.000, 14:35:13.482
14, 262.85, 14.57, 1.24, 5.50, 0.000, 0.000, 0.000, 14:35:13.482
15, -210.21, 18.51, 5.34, 6.67, 0.000, 0.000, 0.000, 14:35:13.503
16, -28.76, -2.11, 26.61, 25.15, 0.000, 0.000, 0.000, 14:35:13.504
17, 329.46, 8.94, 7.69, 8.79, 0.000, 0.000, 0.000, 14:35:13.504
18, -97.78, 16.06, -1.38, 1.69, 0.000, 0.000, 0.000, 14:35:13.504
19, -218.14, 2.09, 20.39, 19.43, 0.000, 0.000, 0.000, 14:35:13.526
20, 321.20, -2.72, 16.78, 19.10, 0.000, 0.000, 0.000, 14:35:13.526
21, 97.62, 17.42, -2.75, 5.72, 0.000, 0.000, 0.000, 14:35:13.526
22, -239.38, 16.63, 8.81, 9.65, 0.000, 0.000, 0.000, 14:35:13.527
23, 181.98, -0.75, 22.15, 20.65, 0.000, 0.000, 0.000, 14:35:13.548
24, 247.47, 20.72, 3.65, 4.26, 0.000, 0.000, 0.000, 14:35:13.548
25, -198.71, 8.94, 6.60, 6.45, 0.000, 0.000, 0.000, 14:35:13.549
26, -45.81, -2.47, 21.57, 21.46, 0.000, 0.000, 0.000, 14:35:13.549
27, 334.17, 8.57, 8.22, 9.47, 0.000, 0.000, 0.000, 14:35:13.571
28, -48.61, 18.52, 1.83, 1.33, 0.000, 0.000, 0.000, 14:35:13.571
29, -227.90, 1.56, 17.66, 17.56, 0.000, 0.000, 0.000, 14:35:13.571
30, 321.73, 0.68, 16.56, 14.56, 0.000, 0.000, 0.000, 14:35:13.572
31, 111.66, 18.16, 4.93, 2.36, 0.000, 0.000, 0.000, 14:35:13.572
32, -283.19, 9.52, 10.31, 11.80, 0.000, 0.000, 0.000, 14:35:13.572
33, 168.47, -3.72, 25.39, 22.40, 0.000, 0.000, 0.000, 14:35:13.594
34, 244.01, 12.17, 2.97, 4.68, 0.000, 0.000, 0.000, 14:35:13.594
35, -196.81, 12.98, 2.23, 6.92, 0.000, 0.000, 0.000, 14:35:13.594
36, -46.02, -2.99, 22.76, 23.79, 0.000, 0.000, 0.000, 14:35:13.594
37, 336.69, 12.15, 8.79, 8.72, 0.000, 0.000, 0.000, 14:35:13.616
38, -44.62, 17.54, 3.42, 7.87, 0.000, 0.000, 0.000, 14:35:13.616
39, -229.07, 5.15, 16.21, 17.23, 0.000, 0.000, 0.000, 14:35:13.616
40, 316.95, -0.22, 13.69, 14.76, 0.000, 0.000, 0.000, 14:35:13.616
41, 109.15, 19.42, -3.00, 3.06, 0.000, 0.000, 0.000, 14:35:13.638
42, -279.42, 18.94, 9.49, 10.88, 0.000, 0.000, 0.000, 14:35:13.639
43, 170.42, -7.22, 25.83, 21.80, 0.000, 0.000, 0.000, 14:35:13.639
44, 245.58, 14.51, 2.05, 4.89, 0.000, 0.000, 0.000, 14:35:13.639
45, -195.52, 14.24, 4.18, 6.28, 0.000, 0.000, 0.000, 14:35:13.661
46, -47.09, -0.46, 21.07, 23.98, 0.000, 0.000, 0.000, 14:35:13.661
47, 340.79, 12.97, 6.33, 10.47, 0.000, 0.000, 0.000, 14:35:13.661
48, -45.24, 18.68, 2.95, 1.25, 0.000, 0.000, 0.000, 14:35:13.661
49, -226.57, 1.97, 18.58, 16.22, 0.000, 0.000, 0.000, 14:35:13.662
50, 324.32, 2.26, 16.41, 14.73, 0.000, 0.000, 0.000, 14:35:13.663
51, 115.85, 20.03, 1.51, 2.99, 0.000, 0.000, 0.000, 14:35:13.683
52, -277.59, 6.55, 8.73, 10.17, 0.000, 0.000, 0.000, 14:35:13.683
53, 173.76, -6.99, 25.53, 24.35, 0.000, 0.000, 0.000, 14:35:13.684
54, 243.32, 18.90, 4.14, 7.49, 0.000, 0.000, 0.000, 14:35:13.684
55, -189.12, 17.11, 4.16, 4.85, 0.000, 0.000, 0.000, 14:35:13.706
56, -48.96, -6.94, 22.13, 23.08, 0.000, 0.000, 0.000, 14:35:13.707
57, 335.70, 11.15, 4.68, 8.38, 0.000, 0.000, 0.000, 14:35:13.707
58, -45.54, 16.05, -1.02, 8.66, 0.000, 0.000, 0.000, 14:35:13.707
59, -224.40, 5.51, 20.44, 16.57, 0.000, 0.000, 0.000, 14:35:13.729
60, 320.32, 7.29, 17.10, 13.02, 0.000, 0.000, 0.000, 14:35:13.729
61, 112.04, 14.94, 0.09, 2.96, 0.000, 0.000, 0.000, 14:35:13.729
62, -277.62, 9.79, 12.78, 12.10, 0.000, 0.000, 0.000, 14:35:13.729
63, 170.71, -4.89, 26.35, 22.06, 0.000, 0.000, 0.000, 14:35:13.751
64, 245.16, 13.38, 3.93, 5.46, 0.000, 0.000, 0.000, 14:35:13.751
65, -192.51, 13.13, 9.12, 8.21, 0.000, 0.000, 0.000, 14:35:13.751
66, -48.86, -4.30, 24.19, 20.75, 0.000, 0.000, 0.000, 14:35:13.752
67, 338.97, 10.81, 10.60, 15.37, 0.000, 0.000, 0.000, 14:35:13.752
68, -42.96, 19.50, -1.07, 1.36, 0.000, 0.000, 0.000, 14:35:13.752
69, -230.86, 7.49, 18.50, 20.61, 0.000, 0.000, 0.000, 14:35:13.773
70, 316.03, -0.81, 18.83, 15.02, 0.000, 0.000, 0.000, 14:35:13.774
71, 112.93, 12.85, 2.92, 4.41, 0.000, 0.000, 0.000, 14:35:13.774
72, -282.98, 8.62, 10.59, 16.66, 0.000, 0.000, 0.000, 14:35:13.774
73, 155.22, -0.96, 26.06, 19.43, 0.000, 0.000, 0.000, 14:35:13.796
74, 239.30, 10.29, 1.91, 6.69, 0.000, 0.000, 0.000, 14:35:13.796
75, -191.65, 19.02, 5.59, 6.76, 0.000, 0.000, 0.000, 14:35:13.818
76, -57.19, -4.63, 22.38, 19.24, 0.000, 0.000, 0.000, 14:35:13.819
77, 331.74, 5.92, 12.27, 7.57, 0.000, 0.000, 0.000, 14:35:13.819
78, -46.77, 16.04, 0.62, 4.48, 0.000, 0.000, 0.000, 14:35:13.819
79, -237.30, 5.13, 20.60, 17.86, 0.000, 0.000, 0.000, 14:35:13.820
80, 309.81, 3.72, 17.95, 16.63, 0.000, 0.000, 0.000, 14:35:13.820
81, 115.93, 17.01, -1.97, 6.08, 0.000, 0.000, 0.000, 14:35:13.841
82, -279.71, 11.77, 7.71, 10.72, 0.000, 0.000, 0.000, 14:35:13.841
83, 157.04, -1.82, 21.26, 25.99, 0.000, 0.000, 0.000, 14:35:13.842
84, 246.51, 14.48, 2.83, 7.89, 0.000, 0.000, 0.000, 14:35:13.842
85, -191.73, 10.57, 2.42, 3.36, 0.000, 0.000, 0.000, 14:35:13.842
86, -61.22, -6.09, 24.92, 22.84, 0.000, 0.000, 0.000, 14:35:13.843
87, 337.50, 10.88, 9.72, 11.04, 0.000, 0.000, 0.000, 14:35:13.863
88, -36.62, 14.07, 1.79, 4.49, 0.000, 0.000, 0.000, 14:35:13.864
89, -232.83, 1.91, 18.64, 19.90, 0.000, 0.000, 0.000, 14:35:13.864
90, 306.59, 3.58, 16.81, 16.82, 0.000, 0.000, 0.000, 14:35:13.864
91, 120.26, 18.87, 2.13, 6.14, 0.000, 0.000, 0.000, 14:35:13.886
92, -279.21, 12.37, 10.88, 12.29, 0.000, 0.000, 0.000, 14:35:13.886
93, 156.92, -4.07, 25.63, 25.13, 0.000, 0.000, 0.000, 14:35:13.886
94, 246.29, 12.90, 7.77, 4.96, 0.000, 0.000, 0.000, 14:35:13.887
95, -189.45, 15.99, 2.37, 3.70, 0.000, 0.000, 0.000, 14:35:13.909
96, -63.93, 3.15, 23.55, 21.46, 0.000, 0.000, 0.000, 14:35:13.909
97, 338.05, 1.24, 8.12, 13.64, 0.000, 0.000, 0.000, 14:35:13.909
98, -35.78, 19.90, 4.34, 7.28, 0.000, 0.000, 0.000, 14:35:13.909
99, -237.21, 1.98, 16.48, 18.50, 0.000, 0.000, 0.000, 14:35:13.931
100, 301.58, 0.21, 13.19, 13.04, 0.000, 0.000, 0.000, 14:35:13.931
101, 123.27, 19.18, 0.21, 3.55, 0.000, 0.000, 0.000, 14:35:13.931
102, -280.92, 19.02, 9.40, 9.17, 0.000, 0.000, 0.000, 14:35:13.931
103, 152.05, -4.22, 20.09, 22.43, 0.000, 0.000, 0.000, 14:35:13.932
104, 248.83, 12.03, 8.40, 7.84, 0.000, 0.000, 0.000, 14:35:13.932
105, -185.90, 17.64, 5.91, 7.32, 0.000, 0.000, 0.000, 14:35:13.953
106, -69.43, -3.33, 22.16, 21.10, 0.000, 0.000, 0.000, 14:35:13.954
107, 337.89, 3.17, 7.21, 8.49, 0.000, 0.000, 0.000, 14:35:13.954
108, -35.64, 21.51, 3.81, 6.31, 0.000, 0.000, 0.000, 14:35:13.954
109, -237.22, 4.46, 16.34, 14.45, 0.000, 0.000, 0.000, 14:35:13.976
110, 309.64, -2.36, 18.59, 18.41, 0.000, 0.000, 0.000, 14:35:13.976
111, 123.06, 18.31, 3.41, 4.23, 0.000, 0.000, 0.000, 14:35:13.976
112, -280.26, 12.69, 6.86, 8.71, 0.000, 0.000, 0.000, 14:35:13.977
113, 149.06, -4.09, 24.04, 21.02, 0.000, 0.000, 0.000, 14:35:13.998
114, 249.64, 14.89, 4.14, 8.76, 0.000, 0.000, 0.000, 14:35:13.999
115, -185.96, 13.16, 2.87, 3.92, 0.000, 0.000, 0.000, 14:35:13.999
116, -71.14, -0.60, 25.17, 21.73, 0.000, 0.000, 0.000, 14:35:13.999
117, 336.29, 11.90, 7.19, 10.04, 0.000, 0.000, 0.000, 14:35:14.021
118, -35.41, 20.54, 1.90, 1.16, 0.000, 0.000, 0.000, 14:35:14.021
119, -242.96, 1.61, 18.68, 16.87, 0.000, 0.000, 0.000, 14:35:14.021
120, 312.53, 5.42, 17.23, 17.31, 0.000, 0.000, 0.000, 14:35:14.022
121, 125.44, 15.75, 2.62, -1.74, 0.000, 0.000, 0.000, 14:35:14.022
122, -282.39, 11.49, 6.78, 10.43, 0.000, 0.000, 0.000, 14:35:14.022
123, 157.22, -1.07, 27.57, 22.16, 0.000, 0.000, 0.000, 14:35:14.043
124, 253.35, 12.15, 3.84, 6.69, 0.000, 0.000, 0.000, 14:35:14.044
125, -180.82, 15.02, 2.86, 6.49, 0.000, 0.000, 0.000, 14:35:14.044
126, -68.14, -1.95, 22.91, 22.96, 0.000, 0.000, 0.000, 14:35:14.044
127, 337.40, 12.62, 7.42, 9.51, 0.000, 0.000, 0.000, 14:35:14.066
128, -28.75, 16.54, -0.54, 2.79, 0.000, 0.000, 0.000, 14:35:14.066
129, -234.65, 3.74, 17.52, 17.34, 0.000, 0.000, 0.000, 14:35:14.066
130, 306.87, -0.32, 21.51, 16.05, 0.000, 0.000, 0.000, 14:35:14.066
131, 125.69, 16.85, 5.52, 4.21, 0.000, 0.000, 0.000, 14:35:14.088
132, -279.74, 18.80, 8.98, 10.82, 0.000, 0.000, 0.000, 14:35:14.088
133, 148.48, -6.08, 22.24, 20.45, 0.000, 0.000, 0.000, 14:35:14.089
134, 254.27, 14.21, -1.79, 7.57, 0.000, 0.000, 0.000, 14:35:14.089
135, -178.72, 15.87, 4.36, 5.48, 0.000, 0.000, 0.000, 14:35:14.111
136, -73.01, -0.17, 22.89, 23.22, 0.000, 0.000, 0.000, 14:35:14.112
137, 344.52, 5.09, 8.21, 12.11, 0.000, 0.000, 0.000, 14:35:14.112
138, -29.30, 20.13, 0.54, 5.81, 0.000, 0.000, 0.000, 14:35:14.112
139, -242.03, 2.84, 18.67, 18.04, 0.000, 0.000, 0.000, 14:35:14.112
140, 303.90, -4.55, 15.52, 19.13, 0.000, 0.000, 0.000, 14:35:14.112
141, 127.86, 18.08, 0.27, 3.32, 0.000, 0.000, 0.000, 14:35:14.133
142, -282.23, 9.97, 5.30, 9.78, 0.000, 0.000, 0.000, 14:35:14.134
143, 141.12, -3.85, 24.64, 20.06, 0.000, 0.000, 0.000, 14:35:14.134
144, 258.25, 9.44, 5.92, 4.89, 0.000, 0.000, 0.000, 14:35:14.134
145, -179.79, 17.10, 2.69, 6.24, 0.000, 0.000, 0.000, 14:35:14.156
146, -76.68, -0.49, 26.90, 22.91, 0.000, 0.000, 0.000, 14:35:14.156
147, 341.82, 9.80, 6.76, 12.15, 0.000, 0.000, 0.000, 14:35:14.156
148, -25.92, 19.43, 3.03, 3.99, 0.000, 0.000, 0.000, 14:35:14.157
149, -244.14, 4.89, 16.89, 16.55, 0.000, 0.000, 0.000, 14:35:14.179
150, 305.14, 4.70, 17.98, 16.11, 0.000, 0.000, 0.000, 14:35:14.179
151, 126.80, 14.65, 3.49, 4.34, 0.000, 0.000, 0.000, 14:35:14.179
152, -282.16, 8.46, 7.64, 8.73, 0.000, 0.000, 0.000, 14:35:14.179
153, 144.37, -6.32, 19.97, 20.73, 0.000, 0.000, 0.000, 14:35:14.201
154, 258.01, 14.57, 4.41, 7.01, 0.000, 0.000, 0.000, 14:35:14.201
155, -180.87, 13.26, 3.27, 5.03, 0.000, 0.000, 0.000, 14:35:14.201
156, -83.83, 1.39, 22.95, 20.46, 0.000, 0.000, 0.000, 14:35:14.202
157, 343.70, 4.76, 8.10, 9.95, 0.000, 0.000, 0.000, 14:35:14.202
158, -23.54, 18.44, -0.92, 5.50, 0.000, 0.000, 0.000, 14:35:14.202
159, -244.04, 3.22, 18.08, 19.84, 0.000, 0.000, 0.000, 14:35:14.223
160, 300.66, -2.34, 17.40, 16.57, 0.000, 0.000, 0.000, 14:35:14.224
161, 132.37, 16.17, 0.08, 4.40, 0.000, 0.000, 0.000, 14:35:14.224
162, -276.68, 11.60, 11.49, 9.96, 0.000, 0.000, 0.000, 14:35:14.224
163, 138.81, -2.85, 25.73, 22.90, 0.000, 0.000, 0.000, 14:35:14.246
164, 259.89, 13.16, 4.70, 7.95, 0.000, 0.000, 0.000, 14:35:14.246
165, -179.76, 16.26, 3.38, 9.60, 0.000, 0.000, 0.000, 14:35:14.246
166, -74.48, 0.20, 21.94, 23.21, 0.000, 0.000, 0.000, 14:35:14.247
167, 343.71, 6.34, 11.99, 9.70, 0.000, 0.000, 0.000, 14:35:14.268
168, -26.70, 21.78, 4.03, 2.99, 0.000, 0.000, 0.000, 14:35:14.269
169, -245.37, -0.21, 19.67, 16.47, 0.000, 0.000, 0.000, 14:35:14.269
170, 301.58, -3.39, 16.45, 16.31, 0.000, 0.000, 0.000, 14:35:14.269
171, 136.74, 18.78, -2.40, 2.69, 0.000, 0.000, 0.000, 14:35:14.291
172, -280.36, 13.56, 7.78, 9.78, 0.000, 0.000, 0.000, 14:35:14.291
173, 143.05, -8.31, 24.19, 21.03, 0.000, 0.000, 0.000, 14:35:14.291
174, 252.51, 13.72, 2.67, 6.72, 0.000, 0.000, 0.000, 14:35:14.292
175, -173.79, 18.76, 5.21, 6.12, 0.000, 0.000, 0.000, 14:35:14.292
176, -90.18, 1.59, 23.54, 19.39, 0.000, 0.000, 0.000, 14:35:14.292
177, 346.02, 11.10, 6.97, 7.66, 0.000, 0.000, 0.000, 14:35:14.313
178, -24.27, 13.12, 0.26, 5.23, 0.000, 0.000, 0.000, 14:35:14.313
179, -246.57, 3.18, 13.35, 16.56, 0.000, 0.000, 0.000, 14:35:14.314
180, 305.95, -3.34, 16.13, 18.25, 0.000, 0.000, 0.000, 14:35:14.314
181, 132.79, 16.13, 2.06, 2.05, 0.000, 0.000, 0.000, 14:35:14.336
182, -279.61, 13.70, 10.31, 11.78, 0.000, 0.000, 0.000, 14:35:14.336
183, 140.09, 0.68, 25.64, 25.43, 0.000, 0.000, 0.000, 14:35:14.336
184, 257.43, 12.23, 8.20, 11.76, 0.000, 0.000, 0.000, 14:35:14.337
185, -170.57, 20.47, 6.23, 5.05, 0.000, 0.000, 0.000, 14:35:14.358
186, -78.67, 0.90, 19.27, 20.05, 0.000, 0.000, 0.000, 14:35:14.358
187, 343.67, 4.54, 12.25, 11.35, 0.000, 0.000, 0.000, 14:35:14.358
188, -11.25, 17.34, 2.21, 0.33, 0.000, 0.000, 0.000, 14:35:14.359
189, -249.54, -0.12, 18.28, 20.23, 0.000, 0.000, 0.000, 14:35:14.381
190, 299.05, 2.78, 21.95, 18.71, 0.000, 0.000, 0.000, 14:35:14.381
191, 134.54, 14.19, 0.69, 7.40, 0.000, 0.000, 0.000, 14:35:14.381
192, -276.55, 13.63, 7.45, 10.21, 0.000, 0.000, 0.000, 14:35:14.382
193, 135.59, -4.34, 19.84, 21.48, 0.000, 0.000, 0.000, 14:35:14.382
194, 263.68, 14.71, 5.06, 6.34, 0.000, 0.000, 0.000, 14:35:14.382
195, -173.42, 21.19, 5.09, 6.54, 0.000, 0.000, 0.000, 14:35:14.403
196, -90.82, -3.52, 23.68, 24.05, 0.000, 0.000, 0.000, 14:35:14.404
197, 342.22, 6.43, 7.08, 10.06, 0.000, 0.000, 0.000, 14:35:14.404
198, -21.19, 18.29, 1.33, 4.69, 0.000, 0.000, 0.000, 14:35:14.404
199, -253.14, 2.74, 20.46, 16.89, 0.000, 0.000, 0.000, 14:35:14.426
200, 299.35, 1.12, 14.18, 15.76, 0.000, 0.000, 0.000, 14:35:14.426
0, 137.71, 17.77, 2.94, 4.43, 0.000, 0.000, 0.000, 14:35:14.426
1, -279.55, 13.13, 10.03, 12.83, 0.000, 0.000, 0.000, 14:35:14.427
2, 128.32, -3.41, 23.24, 17.88, 0.000, 0.000, 0.000, 14:35:14.427
3, 262.73, 15.15, 1.31, 6.42, 0.000, 0.000, 0.000, 14:35:14.448
4, -167.53, 14.10, 4.49, 7.41, 0.000, 0.000, 0.000, 14:35:14.449
5, -90.98, -0.05, 22.84, 25.97, 0.000, 0.000, 0.000, 14:35:14.449
6, 343.39, 7.70, 9.02, 12.94, 0.000, 0.000, 0.000, 14:35:14.449
7, -21.30, 18.20, -1.05, 3.12, 0.000, 0.000, 0.000, 14:35:14.471
8, -248.48, 5.10, 17.60, 9.88, 0.000, 0.000, 0.000, 14:35:14.471
9, 293.82, 1.31, 17.04, 14.41, 0.000, 0.000, 0.000, 14:35:14.471
10, 140.68, 16.19, -2.08, 3.13, 0.000, 0.000, 0.000, 14:35:14.471
11, -273.65, 9.93, 8.01, 10.05, 0.000, 0.000, 0.000, 14:35:14.493
12, 130.63, 0.80, 23.57, 20.77, 0.000, 0.000, 0.000, 14:35:14.494
13, 264.88, 9.24, 5.02, 7.72, 0.000, 0.000, 0.000, 14:35:14.494
14, -159.41, 15.59, 3.45, 8.53, 0.000, 0.000, 0.000, 14:35:14.494
15, -78.34, -2.26, 22.31, 21.79, 0.000, 0.000, 0.000, 14:35:14.516
16, 360.58, 11.12, 11.73, 12.02, 0.000, 0.000, 0.000, 14:35:14.516
17, -7.02, 17.10, -0.49, 5.53, 0.000, 0.000, 0.000, 14:35:14.516
18, -247.19, 6.26, 17.21, 15.41, 0.000, 0.000, 0.000, 14:35:14.517
19, 284.97, -2.16, 20.25, 17.62, 0.000, 0.000, 0.000, 14:35:14.517
20, 130.64, 14.12, 0.57, 6.23, 0.000, 0.000, 0.000, 14:35:14.517
21, -285.31, 12.53, 8.20, 9.58, 0.000, 0.000, 0.000, 14:35:14.538
22, 113.54, -5.82, 24.69, 22.96, 0.000, 0.000, 0.000, 14:35:14.539
23, 248.27, 13.16, 6.22, 5.87, 0.000, 0.000, 0.000, 14:35:14.561
24, -174.95, 16.33, 2.54, 3.45, 0.000, 0.000, 0.000, 14:35:14.561
25, -102.40, -2.58, 24.24, 20.74, 0.000, 0.000, 0.000, 14:35:14.562
26, 334.07, 3.01, 11.88, 12.50, 0.000, 0.000, 0.000, 14:35:14.562
27, -2.10, 18.80, 1.44, 10.38, 0.000, 0.000, 0.000, 14:35:14.562
28, -249.39, 7.86, 15.06, 13.87, 0.000, 0.000, 0.000, 14:35:14.562
29, 292.29, 0.19, 15.79, 17.76, 0.000, 0.000, 0.000, 14:35:14.583
30, 146.68, 20.51, -0.74, 2.68, 0.000, 0.000, 0.000, 14:35:14.584
31, -272.30, 9.77, 9.21, 11.14, 0.000, 0.000, 0.000, 14:35:14.584
32, 127.41, -3.80, 21.22, 22.29, 0.000, 0.000, 0.000, 14:35:14.584
33, 266.91, 12.16, 5.89, 5.51, 0.000, 0.000, 0.000, 14:35:14.606
34, -158.83, 18.07, 2.35, 4.20, 0.000, 0.000, 0.000, 14:35:14.606
35, -93.18, -3.63, 25.15, 20.18, 0.000, 0.000, 0.000, 14:35:14.607
36, 343.90, 9.35, 7.86, 9.88, 0.000, 0.000, 0.000, 14:35:14.607
37, -10.31, 16.76, 0.03, 9.12, 0.000, 0.000, 0.000, 14:35:14.607
38, -251.12, 7.94, 14.35, 19.34, 0.000, 0.000, 0.000, 14:35:14.608
39, 287.83, 4.13, 17.13, 16.67, 0.000, 0.000, 0.000, 14:35:14.628
40, 145.25, 13.88, 3.87, 0.32, 0.000, 0.000, 0.000, 14:35:14.629
41, -275.51, 8.79, 9.02, 10.35, 0.000, 0.000, 0.000, 14:35:14.629
42, 125.76, -4.25, 24.95, 21.44, 0.000, 0.000, 0.000, 14:35:14.629
43, 271.15, 14.19, 6.76, 6.71, 0.000, 0.000, 0.000, 14:35:14.651
44, -165.64, 18.32, 7.27, 3.14, 0.000, 0.000, 0.000, 14:35:14.651
45, -106.17, 0.70, 20.95, 22.13, 0.000, 0.000, 0.000, 14:35:14.651
46, 353.47, 7.95, 10.96, 11.28, 0.000, 0.000, 0.000, 14:35:14.652
47, -7.45, 14.68, 1.25, 4.89, 0.000, 0.000, 0.000, 14:35:14.673
48, -252.52, 10.37, 18.31, 13.03, 0.000, 0.000, 0.000, 14:35:14.673
49, 288.62, -9.14, 21.85, 16.86, 0.000, 0.000, 0.000, 14:35:14.674
50, 148.33, 19.68, 3.78, 1.56, 0.000, 0.000, 0.000, 14:35:14.674
51, -273.30, 14.50, 5.90, 10.36, 0.000, 0.000, 0.000, 14:35:14.696
52, 127.25, -3.42, 23.89, 21.19, 0.000, 0.000, 0.000, 14:35:14.696
53, 263.62, 10.58, 3.96, 8.18, 0.000, 0.000, 0.000, 14:35:14.696
54, -159.68, 14.14, 2.38, 4.11, 0.000, 0.000, 0.000, 14:35:14.696
55, -104.41, -3.87, 24.38, 21.15, 0.000, 0.000, 0.000, 14:35:14.697
56, 347.58, 9.42, 9.53, 16.12, 0.000, 0.000, 0.000, 14:35:14.697
57, -4.80, 20.43, 1.46, 1.78, 0.000, 0.000, 0.000, 14:35:14.718
58, -248.33, 1.36, 17.85, 15.80, 0.000, 0.000, 0.000, 14:35:14.718
59, 294.38, 1.30, 20.70, 20.12, 0.000, 0.000, 0.000, 14:35:14.719
60, 152.23, 15.58, 0.99, 8.46, 0.000, 0.000, 0.000, 14:35:14.719
61, -270.62, 13.14, 7.31, 10.58, 0.000, 0.000, 0.000, 14:35:14.741
62, 117.39, -5.83, 21.72, 22.43, 0.000, 0.000, 0.000, 14:35:14.741
63, 267.86, 15.75, 2.80, 5.82, 0.000, 0.000, 0.000, 14:35:14.741
64, -153.57, 17.33, 3.59, 7.19, 0.000, 0.000, 0.000, 14:35:14.741
65, -102.33, 1.07, 24.29, 21.10, 0.000, 0.000, 0.000, 14:35:14.763
66, 346.49, 8.35, 8.84, 10.47, 0.000, 0.000, 0.000, 14:35:14.763
67, -5.40, 14.20, -1.39, 2.30, 0.000, 0.000, 0.000, 14:35:14.764
68, -247.96, 5.05, 15.43, 14.96, 0.000, 0.000, 0.000, 14:35:14.764
69, 284.39, -2.55, 16.44, 15.19, 0.000, 0.000, 0.000, 14:35:14.786
70, 146.78, 19.78, 0.24, 4.03, 0.000, 0.000, 0.000, 14:35:14.786
71, -274.47, 13.20, 8.16, 13.12, 0.000, 0.000, 0.000, 14:35:14.786
72, 108.31, -5.30, 20.73, 21.30, 0.000, 0.000, 0.000, 14:35:14.787
73, 270.80, 14.13, 8.49, 5.93, 0.000, 0.000, 0.000, 14:35:14.787
74, -157.63, 11.66, 5.57, 6.83, 0.000, 0.000, 0.000, 14:35:14.787
75, -114.36, 0.42, 22.59, 18.11, 0.000, 0.000, 0.000, 14:35:14.808
76, 344.01, 5.30, 9.85, 13.54, 0.000, 0.000, 0.000, 14:35:14.808
77, -8.88, 19.53, 0.13, 4.53, 0.000, 0.000, 0.000, 14:35:14.809
78, -256.86, 7.23, 16.03, 15.72, 0.000, 0.000, 0.000, 14:35:14.809
79, 282.18, 1.54, 20.37, 16.84, 0.000, 0.000, 0.000, 14:35:14.831
80, 149.59, 13.21, 0.38, 1.57, 0.000, 0.000, 0.000, 14:35:14.831
81, -277.07, 10.70, 8.56, 10.03, 0.000, 0.000, 0.000, 14:35:14.832
82, 108.20, -3.82, 23.64, 22.09, 0.000, 0.000, 0.000, 14:35:14.832
83, 263.13, 12.48, 5.04, 8.88, 0.000, 0.000, 0.000, 14:35:14.853
84, -157.08, 23.28, 2.65, 2.24, 0.000, 0.000, 0.000, 14:35:14.853
85, -112.39, -6.48, 23.63, 22.95, 0.000, 0.000, 0.000, 14:35:14.854
86, 341.47, 9.16, 10.72, 9.78, 0.000, 0.000, 0.000, 14:35:14.854
87, -7.55, 18.17, 3.02, 6.38, 0.000, 0.000, 0.000, 14:35:14.876
88, -256.36, 5.39, 17.19, 16.10, 0.000, 0.000, 0.000, 14:35:14.876
89, 282.58, -4.01, 23.77, 18.16, 0.000, 0.000, 0.000, 14:35:14.877
90, 157.53, 17.45, 1.41, 5.42, 0.000, 0.000, 0.000, 14:35:14.877
91, -274.01, 11.29, 7.81, 10.15, 0.000, 0.000, 0.000, 14:35:14.877
92, 105.84, -5.83, 24.90, 23.10, 0.000, 0.000, 0.000, 14:35:14.877
93, 273.01, 18.07, 4.18, 5.80, 0.000, 0.000, 0.000, 14:35:14.898
94, -153.87, 21.89, 2.50, 2.63, 0.000, 0.000, 0.000, 14:35:14.898
95, -114.78, -2.79, 24.54, 21.04, 0.000, 0.000, 0.000, 14:35:14.899
96, 344.90, 8.73, 11.51, 14.31, 0.000, 0.000, 0.000, 14:35:14.899
97, -0.16, 16.08, -0.61, 5.04, 0.000, 0.000, 0.000, 14:35:14.921
98, -261.58, 1.81, 15.69, 14.67, 0.000, 0.000, 0.000, 14:35:14.921
99, 276.63, 1.23, 19.25, 16.07, 0.000, 0.000, 0.000, 14:35:14.921
100, 151.42, 16.85, 0.73, 5.23, 0.000, 0.000, 0.000, 14:35:14.921
101, -267.54, 14.00, 5.16, 10.12, 0.000, 0.000, 0.000, 14:35:14.943
102, 110.73, 5.16, 25.74, 25.19, 0.000, 0.000, 0.000, 14:35:14.944
103, 273.60, 7.87, 8.26, 8.43, 0.000, 0.000, 0.000, 14:35:14.944
104, -149.85, 19.21, 4.68, 6.37, 0.000, 0.000, 0.000, 14:35:14.944
105, -114.48, -1.98, 24.10, 18.24, 0.000, 0.000, 0.000, 14:35:14.966
106, 345.22, 8.51, 9.08, 10.37, 0.000, 0.000, 0.000, 14:35:14.966
107, -2.43, 17.24, -0.26, 2.28, 0.000, 0.000, 0.000, 14:35:14.966
108, -256.99, 4.68, 18.45, 16.07, 0.000, 0.000, 0.000, 14:35:14.966
109, 284.29, 0.87, 17.75, 15.89, 0.000, 0.000, 0.000, 14:35:14.967
110, 161.67, 15.96, 2.34, 5.64, 0.000, 0.000, 0.000, 14:35:14.967
111, -267.93, 15.45, 9.05, 9.36, 0.000, 0.000, 0.000, 14:35:14.988
112, 108.11, -6.39, 24.60, 22.63, 0.000, 0.000, 0.000, 14:35:14.988
113, 267.18, 13.01, 4.65, 9.69, 0.000, 0.000, 0.000, 14:35:14.989
114, -149.78, 16.03, 3.11, 5.77, 0.000, 0.000, 0.000, 14:35:14.989
115, -118.57, 0.07, 23.27, 18.46, 0.000, 0.000, 0.000, 14:35:15.011
116, 340.53, 5.10, 11.12, 10.44, 0.000, 0.000, 0.000, 14:35:15.011
117, 13.42, 19.28, 0.92, 1.30, 0.000, 0.000, 0.000, 14:35:15.011
118, -263.90, 4.68, 16.42, 18.93, 0.000, 0.000, 0.000, 14:35:15.011
119, 279.62, -2.62, 16.50, 18.07, 0.000, 0.000, 0.000, 14:35:15.033
120, 158.25, 24.19, 0.24, 1.70, 0.000, 0.000, 0.000, 14:35:15.033
121, -272.59, 8.36, 9.10, 15.98, 0.000, 0.000, 0.000, 14:35:15.034
122, 100.44, -2.94, 24.52, 26.30, 0.000, 0.000, 0.000, 14:35:15.034
123, 273.84, 13.35, 4.35, 5.23, 0.000, 0.000, 0.000, 14:35:15.055
124, -147.34, 15.23, 2.52, 0.65, 0.000, 0.000, 0.000, 14:35:15.056
125, -121.49, -1.91, 22.16, 23.03, 0.000, 0.000, 0.000, 14:35:15.056
126, 334.04, 4.71, 12.50, 12.78, 0.000, 0.000, 0.000, 14:35:15.056
127, 15.27, 15.31, 4.00, 5.50, 0.000, 0.000, 0.000, 14:35:15.057
128, -253.90, 4.60, 14.69, 18.60, 0.000, 0.000, 0.000, 14:35:15.057
129, 268.72, 0.36, 15.92, 19.02, 0.000, 0.000, 0.000, 14:35:15.078
130, 163.17, 14.70, 2.47, 5.07, 0.000, 0.000, 0.000, 14:35:15.079
131, -265.26, 11.41, 8.29, 8.88, 0.000, 0.000, 0.000, 14:35:15.079
132, 98.56, -0.72, 24.54, 21.32, 0.000, 0.000, 0.000, 14:35:15.079
133, 270.15, 16.03, 6.48, 6.90, 0.000, 0.000, 0.000, 14:35:15.101
134, -140.96, 12.10, 5.64, 8.01, 0.000, 0.000, 0.000, 14:35:15.101
135, -121.42, -1.68, 18.10, 17.60, 0.000, 0.000, 0.000, 14:35:15.101
136, 343.80, 6.95, 8.87, 13.22, 0.000, 0.000, 0.000, 14:35:15.102
137, 5.66, 16.32, -1.25, 6.77, 0.000, 0.000, 0.000, 14:35:15.123
138, -261.37, 13.27, 18.36, 16.39, 0.000, 0.000, 0.000, 14:35:15.124
139, 275.09, -5.03, 18.46, 20.53, 0.000, 0.000, 0.000, 14:35:15.124
140, 156.16, 19.66, 2.73, 6.22, 0.000, 0.000, 0.000, 14:35:15.124
141, -272.93, 13.27, 9.27, 7.25, 0.000, 0.000, 0.000, 14:35:15.148
142, 92.47, -6.06, 23.37, 21.44, 0.000, 0.000, 0.000, 14:35:15.148
143, 286.78, 16.20, 3.29, 5.08, 0.000, 0.000, 0.000, 14:35:15.148
144, -140.78, 16.22, -1.05, 7.23, 0.000, 0.000, 0.000, 14:35:15.149
145, -122.28, -1.05, 23.19, 21.45, 0.000, 0.000, 0.000, 14:35:15.149
146, 345.24, 6.34, 10.97, 10.71, 0.000, 0.000, 0.000, 14:35:15.149
147, 9.29, 22.80, 0.38, 4.79, 0.000, 0.000, 0.000, 14:35:15.168
148, -259.29, -0.60, 15.82, 16.68, 0.000, 0.000, 0.000, 14:35:15.168
149, 273.20, -1.31, 19.39, 17.75, 0.000, 0.000, 0.000, 14:35:15.169
150, 161.35, 17.47, -0.57, 3.57, 0.000, 0.000, 0.000, 14:35:15.169
151, -270.12, 12.48, 4.75, 8.12, 0.000, 0.000, 0.000, 14:35:15.191
152, 96.57, -5.37, 24.92, 23.72, 0.000, 0.000, 0.000, 14:35:15.191
153, 279.70, 15.86, 4.85, 4.42, 0.000, 0.000, 0.000, 14:35:15.191
154, -138.12, 14.67, 2.60, 5.22, 0.000, 0.000, 0.000, 14:35:15.192
155, -125.19, 0.73, 21.96, 22.62, 0.000, 0.000, 0.000, 14:35:15.213
156, 343.32, 11.30, 7.20, 10.85, 0.000, 0.000, 0.000, 14:35:15.214
157, 14.13, 9.42, 3.52, 3.88, 0.000, 0.000, 0.000, 14:35:15.214
158, -258.39, 8.65, 14.05, 15.43, 0.000, 0.000, 0.000, 14:35:15.214
159, 270.32, -3.01, 19.80, 16.22, 0.000, 0.000, 0.000, 14:35:15.236
160, 152.76, 16.36, 0.53, 2.35, 0.000, 0.000, 0.000, 14:35:15.236
161, -268.14, 11.17, 8.91, 12.66, 0.000, 0.000, 0.000, 14:35:15.236
162, 95.83, -3.03, 23.83, 21.56, 0.000, 0.000, 0.000, 14:35:15.236
163, 281.70, 15.57, 3.76, 6.00, 0.000, 0.000, 0.000, 14:35:15.237
164, -143.54, 15.05, 5.42, 5.37, 0.000, 0.000, 0.000, 14:35:15.237
165, -129.41, -2.11, 23.51, 21.53, 0.000, 0.000, 0.000, 14:35:15.258
166, 333.30, 3.43, 11.32, 14.58, 0.000, 0.000, 0.000, 14:35:15.259
167, 6.36, 16.87, 0.61, 2.63, 0.000, 0.000, 0.000, 14:35:15.259
168, -267.40, 7.39, 14.01, 13.98, 0.000, 0.000, 0.000, 14:35:15.259
169, 275.61, 0.62, 19.14, 22.85, 0.000, 0.000, 0.000, 14:35:15.281
170, 181.75, 15.48, 0.71, 1.04, 0.000, 0.000, 0.000, 14:35:15.281
171, -250.47, 14.76, 7.44, 7.45, 0.000, 0.000, 0.000, 14:35:15.281
172, 101.08, -4.91, 25.56, 21.23, 0.000, 0.000, 0.000, 14:35:15.281
173, 280.99, 13.42, 7.38, 7.38, 0.000, 0.000, 0.000, 14:35:15.303
174, -140.09, 20.04, 4.49, 3.85, 0.000, 0.000, 0.000, 14:35:15.304
175, -134.05, -5.18, 22.26, 23.42, 0.000, 0.000, 0.000, 14:35:15.304
176, 340.63, 4.17, 9.74, 17.04, 0.000, 0.000, 0.000, 14:35:15.304
177, 14.41, 15.85, 1.60, 9.47, 0.000, 0.000, 0.000, 14:35:15.326
178, -263.87, 7.39, 18.85, 16.48, 0.000, 0.000, 0.000, 14:35:15.326
179, 269.19, -1.84, 18.71, 19.08, 0.000, 0.000, 0.000, 14:35:15.326
180, 169.54, 15.89, 3.64, -1.00, 0.000, 0.000, 0.000, 14:35:15.327
181, -266.48, 14.20, 8.26, 8.24, 0.000, 0.000, 0.000, 14:35:15.327
182, 81.71, -1.94, 22.07, 22.76, 0.000, 0.000, 0.000, 14:35:15.327
183, 261.76, 13.46, 2.99, 5.84, 0.000, 0.000, 0.000, 14:35:15.348
184, -159.22, 16.24, 3.90, 2.31, 0.000, 0.000, 0.000, 14:35:15.348
185, -136.64, -2.06, 21.98, 20.86, 0.000, 0.000, 0.000, 14:35:15.349
186, 392.52, 4.20, 11.17, 9.70, 0.000, 0.000, 0.000, 14:35:15.349
187, 18.97, 16.79, -0.07, 4.61, 0.000, 0.000, 0.000, 14:35:15.371
188, -312.08, 5.51, 15.98, 15.62, 0.000, 0.000, 0.000, 14:35:15.371
189, 268.38, -1.15, 19.41, 20.13, 0.000, 0.000, 0.000, 14:35:15.371
190, 229.48, 21.71, 4.26, 3.33, 0.000, 0.000, 0.000, 14:35:15.371
191, -204.81, 13.16, 8.13, 8.80, 0.000, 0.000, 0.000, 14:35:15.393
192, 93.07, 0.05, 24.15, 21.01, 0.000, 0.000, 0.000, 14:35:15.393
193, 266.31, 12.32, 3.58, 8.46, 0.000, 0.000, 0.000, 14:35:15.394
194, -131.37, 14.26, 2.51, 8.68, 0.000, 0.000, 0.000, 14:35:15.394
195, -74.82, -0.55, 20.47, 20.26, 0.000, 0.000, 0.000, 14:35:15.416
196, 357.34, 6.30, 12.26, 10.60, 0.000, 0.000, 0.000, 14:35:15.416
197, -33.41, 16.38, 0.71, 1.76, 0.000, 0.000, 0.000, 14:35:15.416
198, -342.31, 6.08, 14.24, 16.53, 0.000, 0.000, 0.000, 14:35:15.417
199, 101.91, -2.55, 19.54, 21.33, 0.000, 0.000, 0.000, 14:35:15.417
200, 155.16, 17.11, 2.11, 3.71, 0.000, 0.000, 0.000, 14:35:15.417
0, -199.51, 16.98, 5.05, 9.32, 0.000, 0.000, 0.000, 14:35:15.438
1, 136.73, -5.21, 26.04, 22.60, 0.000, 0.000, 0.000, 14:35:15.439
2, 280.89, 12.94, 6.18, 8.02, 0.000, 0.000, 0.000, 14:35:15.439
3, -206.42, 13.32, 2.52, 7.00, 0.000, 0.000, 0.000, 14:35:15.461
4, -157.94, -0.97, 23.83, 20.66, 0.000, 0.000, 0.000, 14:35:15.461
5, 394.26, 5.49, 11.55, 12.21, 0.000, 0.000, 0.000, 14:35:15.483
6, 72.66, 21.51, 3.89, 3.13, 0.000, 0.000, 0.000, 14:35:15.483
7, -283.73, 5.45, 9.97, 12.12, 0.000, 0.000, 0.000, 14:35:15.484
8, 235.57, 3.47, 21.66, 23.21, 0.000, 0.000, 0.000, 14:35:15.484
9, 144.11, 11.70, -2.85, 6.56, 0.000, 0.000, 0.000, 14:35:15.485
10, -266.85, 16.00, 7.56, 8.05, 0.000, 0.000, 0.000, 14:35:15.485
11, 165.79, -4.76, 27.61, 20.73, 0.000, 0.000, 0.000, 14:35:15.485
12, 347.45, 13.32, 5.79, 8.91, 0.000, 0.000, 0.000, 14:35:15.485
13, -144.30, 21.05, 5.41, 5.71, 0.000, 0.000, 0.000, 14:35:15.506
14, -156.78, -7.45, 21.75, 20.98, 0.000, 0.000, 0.000, 14:35:15.506
15, 326.69, 10.12, 9.83, 10.86, 0.000, 0.000, 0.000, 14:35:15.506
16, -15.81, 18.65, 0.93, 4.80, 0.000, 0.000, 0.000, 14:35:15.506
17, -269.15, 6.40, 15.84, 16.10, 0.000, 0.000, 0.000, 14:35:15.528
18, 281.81, 3.85, 20.32, 13.90, 0.000, 0.000, 0.000, 14:35:15.528
19, 154.52, 11.04, 3.75, 3.78, 0.000, 0.000, 0.000, 14:35:15.529
20, -332.39, 13.22, 4.86, 9.31, 0.000, 0.000, 0.000, 14:35:15.529
21, 79.04, -4.23, 23.15, 22.21, 0.000, 0.000, 0.000, 14:35:15.551
22, 260.17, 10.73, 1.71, 8.96, 0.000, 0.000, 0.000, 14:35:15.551
23, -65.89, 18.28, 3.59, 8.60, 0.000, 0.000, 0.000, 14:35:15.551
24, -159.08, -2.07, 21.55, 21.51, 0.000, 0.000, 0.000, 14:35:15.551
25, 428.54, 5.85, 11.66, 13.33, 0.000, 0.000, 0.000, 14:35:15.552
26, 42.94, 19.34, -1.65, 3.20, 0.000, 0.000, 0.000, 14:35:15.552
27, -477.28, 9.02, 14.01, 13.79, 0.000, 0.000, 0.000, 14:35:15.573
28, 46.44, -2.66, 18.39, 20.25, 0.000, 0.000, 0.000, 14:35:15.573
29, 127.99, 13.27, 3.15, 4.79, 0.000, 0.000, 0.000, 14:35:15.574
30, -271.77, 12.92, 8.43, 7.49, 0.000, 0.000, 0.000, 14:35:15.574
31, 399.44, -4.47, 23.70, 22.01, 0.000, 0.000, 0.000, 14:35:15.596
32, 376.88, 12.38, 4.52, 6.00, 0.000, 0.000, 0.000, 14:35:15.596
33, -88.85, 18.51, 3.35, 5.69, 0.000, 0.000, 0.000, 14:35:15.596
34, -70.16, -3.96, 20.63, 20.57, 0.000, 0.000, 0.000, 14:35:15.597
35, 403.57, 5.52, 12.17, 11.41, 0.000, 0.000, 0.000, 14:35:15.618
36, -8.78, 24.55, 0.85, 8.21, 0.000, 0.000, 0.000, 14:35:15.618
37, -327.03, -0.75, 15.25, 18.45, 0.000, 0.000, 0.000, 14:35:15.619
38, 184.49, -2.11, 19.04, 17.34, 0.000, 0.000, 0.000, 14:35:15.619
39, 91.64, 14.47, 1.99, 4.30, 0.000, 0.000, 0.000, 14:35:15.641
40, -401.63, 14.99, 8.59, 7.43, 0.000, 0.000, 0.000, 14:35:15.642
41, -103.48, -3.56, 20.91, 24.93, 0.000, 0.000, 0.000, 14:35:15.664
42, 454.62, 12.34, 4.48, 5.03, 0.000, 0.000, 0.000, 14:35:15.664
43, -84.43, 14.75, 1.43, 3.98, 0.000, 0.000, 0.000, 14:35:15.664
44, -21.71, -1.27, 23.39, 22.26, 0.000, 0.000, 0.000, 14:35:15.665
45, 412.46, 3.08, 10.30, 9.79, 0.000, 0.000, 0.000, 14:35:15.665
46, -37.26, 19.58, -0.20, 0.61, 0.000, 0.000, 0.000, 14:35:15.665
47, -210.29, 10.39, 15.04, 14.28, 0.000, 0.000, 0.000, 14:35:15.666
48, 363.11, -0.19, 19.65, 21.05, 0.000, 0.000, 0.000, 14:35:15.666
49, 259.50, 16.72, 5.87, 0.77, 0.000, 0.000, 0.000, 14:35:15.687
50, -253.59, 13.37, 9.57, 9.65, 0.000, 0.000, 0.000, 14:35:15.687
51, -43.30, -0.99, 22.53, 25.13, 0.000, 0.000, 0.000, 14:35:15.687
52, -53.22, 12.77, 7.49, 7.13, 0.000, 0.000, 0.000, 14:35:15.687
53, -47.01, 13.19, 3.52, 3.82, 0.000, 0.000, 0.000, 14:35:15.708
54, -74.42, 5.11, 25.94, 18.24, 0.000, 0.000, 0.000, 14:35:15.708
55, 311.02, 1.34, 14.10, 14.44, 0.000, 0.000, 0.000, 14:35:15.709
56, 34.25, 19.95, -0.31, 4.06, 0.000, 0.000, 0.000, 14:35:15.709
57, -288.15, 7.25, 18.95, 15.43, 0.000, 0.000, 0.000, 14:35:15.731
58, 235.33, -4.13, 19.66, 21.22, 0.000, 0.000, 0.000, 14:35:15.731
59, 196.76, 13.94, 1.42, 3.09, 0.000, 0.000, 0.000, 14:35:15.731
60, -92.92, 15.82, 7.18, 7.84, 0.000, 0.000, 0.000, 14:35:15.731
61, 69.52, -4.10, 24.84, 22.36, 0.000, 0.000, 0.000, 14:35:15.732
62, 336.71, 16.40, 4.94, 8.42, 0.000, 0.000, 0.000, 14:35:15.732
63, -80.24, 20.40, 1.04, 5.65, 0.000, 0.000, 0.000, 14:35:15.753
64, -80.78, -1.13, 23.24, 22.86, 0.000, 0.000, 0.000, 14:35:15.753
65, 336.71, 3.35, 14.10, 12.27, 0.000, 0.000, 0.000, 14:35:15.754
66, 8.55, 13.08, 4.25, 3.29, 0.000, 0.000, 0.000, 14:35:15.754
67, -370.98, 7.31, 14.15, 14.51, 0.000, 0.000, 0.000, 14:35:15.776
68, 109.85, -7.74, 15.17, 19.86, 0.000, 0.000, 0.000, 14:35:15.776
69, 295.50, 18.46, 2.11, 5.99, 0.000, 0.000, 0.000, 14:35:15.776
70, -143.63, 14.22, 7.97, 9.90, 0.000, 0.000, 0.000, 14:35:15.776
71, 36.36, -4.59, 26.03, 21.43, 0.000, 0.000, 0.000, 14:35:15.798
72, 222.77, 15.83, 1.93, 3.87, 0.000, 0.000, 0.000, 14:35:15.798
73, -397.27, 11.14, 2.21, 6.09, 0.000, 0.000, 0.000, 14:35:15.799
74, -283.97, 2.90, 21.78, 21.50, 0.000, 0.000, 0.000, 14:35:15.799
75, 488.38, 7.58, 11.18, 11.92, 0.000, 0.000, 0.000, 14:35:15.821
76, 295.84, 21.59, -1.20, 6.04, 0.000, 0.000, 0.000, 14:35:15.821
77, -224.45, 7.28, 13.38, 15.22, 0.000, 0.000, 0.000, 14:35:15.821
78, 228.32, -3.06, 16.96, 16.60, 0.000, 0.000, 0.000, 14:35:15.822
79, -31.48, 11.50, 2.59, 4.25, 0.000, 0.000, 0.000, 14:35:15.843
80, -141.43, 12.78, 9.53, 7.56, 0.000, 0.000, 0.000, 14:35:15.843
81, 217.64, 2.74, 21.82, 21.71, 0.000, 0.000, 0.000, 14:35:15.844
82, 293.28, 5.86, 6.05, 5.80, 0.000, 0.000, 0.000, 14:35:15.844
83, -140.18, 16.58, 1.96, 8.32, 0.000, 0.000, 0.000, 14:35:15.844
84, -203.24, -2.40, 23.76, 19.79, 0.000, 0.000, 0.000, 14:35:15.844
85, 234.52, 4.97, 10.02, 13.16, 0.000, 0.000, 0.000, 14:35:15.866
86, 106.59, 19.74, 2.48, -0.99, 0.000, 0.000, 0.000, 14:35:15.866
87, -259.43, 8.94, 11.72, 16.80, 0.000, 0.000, 0.000, 14:35:15.866
88, 161.22, -0.17, 19.08, 19.03, 0.000, 0.000, 0.000, 14:35:15.867
89, 205.55, 19.07, 3.83, 3.78, 0.000, 0.000, 0.000, 14:35:15.888
90, -252.49, 21.08, 6.49, 8.70, 0.000, 0.000, 0.000, 14:35:15.889
91, -28.48, -9.02, 25.22, 24.71, 0.000, 0.000, 0.000, 14:35:15.889
92, 350.48, 9.61, 3.65, 9.94, 0.000, 0.000, 0.000, 14:35:15.889
93, -149.36, 12.95, 2.70, 5.14, 0.000, 0.000, 0.000, 14:35:15.911
94, -207.80, 0.54, 22.10, 17.75, 0.000, 0.000, 0.000, 14:35:15.911
95, 359.07, 5.69, 15.88, 15.04, 0.000, 0.000, 0.000, 14:35:15.911
96, 123.29, 15.85, 1.74, 7.17, 0.000, 0.000, 0.000, 14:35:15.911
97, -255.32, 10.25, 11.99, 13.69, 0.000, 0.000, 0.000, 14:35:15.912
98, 260.75, -2.65, 22.85, 21.77, 0.000, 0.000, 0.000, 14:35:15.912
99, 182.83, 18.67, 2.71, 6.67, 0.000, 0.000, 0.000, 14:35:15.933
100, -219.53, 11.92, 7.23, 8.49, 0.000, 0.000, 0.000, 14:35:15.933
101, 112.74, -2.71, 23.32, 24.03, 0.000, 0.000, 0.000, 14:35:15.934
102, 322.41, 11.17, 5.75, 8.35, 0.000, 0.000, 0.000, 14:35:15.934
103, -100.82, 16.65, 1.18, 4.68, 0.000, 0.000, 0.000, 14:35:15.956
104, -264.11, -2.66, 19.79, 19.95, 0.000, 0.000, 0.000, 14:35:15.956
105, 285.29, 4.98, 15.94, 13.16, 0.000, 0.000, 0.000, 14:35:15.956
106, 31.36, 16.08, 1.78, 6.59, 0.000, 0.000, 0.000, 14:35:15.956
107, -221.56, 7.69, 12.18, 18.75, 0.000, 0.000, 0.000, 14:35:15.978
108, 181.00, 0.62, 20.73, 16.52, 0.000, 0.000, 0.000, 14:35:15.978
109, -137.76, 9.97, 0.61, 8.03, 0.000, 0.000, 0.000, 14:35:15.979
110, 14.81, 14.54, 7.19, 3.80, 0.000, 0.000, 0.000, 14:35:15.979
111, 150.34, 1.04, 27.65, 24.61, 0.000, 0.000, 0.000, 14:35:16.001
112, 258.76, 14.83, 9.66, 7.83, 0.000, 0.000, 0.000, 14:35:16.001
113, -50.09, 16.89, 1.21, 4.17, 0.000, 0.000, 0.000, 14:35:16.001
114, -218.23, 1.25, 19.76, 17.68, 0.000, 0.000, 0.000, 14:35:16.001
115, 357.06, 2.06, 13.55, 12.69, 0.000, 0.000, 0.000, 14:35:16.002
116, 102.60, 19.52, -0.07, 3.38, 0.000, 0.000, 0.000, 14:35:16.002
117, -227.73, 7.34, 14.48, 13.79, 0.000, 0.000, 0.000, 14:35:16.023
118, 216.96, -4.51, 18.64, 22.64, 0.000, 0.000, 0.000, 14:35:16.024
119, 196.55, 16.15, 4.53, 6.06, 0.000, 0.000, 0.000, 14:35:16.024
120, -368.48, 16.08, 5.62, 12.93, 0.000, 0.000, 0.000, 14:35:16.024
121, -168.46, -1.92, 24.52, 19.86, 0.000, 0.000, 0.000, 14:35:16.046
122, 491.46, 10.61, 6.63, 6.32, 0.000, 0.000, 0.000, 14:35:16.048
123, -15.99, 20.14, 4.37, 1.91, 0.000, 0.000, 0.000, 14:35:16.048
124, -82.80, -2.10, 22.07, 19.77, 0.000, 0.000, 0.000, 14:35:16.048
125, 311.46, 2.45, 8.15, 12.20, 0.000, 0.000, 0.000, 14:35:16.068
126, -22.52, 25.18, -0.98, -0.56, 0.000, 0.000, 0.000, 14:35:16.069
127, -431.71, -0.32, 12.98, 13.43, 0.000, 0.000, 0.000, 14:35:16.069
128, 260.91, -2.02, 19.90, 20.23, 0.000, 0.000, 0.000, 14:35:16.069
129, 169.70, 17.38, 1.55, 0.01, 0.000, 0.000, 0.000, 14:35:16.091
130, -126.19, 15.20, 9.11, 8.39, 0.000, 0.000, 0.000, 14:35:16.091
131, 110.95, -4.99, 26.62, 24.22, 0.000, 0.000, 0.000, 14:35:16.091
132, 276.65, 11.69, 0.80, 5.44, 0.000, 0.000, 0.000, 14:35:16.092
133, -88.57, 16.96, 5.59, 6.48, 0.000, 0.000, 0.000, 14:35:16.092
134, -215.43, -0.85, 20.40, 20.01, 0.000, 0.000, 0.000, 14:35:16.092
135, 301.80, 5.75, 11.47, 14.27, 0.000, 0.000, 0.000, 14:35:16.113
136, 122.84, 12.67, -0.36, 4.02, 0.000, 0.000, 0.000, 14:35:16.113
137, -240.90, 7.58, 13.27, 14.21, 0.000, 0.000, 0.000, 14:35:16.114
138, 235.98, -5.80, 22.40, 20.32, 0.000, 0.000, 0.000, 14:35:16.114
139, 134.39, 13.91, 7.74, 6.64, 0.000, 0.000, 0.000, 14:35:16.136
140, -378.87, 11.95, 8.95, 6.09, 0.000, 0.000, 0.000, 14:35:16.136
141, 72.79, -3.76, 24.17, 20.11, 0.000, 0.000, 0.000, 14:35:16.136
142, 224.75, 6.36, 6.78, 6.90, 0.000, 0.000, 0.000, 14:35:16.136
143, 35.36, 17.98, 2.73, 7.29, 0.000, 0.000, 0.000, 14:35:16.158
144, -144.94, 5.56, 22.38, 17.77, 0.000, 0.000, 0.000, 14:35:16.158
145, 437.19, 2.34, 11.94, 15.60, 0.000, 0.000, 0.000, 14:35:16.159
146, -56.70, 20.83, 1.08, 6.90, 0.000, 0.000, 0.000, 14:35:16.159
147, -181.98, 9.95, 14.30, 13.28, 0.000, 0.000, 0.000, 14:35:16.181
148, 257.15, -0.55, 20.86, 17.25, 0.000, 0.000, 0.000, 14:35:16.181
149, 171.44, 13.42, -4.33, 4.06, 0.000, 0.000, 0.000, 14:35:16.181
150, -241.54, 13.81, 7.29, 5.76, 0.000, 0.000, 0.000, 14:35:16.182
151, -32.43, -3.15, 23.20, 21.48, 0.000, 0.000, 0.000, 14:35:16.182
152, 196.70, 12.27, 3.72, 5.59, 0.000, 0.000, 0.000, 14:35:16.182
153, -146.10, 24.64, -0.26, 7.73, 0.000, 0.000, 0.000, 14:35:16.203
154, -26.22, 1.75, 23.81, 18.07, 0.000, 0.000, 0.000, 14:35:16.203
155, 437.55, 3.97, 10.86, 12.06, 0.000, 0.000, 0.000, 14:35:16.204
156, 36.04, 19.21, 2.20, 5.05, 0.000, 0.000, 0.000, 14:35:16.204
157, -398.91, 8.68, 15.17, 14.05, 0.000, 0.000, 0.000, 14:35:16.226
158, 260.40, -3.30, 21.27, 22.01, 0.000, 0.000, 0.000, 14:35:16.226
159, 140.99, 13.75, -0.08, 5.13, 0.000, 0.000, 0.000, 14:35:16.226
160, -235.16, 16.58, 8.70, 8.18, 0.000, 0.000, 0.000, 14:35:16.226
161, -45.15, -7.26, 28.27, 22.46, 0.000, 0.000, 0.000, 14:35:16.248
162, 416.34, 15.57, 3.84, 8.04, 0.000, 0.000, 0.000, 14:35:16.248
163, -117.34, 12.40, -2.54, 0.93, 0.000, 0.000, 0.000, 14:35:16.249
164, -87.23, -0.52, 25.21, 19.80, 0.000, 0.000, 0.000, 14:35:16.249
165, 400.98, 5.52, 11.06, 16.10, 0.000, 0.000, 0.000, 14:35:16.271
166, 22.99, 16.83, 4.04, 6.48, 0.000, 0.000, 0.000, 14:35:16.271
167, -289.67, 7.53, 13.91, 12.98, 0.000, 0.000, 0.000, 14:35:16.271
168, 243.55, -3.02, 20.34, 20.58, 0.000, 0.000, 0.000, 14:35:16.271
169, 144.55, 13.98, 3.76, 4.75, 0.000, 0.000, 0.000, 14:35:16.272
170, -316.35, 17.14, 3.66, 9.62, 0.000, 0.000, 0.000, 14:35:16.272
171, 7.19, -0.79, 24.59, 20.59, 0.000, 0.000, 0.000, 14:35:16.293
172, 185.35, 7.98, 2.66, 8.98, 0.000, 0.000, 0.000, 14:35:16.293
173, -9.24, 16.00, 2.81, 7.97, 0.000, 0.000, 0.000, 14:35:16.294
174, -47.04, 2.05, 20.74, 22.17, 0.000, 0.000, 0.000, 14:35:16.294
175, 272.67, 4.05, 14.76, 15.40, 0.000, 0.000, 0.000, 14:35:16.316
176, 166.09, 19.56, 0.43, 8.45, 0.000, 0.000, 0.000, 14:35:16.316
177, -242.46, 13.34, 9.53, 13.79, 0.000, 0.000, 0.000, 14:35:16.316
178, 241.94, -4.03, 22.96, 20.72, 0.000, 0.000, 0.000, 14:35:16.316
179, 222.95, 14.62, 3.81, 3.52, 0.000, 0.000, 0.000, 14:35:16.338
180, -266.34, 19.02, 5.29, 9.13, 0.000, 0.000, 0.000, 14:35:16.339
181, -40.69, -11.01, 25.04, 23.13, 0.000, 0.000, 0.000, 14:35:16.339
182, 247.79, 11.72, 4.47, 8.55, 0.000, 0.000, 0.000, 14:35:16.339
183, -46.91, 14.00, 0.97, 2.30, 0.000, 0.000, 0.000, 14:35:16.361
184, -235.73, -1.04, 22.16, 17.24, 0.000, 0.000, 0.000, 14:35:16.361
185, 367.68, 6.54, 14.28, 15.18, 0.000, 0.000, 0.000, 14:35:16.361
186, -18.53, 20.71, 1.11, 4.11, 0.000, 0.000, 0.000, 14:35:16.361
187, -354.48, 7.21, 10.56, 11.28, 0.000, 0.000, 0.000, 14:35:16.362
188, 349.74, -2.24, 22.95, 18.42, 0.000, 0.000, 0.000, 14:35:16.362
189, 251.07, 16.66, 2.35, 7.32, 0.000, 0.000, 0.000, 14:35:16.383
190, -281.24, 11.37, 6.79, 5.47, 0.000, 0.000, 0.000, 14:35:16.383
191, 75.13, -5.62, 23.74, 22.02, 0.000, 0.000, 0.000, 14:35:16.384
192, 359.33, 13.57, 5.61, 9.40, 0.000, 0.000, 0.000, 14:35:16.384
193, -103.34, 21.36, 2.41, 5.69, 0.000, 0.000, 0.000, 14:35:16.406
194, -179.66, 3.26, 20.87, 20.15, 0.000, 0.000, 0.000, 14:35:16.406
195, 356.95, 5.13, 13.22, 13.23, 0.000, 0.000, 0.000, 14:35:16.407
196, 19.22, 18.16, 2.39, 1.78, 0.000, 0.000, 0.000, 14:35:16.407
197, -308.60, 6.78, 10.08, 14.21, 0.000, 0.000, 0.000, 14:35:16.428
198, 264.50, 3.80, 18.74, 20.53, 0.000, 0.000, 0.000, 14:35:16.428
199, 252.56, 4.91, 2.98, 8.99, 0.000, 0.000, 0.000, 14:35:16.429
200, -292.41, 16.33, 4.07, 8.81, 0.000, 0.000, 0.000, 14:35:16.429
0, -25.44, -5.60, 24.22, 22.49, 0.000, 0.000, 0.000, 14:35:16.429
1, 256.27, 8.31, 5.56, 6.08, 0.000, 0.000, 0.000, 14:35:16.451
2, -118.74, 17.06, 3.07, 4.56, 0.000, 0.000, 0.000, 14:35:16.451
3, -86.53, -0.77, 20.98, 21.44, 0.000, 0.000, 0.000, 14:35:16.451
4, 382.08, 5.51, 11.71, 14.04, 0.000, 0.000, 0.000, 14:35:16.451
5, 24.67, 21.22, 0.88, 3.25, 0.000, 0.000, 0.000, 14:35:16.473
6, -300.02, 12.97, 11.90, 12.68, 0.000, 0.000, 0.000, 14:35:16.473
7, 259.53, -7.15, 21.90, 22.47, 0.000, 0.000, 0.000, 14:35:16.474
8, 217.23, 17.18, 4.04, 4.03, 0.000, 0.000, 0.000, 14:35:16.474
9, -261.53, 15.29, 5.49, 6.23, 0.000, 0.000, 0.000, 14:35:16.502
10, 19.12, -5.77, 24.87, 22.64, 0.000, 0.000, 0.000, 14:35:16.502
11, 301.39, 8.48, 8.00, 6.77, 0.000, 0.000, 0.000, 14:35:16.502
12, -102.13, 16.42, 1.69, 4.83, 0.000, 0.000, 0.000, 14:35:16.503
13, -182.91, 0.88, 22.71, 19.72, 0.000, 0.000, 0.000, 14:35:16.503
14, 347.06, 7.41, 15.43, 12.90, 0.000, 0.000, 0.000, 14:35:16.503
15, 55.06, 17.90, 4.12, 6.51, 0.000, 0.000, 0.000, 14:35:16.518
16, -275.41, 7.01, 14.27, 15.39, 0.000, 0.000, 0.000, 14:35:16.519
17, 231.44, -0.82, 22.68, 21.32, 0.000, 0.000, 0.000, 14:35:16.519
18, 199.82, 17.20, 2.18, 3.82, 0.000, 0.000, 0.000, 14:35:16.519
19, -236.20, 13.59, 5.76, 6.10, 0.000, 0.000, 0.000, 14:35:16.542
20, 5.50, -4.60, 23.25, 23.34, 0.000, 0.000, 0.000, 14:35:16.543
21, 333.99, 14.22, 1.11, 6.82, 0.000, 0.000, 0.000, 14:35:16.543
22, -90.43, 19.07, -0.12, 6.94, 0.000, 0.000, 0.000, 14:35:16.543
23, -198.17, 2.69, 21.12, 19.15, 0.000, 0.000, 0.000, 14:35:16.563
24, 387.72, 10.13, 14.53, 17.56, 0.000, 0.000, 0.000, 14:35:16.563
25, 97.24, 15.83, 0.53, 5.95, 0.000, 0.000, 0.000, 14:35:16.564
26, -283.03, 6.80, 10.58, 13.01, 0.000, 0.000, 0.000, 14:35:16.564
27, 207.76, -2.37, 25.45, 19.29, 0.000, 0.000, 0.000, 14:35:16.586
28, 223.09, 20.04, 1.45, 6.83, 0.000, 0.000, 0.000, 14:35:16.586
29, -231.99, 13.26, 9.17, 8.47, 0.000, 0.000, 0.000, 14:35:16.586
30, 15.81, 0.65, 22.53, 23.50, 0.000, 0.000, 0.000, 14:35:16.586
31, 305.18, 11.03, 8.55, 11.15, 0.000, 0.000, 0.000, 14:35:16.587
32, -78.48, 11.77, 2.85, 4.09, 0.000, 0.000, 0.000, 14:35:16.587
33, -165.24, -0.42, 19.29, 16.97, 0.000, 0.000, 0.000, 14:35:16.608
34, 325.95, 3.26, 15.72, 16.19, 0.000, 0.000, 0.000, 14:35:16.608
35, 40.85, 16.62, 4.70, 5.68, 0.000, 0.000, 0.000, 14:35:16.609
36, -285.80, 11.86, 11.72, 12.41, 0.000, 0.000, 0.000, 14:35:16.609
37, 263.11, -1.75, 19.24, 19.85, 0.000, 0.000, 0.000, 14:35:16.631
38, 172.18, 14.13, 6.49, 2.21, 0.000, 0.000, 0.000, 14:35:16.631
39, -267.19, 9.89, 2.06, 4.59, 0.000, 0.000, 0.000, 14:35:16.631
40, 17.19, -5.62, 22.57, 18.57, 0.000, 0.000, 0.000, 14:35:16.631
41, 316.41, 12.93, 3.94, 8.12, 0.000, 0.000, 0.000, 14:35:16.653
42, -82.50, 21.69, 2.26, 5.56, 0.000, 0.000, 0.000, 14:35:16.653
43, -175.46, -3.32, 22.28, 23.01, 0.000, 0.000, 0.000, 14:35:16.654
44, 352.35, 0.95, 14.70, 14.42, 0.000, 0.000, 0.000, 14:35:16.654
45, 68.58, 18.64, 1.56, 4.58, 0.000, 0.000, 0.000, 14:35:16.676
46, -273.31, 8.99, 11.49, 14.07, 0.000, 0.000, 0.000, 14:35:16.676
47, 228.10, -2.17, 19.89, 16.15, 0.000, 0.000, 0.000, 14:35:16.676
48, 214.54, 19.13, 0.08, 4.03, 0.000, 0.000, 0.000, 14:35:16.676
49, -234.32, 14.85, 1.97, 6.02, 0.000, 0.000, 0.000, 14:35:16.677
50, 23.84, -7.16, 23.88, 23.59, 0.000, 0.000, 0.000, 14:35:16.677
51, 314.67, 10.71, 6.66, 5.31, 0.000, 0.000, 0.000, 14:35:16.698
52, -85.44, 14.91, 7.39, 8.63, 0.000, 0.000, 0.000, 14:35:16.698
53, -185.42, 1.42, 21.69, 20.09, 0.000, 0.000, 0.000, 14:35:16.699
54, 343.08, 7.04, 13.44, 13.05, 0.000, 0.000, 0.000, 14:35:16.699
55, 65.93, 17.07, -0.93, 4.82, 0.000, 0.000, 0.000, 14:35:16.721
56, -276.93, 7.88, 12.34, 13.53, 0.000, 0.000, 0.000, 14:35:16.721
57, 223.83, -2.38, 22.10, 18.64, 0.000, 0.000, 0.000, 14:35:16.722
58, 211.18, 13.23, 3.32, 8.66, 0.000, 0.000, 0.000, 14:35:16.722
59, -237.25, 16.16, 5.76, 8.80, 0.000, 0.000, 0.000, 14:35:16.743
60, 9.90, 0.44, 23.07, 24.50, 0.000, 0.000, 0.000, 14:35:16.743
61, 306.44, 9.24, 7.86, 8.79, 0.000, 0.000, 0.000, 14:35:16.744
62, -92.13, 16.27, 5.05, 3.43, 0.000, 0.000, 0.000, 14:35:16.744
63, -192.06, 3.72, 19.19, 18.07, 0.000, 0.000, 0.000, 14:35:16.766
64, 333.63, 4.28, 14.27, 13.76, 0.000, 0.000, 0.000, 14:35:16.766
65, 65.76, 16.10, 1.69, 4.75, 0.000, 0.000, 0.000, 14:35:16.766
66, -283.76, 9.80, 14.21, 8.24, 0.000, 0.000, 0.000, 14:35:16.767
67, 218.92, -4.85, 21.19, 22.18, 0.000, 0.000, 0.000, 14:35:16.767
68, 207.23, 15.18, 1.13, 6.51, 0.000, 0.000, 0.000, 14:35:16.767
69, -237.72, 15.78, 11.12, 5.20, 0.000, 0.000, 0.000, 14:35:16.789
70, 9.82, -8.76, 21.64, 20.02, 0.000, 0.000, 0.000, 14:35:16.789
71, 311.03, 11.28, 4.43, 10.60, 0.000, 0.000, 0.000, 14:35:16.789
72, -92.65, 13.34, 2.31, 3.92, 0.000, 0.000, 0.000, 14:35:16.789
73, -193.29, 2.57, 12.84, 19.93, 0.000, 0.000, 0.000, 14:35:16.811
74, 335.48, 3.25, 16.38, 16.13, 0.000, 0.000, 0.000, 14:35:16.811
75, 69.04, 20.09, 0.59, 2.74, 0.000, 0.000, 0.000, 14:35:16.811
76, -285.26, 10.04, 12.60, 14.71, 0.000, 0.000, 0.000, 14:35:16.811
77, 215.31, -5.07, 21.87, 20.85, 0.000, 0.000, 0.000, 14:35:16.833
78, 213.31, 20.14, 1.56, 4.92, 0.000, 0.000, 0.000, 14:35:16.833
79, -234.49, 12.01, 3.62, 9.59, 0.000, 0.000, 0.000, 14:35:16.834
80, 5.38, -5.12, 24.38, 19.01, 0.000, 0.000, 0.000, 14:35:16.834
81, 316.95, 13.42, 8.92, 7.42, 0.000, 0.000, 0.000, 14:35:16.856
82, -87.41, 18.83, 1.07, 2.34, 0.000, 0.000, 0.000, 14:35:16.856
83, -196.56, 1.01, 19.24, 20.09, 0.000, 0.000, 0.000, 14:35:16.856
84, 336.36, 0.77, 15.10, 15.49, 0.000, 0.000, 0.000, 14:35:16.857
85, 70.75, 17.98, 0.26, 3.67, 0.000, 0.000, 0.000, 14:35:16.857
86, -282.48, 10.37, 13.59, 11.13, 0.000, 0.000, 0.000, 14:35:16.857
87, 222.48, 0.77, 27.48, 21.87, 0.000, 0.000, 0.000, 14:35:16.878
88, 215.96, 11.23, 3.75, 6.43, 0.000, 0.000, 0.000, 14:35:16.879
89, -239.84, 15.88, 2.64, 4.95, 0.000, 0.000, 0.000, 14:35:16.879
90, 6.30, -3.50, 25.88, 23.31, 0.000, 0.000, 0.000, 14:35:16.879
91, 314.85, 14.82, 4.90, 7.73, 0.000, 0.000, 0.000, 14:35:16.901
92, -88.07, 15.64, 3.45, 8.26, 0.000, 0.000, 0.000, 14:35:16.901
93, -193.84, 2.44, 22.21, 19.99, 0.000, 0.000, 0.000, 14:35:16.901
94, 334.50, 3.46, 14.78, 14.90, 0.000, 0.000, 0.000, 14:35:16.901
95, 71.45, 13.85, 2.68, 4.09, 0.000, 0.000, 0.000, 14:35:16.923
96, -283.30, 10.01, 9.97, 14.57, 0.000, 0.000, 0.000, 14:35:16.923
97, 216.73, -6.09, 20.79, 13.61, 0.000, 0.000, 0.000, 14:35:16.924
98, 209.74, 14.88, 2.17, 7.42, 0.000, 0.000, 0.000, 14:35:16.924
99, -231.83, 16.06, 2.78, 7.73, 0.000, 0.000, 0.000, 14:35:16.946
100, 9.76, -3.75, 22.56, 22.88, 0.000, 0.000, 0.000, 14:35:16.946
101, 315.64, 8.39, 8.43, 8.27, 0.000, 0.000, 0.000, 14:35:16.946
102, -81.43, 21.44, 0.46, 0.54, 0.000, 0.000, 0.000, 14:35:16.946
103, -194.96, -1.55, 17.00, 19.25, 0.000, 0.000, 0.000, 14:35:16.947
104, 339.37, 2.45, 15.55, 17.11, 0.000, 0.000, 0.000, 14:35:16.947
105, 71.66, 19.75, 0.23, 3.36, 0.000, 0.000, 0.000, 14:35:16.968
106, -280.01, 4.11, 12.92, 13.87, 0.000, 0.000, 0.000, 14:35:16.968
107, 216.81, -0.55, 22.39, 20.45, 0.000, 0.000, 0.000, 14:35:16.969
108, 212.42, 17.34, 2.02, 5.67, 0.000, 0.000, 0.000, 14:35:16.969
109, -231.66, 14.57, 4.90, 7.56, 0.000, 0.000, 0.000, 14:35:16.991
110, 10.12, -4.01, 26.96, 20.86, 0.000, 0.000, 0.000, 14:35:16.991
111, 317.77, 12.50, 5.08, 8.84, 0.000, 0.000, 0.000, 14:35:16.991
112, -81.89, 18.01, 4.65, 3.77, 0.000, 0.000, 0.000, 14:35:16.992
113, -195.95, 4.72, 22.88, 20.99, 0.000, 0.000, 0.000, 14:35:17.013
114, 337.31, 8.77, 15.12, 12.56, 0.000, 0.000, 0.000, 14:35:17.014
115, 71.80, 14.34, 0.26, 4.89, 0.000, 0.000, 0.000, 14:35:17.014
116, -279.67, 6.45, 8.84, 11.31, 0.000, 0.000, 0.000, 14:35:17.014
117, 214.14, -6.90, 23.28, 19.52, 0.000, 0.000, 0.000, 14:35:17.036
118, 214.80, 14.67, 0.98, 4.72, 0.000, 0.000, 0.000, 14:35:17.036
119, -234.75, 15.14, 4.37, 8.11, 0.000, 0.000, 0.000, 14:35:17.036
120, 3.84, -1.27, 25.40, 23.77, 0.000, 0.000, 0.000, 14:35:17.036
121, 317.52, 9.80, 6.20, 8.39, 0.000, 0.000, 0.000, 14:35:17.037
122, -83.96, 18.70, -0.00, 4.73, 0.000, 0.000, 0.000, 14:35:17.037
123, -201.81, 0.80, 18.71, 19.52, 0.000, 0.000, 0.000, 14:35:17.058
124, 333.49, 2.68, 16.15, 16.13, 0.000, 0.000, 0.000, 14:35:17.058
125, 77.52, 15.96, 4.29, 3.51, 0.000, 0.000, 0.000, 14:35:17.059
126, -281.71, 10.76, 13.64, 13.44, 0.000, 0.000, 0.000, 14:35:17.059
127, 208.89, -3.08, 25.24, 22.65, 0.000, 0.000, 0.000, 14:35:17.081
128, 217.71, 11.98, 4.58, 5.55, 0.000, 0.000, 0.000, 14:35:17.081
129, -229.79, 19.31, 2.99, 6.13, 0.000, 0.000, 0.000, 14:35:17.081
130, 3.43, -6.71, 18.41, 17.39, 0.000, 0.000, 0.000, 14:35:17.081
131, 315.56, 11.11, 4.00, 7.55, 0.000, 0.000, 0.000, 14:35:17.103
132, -80.91, 25.48, 5.42, 4.85, 0.000, 0.000, 0.000, 14:35:17.104
133, -194.66, -1.37, 20.21, 21.08, 0.000, 0.000, 0.000, 14:35:17.104
134, 326.98, 0.41, 14.94, 10.53, 0.000, 0.000, 0.000, 14:35:17.105
135, 75.12, 17.78, 0.29, 6.16, 0.000, 0.000, 0.000, 14:35:17.126
136, -279.03, 11.05, 10.97, 10.22, 0.000, 0.000, 0.000, 14:35:17.126
137, 203.57, -4.79, 18.69, 21.55, 0.000, 0.000, 0.000, 14:35:17.126
138, 224.19, 16.39, -0.26, 3.98, 0.000, 0.000, 0.000, 14:35:17.127
139, -224.98, 12.40, 5.40, 5.51, 0.000, 0.000, 0.000, 14:35:17.127
140, 1.12, -4.77, 23.60, 23.47, 0.000, 0.000, 0.000, 14:35:17.127
141, 318.14, 13.70, 9.79, 10.67, 0.000, 0.000, 0.000, 14:35:17.148
142, -77.30, 14.89, 0.86, 6.94, 0.000, 0.000, 0.000, 14:35:17.148
143, -203.10, 1.13, 20.55, 20.96, 0.000, 0.000, 0.000, 14:35:17.149
144, 330.90, 2.14, 14.04, 17.28, 0.000, 0.000, 0.000, 14:35:17.149
145, 77.56, 18.54, 0.84, 2.52, 0.000, 0.000, 0.000, 14:35:17.171
146, -284.86, 7.36, 10.81, 14.92, 0.000, 0.000, 0.000, 14:35:17.171
147, 211.04, -1.80, 22.76, 22.73, 0.000, 0.000, 0.000, 14:35:17.171
148, 221.52, 13.97, 5.14, 3.11, 0.000, 0.000, 0.000, 14:35:17.171
149, -228.46, 14.65, 2.29, 8.77, 0.000, 0.000, 0.000, 14:35:17.193
150, -4.79, 0.99, 21.58, 20.29, 0.000, 0.000, 0.000, 14:35:17.194
151, 320.62, 3.47, 5.95, 6.62, 0.000, 0.000, 0.000, 14:35:17.194
152, -77.02, 16.46, 2.18, 4.12, 0.000, 0.000, 0.000, 14:35:17.194
153, -200.30, 2.38, 23.60, 18.39, 0.000, 0.000, 0.000, 14:35:17.216
154, 330.57, 2.11, 18.08, 16.30, 0.000, 0.000, 0.000, 14:35:17.216
155, 77.36, 16.05, 1.65, 5.35, 0.000, 0.000, 0.000, 14:35:17.216
156, -281.52, 10.78, 8.54, 10.29, 0.000, 0.000, 0.000, 14:35:17.216
157, 204.77, -5.86, 24.65, 18.44, 0.000, 0.000, 0.000, 14:35:17.217
158, 215.79, 14.53, 4.51, 5.72, 0.000, 0.000, 0.000, 14:35:17.217
159, -222.03, 14.55, 8.29, 6.14, 0.000, 0.000, 0.000, 14:35:17.238
160, 0.66, -3.72, 25.69, 25.04, 0.000, 0.000, 0.000, 14:35:17.238
161, 320.36, 11.70, 2.39, 8.72, 0.000, 0.000, 0.000, 14:35:17.239
162, -74.05, 14.84, 1.45, 2.19, 0.000, 0.000, 0.000, 14:35:17.239
163, -201.34, 2.28, 21.33, 16.49, 0.000, 0.000, 0.000, 14:35:17.261
164, 335.68, 3.82, 13.18, 14.42, 0.000, 0.000, 0.000, 14:35:17.261
165, 79.20, 20.43, 0.68, 1.81, 0.000, 0.000, 0.000, 14:35:17.261
166, -280.35, 12.01, 11.31, 16.83, 0.000, 0.000, 0.000, 14:35:17.261
167, 209.16, -0.36, 21.63, 17.42, 0.000, 0.000, 0.000, 14:35:17.283
168, 219.01, 19.00, 3.22, 0.22, 0.000, 0.000, 0.000, 14:35:17.283
169, -227.00, 12.36, 9.99, 8.98, 0.000, 0.000, 0.000, 14:35:17.284
170, -6.37, -3.84, 23.67, 26.03, 0.000, 0.000, 0.000, 14:35:17.284
171, 319.97, 9.88, 7.79, 11.66, 0.000, 0.000, 0.000, 14:35:17.306
172, -74.27, 17.49, 0.36, 6.90, 0.000, 0.000, 0.000, 14:35:17.306
173, -205.36, 0.20, 18.93, 17.48, 0.000, 0.000, 0.000, 14:35:17.307
174, 331.76, 1.13, 15.69, 11.36, 0.000, 0.000, 0.000, 14:35:17.307
175, 84.02, 15.63, 0.04, 5.89, 0.000, 0.000, 0.000, 14:35:17.307
176, -280.37, 8.35, 11.84, 11.70, 0.000, 0.000, 0.000, 14:35:17.307
177, 205.83, -2.31, 23.86, 18.11, 0.000, 0.000, 0.000, 14:35:17.328
178, 218.24, 13.28, 2.24, 6.06, 0.000, 0.000, 0.000, 14:35:17.328
179, -225.06, 17.91, 3.61, 8.17, 0.000, 0.000, 0.000, 14:35:17.329
180, -12.88, -4.43, 26.44, 25.56, 0.000, 0.000, 0.000, 14:35:17.329
181, 322.32, 14.27, 6.28, 5.03, 0.000, 0.000, 0.000, 14:35:17.351
182, -78.09, 16.26, 3.61, 8.80, 0.000, 0.000, 0.000, 14:35:17.351
183, -214.45, 4.03, 21.84, 18.16, 0.000, 0.000, 0.000, 14:35:17.351
184, 330.55, -2.14, 13.34, 15.31, 0.000, 0.000, 0.000, 14:35:17.351
185, 82.46, 21.59, -2.35, 5.05, 0.000, 0.000, 0.000, 14:35:17.373
186, -278.76, 12.07, 10.47, 10.98, 0.000, 0.000, 0.000, 14:35:17.373
187, 198.76, -7.51, 22.88, 21.88, 0.000, 0.000, 0.000, 14:35:17.374
188, 224.40, 15.29, 1.16, 6.78, 0.000, 0.000, 0.000, 14:35:17.374
189, -216.12, 14.30, 6.01, 7.86, 0.000, 0.000, 0.000, 14:35:17.396
190, -20.66, -1.39, 26.48, 25.26, 0.000, 0.000, 0.000, 14:35:17.397
191, 324.91, 8.57, 5.05, 11.00, 0.000, 0.000, 0.000, 14:35:17.397
192, -65.52, 18.58, 1.36, 3.93, 0.000, 0.000, 0.000, 14:35:17.397
193, -214.42, 4.12, 16.48, 16.65, 0.000, 0.000, 0.000, 14:35:17.397
194, 333.66, 3.63, 17.98, 15.38, 0.000, 0.000, 0.000, 14:35:17.397
