%OpenBCI Raw EEG Data
%
%Sample Rate = 200.0 Hz
%First Column = SampleIndex
%Last Column = Timestamp 
%Other Columns = EEG data in microvolts followed by Accel Data (in G) interleaved with Aux Data
0, -481.36, 7.79, 10.43, 10.60, 0.000, 0.000, 0.000, 15:41:06.434
1, 108.00, 6.24, 15.49, 13.99, 0.000, 0.000, 0.000, 15:41:06.437
2, 310.13, 9.13, 13.24, 12.80, 0.000, 0.000, 0.000, 15:41:06.438
3, -399.50, 18.94, 8.14, 8.34, 0.000, 0.000, 0.000, 15:41:06.438
4, -141.72, -1.33, 18.09, 14.74, 0.000, 0.000, 0.000, 15:41:06.439
5, 386.23, 6.20, 16.32, 16.45, 0.000, 0.000, 0.000, 15:41:06.454
6, -178.68, 15.45, 5.94, 6.25, 0.000, 0.000, 0.000, 15:41:06.455
7, -389.52, 5.13, 15.94, 14.17, 0.000, 0.000, 0.000, 15:41:06.456
8, 294.02, 5.99, 9.76, 15.52, 0.000, 0.000, 0.000, 15:41:06.457
9, 141.64, 6.96, 8.60, 6.92, 0.000, 0.000, 0.000, 15:41:06.457
10, -476.27, 8.46, 8.11, 12.98, 0.000, 0.000, 0.000, 15:41:06.457
11, 109.61, 4.00, 14.91, 17.26, 0.000, 0.000, 0.000, 15:41:06.477
12, 313.34, 13.88, 11.97, 9.33, 0.000, 0.000, 0.000, 15:41:06.477
13, -396.89, 9.35, 5.70, 4.62, 0.000, 0.000, 0.000, 15:41:06.478
14, -160.76, 2.92, 15.60, 17.10, 0.000, 0.000, 0.000, 15:41:06.479
15, 379.30, 9.46, 10.15, 11.35, 0.000, 0.000, 0.000, 15:41:06.503
16, -171.71, 13.59, 2.67, 2.23, 0.000, 0.000, 0.000, 15:41:06.504
17, -386.10, 2.32, 9.62, 10.26, 0.000, 0.000, 0.000, 15:41:06.507
18, 288.79, 6.64, 13.45, 16.82, 0.000, 0.000, 0.000, 15:41:06.507
19, 132.40, 11.76, 5.02, 12.47, 0.000, 0.000, 0.000, 15:41:06.508
20, -487.03, 5.93, 11.77, 13.79, 0.000, 0.000, 0.000, 15:41:06.508
21, 106.38, 8.82, 17.70, 18.69, 0.000, 0.000, 0.000, 15:41:06.523
22, 315.38, 8.51, 11.98, 12.75, 0.000, 0.000, 0.000, 15:41:06.524
23, -407.62, 9.03, 5.95, 6.63, 0.000, 0.000, 0.000, 15:41:06.524
24, -164.69, 4.56, 13.96, 12.11, 0.000, 0.000, 0.000, 15:41:06.525
25, 365.64, 9.41, 14.45, 13.49, 0.000, 0.000, 0.000, 15:41:06.547
26, -178.59, 12.69, 7.21, 5.65, 0.000, 0.000, 0.000, 15:41:06.547
27, -398.63, 4.04, 12.21, 17.77, 0.000, 0.000, 0.000, 15:41:06.548
28, 284.83, 6.99, 12.90, 11.65, 0.000, 0.000, 0.000, 15:41:06.548
29, 116.81, 9.27, 7.90, 9.10, 0.000, 0.000, 0.000, 15:41:06.567
30, -494.73, 12.76, 12.67, 13.63, 0.000, 0.000, 0.000, 15:41:06.568
31, 92.98, -1.31, 14.18, 16.72, 0.000, 0.000, 0.000, 15:41:06.568
32, 305.99, 11.35, 9.79, 9.75, 0.000, 0.000, 0.000, 15:41:06.568
33, -403.12, 14.34, 9.30, 7.24, 0.000, 0.000, 0.000, 15:41:06.591
34, -171.20, 4.36, 13.89, 12.42, 0.000, 0.000, 0.000, 15:41:06.591
35, 365.51, 8.79, 15.56, 13.79, 0.000, 0.000, 0.000, 15:41:06.591
36, -182.08, 12.12, 4.68, 3.53, 0.000, 0.000, 0.000, 15:41:06.592
37, -396.60, 4.87, 11.92, 14.85, 0.000, 0.000, 0.000, 15:41:06.592
38, 277.95, 7.52, 13.75, 13.36, 0.000, 0.000, 0.000, 15:41:06.592
39, 121.75, 18.08, 7.38, 10.99, 0.000, 0.000, 0.000, 15:41:06.612
40, -501.77, 3.54, 11.53, 15.84, 0.000, 0.000, 0.000, 15:41:06.612
41, 102.88, 2.27, 18.44, 14.17, 0.000, 0.000, 0.000, 15:41:06.612
42, 316.12, 9.98, 10.51, 13.66, 0.000, 0.000, 0.000, 15:41:06.613
43, -394.44, 11.69, 6.10, 7.99, 0.000, 0.000, 0.000, 15:41:06.634
44, -167.55, -0.60, 12.54, 14.36, 0.000, 0.000, 0.000, 15:41:06.635
45, 370.60, 5.21, 11.65, 12.92, 0.000, 0.000, 0.000, 15:41:06.635
46, -177.83, 15.84, 0.12, 5.92, 0.000, 0.000, 0.000, 15:41:06.635
47, -389.62, 7.09, 15.33, 18.21, 0.000, 0.000, 0.000, 15:41:06.657
48, 288.28, 12.83, 12.69, 17.07, 0.000, 0.000, 0.000, 15:41:06.658
49, 129.60, 6.28, 6.13, 5.46, 0.000, 0.000, 0.000, 15:41:06.658
50, -490.40, 11.79, 11.06, 12.79, 0.000, 0.000, 0.000, 15:41:06.659
51, 98.93, 3.74, 14.28, 14.96, 0.000, 0.000, 0.000, 15:41:06.680
52, 313.91, 11.44, 12.80, 9.93, 0.000, 0.000, 0.000, 15:41:06.680
53, -398.81, 9.69, 8.50, 7.23, 0.000, 0.000, 0.000, 15:41:06.681
54, -170.95, 4.66, 17.72, 13.47, 0.000, 0.000, 0.000, 15:41:06.681
55, 374.30, 3.59, 8.83, 7.76, 0.000, 0.000, 0.000, 15:41:06.681
56, -178.77, 14.52, 5.56, 8.30, 0.000, 0.000, 0.000, 15:41:06.682
57, -396.99, 3.63, 12.81, 13.87, 0.000, 0.000, 0.000, 15:41:06.702
58, 294.13, 4.10, 10.34, 15.10, 0.000, 0.000, 0.000, 15:41:06.702
59, 123.53, 14.87, 7.80, 10.07, 0.000, 0.000, 0.000, 15:41:06.703
60, -496.85, 8.28, 13.19, 10.54, 0.000, 0.000, 0.000, 15:41:06.703
61, 99.55, 4.77, 17.10, 12.34, 0.000, 0.000, 0.000, 15:41:06.724
62, 321.41, 10.74, 13.55, 13.63, 0.000, 0.000, 0.000, 15:41:06.725
63, -403.16, 15.34, 6.95, 10.07, 0.000, 0.000, 0.000, 15:41:06.725
64, -165.90, 6.91, 11.33, 14.62, 0.000, 0.000, 0.000, 15:41:06.725
65, 379.64, 9.13, 12.64, 12.39, 0.000, 0.000, 0.000, 15:41:06.747
66, -166.88, 16.75, 5.21, 9.81, 0.000, 0.000, 0.000, 15:41:06.747
67, -390.87, -1.12, 11.69, 15.97, 0.000, 0.000, 0.000, 15:41:06.748
68, 279.84, 6.52, 12.77, 15.11, 0.000, 0.000, 0.000, 15:41:06.748
69, 118.47, 9.63, 7.10, 9.83, 0.000, 0.000, 0.000, 15:41:06.769
70, -489.83, 7.74, 9.89, 11.22, 0.000, 0.000, 0.000, 15:41:06.770
71, 109.64, 0.22, 14.15, 16.71, 0.000, 0.000, 0.000, 15:41:06.770
72, 323.02, 11.11, 11.15, 11.41, 0.000, 0.000, 0.000, 15:41:06.770
73, -396.26, 8.69, 6.98, 7.55, 0.000, 0.000, 0.000, 15:41:06.771
74, -177.65, 1.59, 16.40, 19.03, 0.000, 0.000, 0.000, 15:41:06.771
75, 362.89, 12.07, 12.06, 12.26, 0.000, 0.000, 0.000, 15:41:06.792
76, -160.69, 15.27, 3.31, 5.70, 0.000, 0.000, 0.000, 15:41:06.793
77, -389.22, 3.65, 14.09, 12.21, 0.000, 0.000, 0.000, 15:41:06.793
78, 277.53, 5.65, 11.21, 15.26, 0.000, 0.000, 0.000, 15:41:06.793
79, 131.09, 12.41, 6.24, 10.39, 0.000, 0.000, 0.000, 15:41:06.817
80, -487.74, 11.29, 10.17, 9.97, 0.000, 0.000, 0.000, 15:41:06.817
81, 94.86, 3.04, 16.86, 14.37, 0.000, 0.000, 0.000, 15:41:06.817
82, 313.40, 7.51, 9.46, 13.05, 0.000, 0.000, 0.000, 15:41:06.818
83, -406.10, 11.96, 8.80, 5.64, 0.000, 0.000, 0.000, 15:41:06.838
84, -170.43, 11.62, 18.99, 14.48, 0.000, 0.000, 0.000, 15:41:06.838
85, 374.73, -0.32, 15.54, 14.46, 0.000, 0.000, 0.000, 15:41:06.839
86, -162.80, 13.30, 1.68, 3.84, 0.000, 0.000, 0.000, 15:41:06.839
87, -392.55, 3.77, 12.90, 12.00, 0.000, 0.000, 0.000, 15:41:06.860
88, 286.10, 8.26, 11.06, 14.70, 0.000, 0.000, 0.000, 15:41:06.861
89, 115.68, 12.22, 10.07, 8.53, 0.000, 0.000, 0.000, 15:41:06.861
90, -472.53, 9.20, 10.68, 12.18, 0.000, 0.000, 0.000, 15:41:06.861
91, 99.20, 4.12, 16.24, 16.15, 0.000, 0.000, 0.000, 15:41:06.862
92, 321.18, 8.42, 12.43, 13.66, 0.000, 0.000, 0.000, 15:41:06.862
93, -401.33, 18.28, 9.66, 8.04, 0.000, 0.000, 0.000, 15:41:06.882
94, -187.03, 2.51, 18.50, 13.52, 0.000, 0.000, 0.000, 15:41:06.882
95, 387.01, 7.19, 12.54, 15.27, 0.000, 0.000, 0.000, 15:41:06.883
96, -157.67, 13.41, 4.96, 10.19, 0.000, 0.000, 0.000, 15:41:06.883
97, -390.97, 6.46, 16.27, 14.44, 0.000, 0.000, 0.000, 15:41:06.904
98, 278.47, 8.38, 10.32, 11.46, 0.000, 0.000, 0.000, 15:41:06.905
99, 138.18, 9.62, 7.23, 9.97, 0.000, 0.000, 0.000, 15:41:06.905
100, -487.49, 6.45, 9.02, 11.65, 0.000, 0.000, 0.000, 15:41:06.905
101, 100.29, 3.11, 14.93, 13.04, 0.000, 0.000, 0.000, 15:41:06.927
102, 320.87, 15.22, 7.95, 12.15, 0.000, 0.000, 0.000, 15:41:06.927
103, -397.89, 9.14, 4.04, 13.31, 0.000, 0.000, 0.000, 15:41:06.928
104, -179.37, 5.58, 13.82, 16.13, 0.000, 0.000, 0.000, 15:41:06.928
105, 379.95, 7.02, 12.26, 15.83, 0.000, 0.000, 0.000, 15:41:06.949
106, -167.92, 14.25, 2.78, 5.13, 0.000, 0.000, 0.000, 15:41:06.950
107, -395.83, 4.63, 16.43, 15.01, 0.000, 0.000, 0.000, 15:41:06.950
108, 271.67, 6.91, 13.93, 14.20, 0.000, 0.000, 0.000, 15:41:06.950
109, 124.98, 14.20, 11.31, 10.98, 0.000, 0.000, 0.000, 15:41:06.951
110, -477.49, 8.41, 11.41, 11.93, 0.000, 0.000, 0.000, 15:41:06.951
111, 88.63, 7.83, 13.90, 14.59, 0.000, 0.000, 0.000, 15:41:06.972
112, 313.43, 6.87, 9.82, 10.59, 0.000, 0.000, 0.000, 15:41:06.972
113, -401.26, 11.63, 7.15, 9.39, 0.000, 0.000, 0.000, 15:41:06.973
114, -169.77, 3.07, 13.80, 11.68, 0.000, 0.000, 0.000, 15:41:06.973
115, 373.54, 3.28, 12.34, 13.68, 0.000, 0.000, 0.000, 15:41:06.994
116, -165.72, 7.10, 6.29, 9.11, 0.000, 0.000, 0.000, 15:41:06.995
117, -396.06, 3.68, 17.35, 12.63, 0.000, 0.000, 0.000, 15:41:06.995
118, 276.79, 7.24, 11.78, 11.82, 0.000, 0.000, 0.000, 15:41:06.995
119, 135.91, 11.48, 6.25, 13.42, 0.000, 0.000, 0.000, 15:41:07.017
120, -485.48, 15.26, 9.60, 9.23, 0.000, 0.000, 0.000, 15:41:07.017
121, 95.57, -3.23, 13.51, 13.63, 0.000, 0.000, 0.000, 15:41:07.017
122, 318.91, 11.78, 8.88, 9.17, 0.000, 0.000, 0.000, 15:41:07.018
123, -392.17, 17.99, 4.84, 11.11, 0.000, 0.000, 0.000, 15:41:07.039
124, -176.01, 0.60, 13.92, 13.61, 0.000, 0.000, 0.000, 15:41:07.040
125, 370.43, 7.52, 11.86, 14.14, 0.000, 0.000, 0.000, 15:41:07.041
126, -154.93, 16.30, 3.82, 2.24, 0.000, 0.000, 0.000, 15:41:07.041
127, -386.51, 6.29, 14.48, 9.42, 0.000, 0.000, 0.000, 15:41:07.043
128, 287.50, 6.39, 14.27, 12.21, 0.000, 0.000, 0.000, 15:41:07.043
129, 151.60, 13.76, 9.83, 12.58, 0.000, 0.000, 0.000, 15:41:07.062
130, -458.96, 6.71, 11.34, 9.68, 0.000, 0.000, 0.000, 15:41:07.062
131, 126.17, 5.40, 14.54, 14.94, 0.000, 0.000, 0.000, 15:41:07.063
132, 343.08, 10.42, 9.49, 9.80, 0.000, 0.000, 0.000, 15:41:07.063
133, -395.27, 10.71, 9.62, 13.15, 0.000, 0.000, 0.000, 15:41:07.084
134, -185.02, 2.63, 17.96, 17.61, 0.000, 0.000, 0.000, 15:41:07.085
135, 348.12, 7.84, 10.96, 12.95, 0.000, 0.000, 0.000, 15:41:07.086
136, -188.91, 12.38, 4.89, 5.05, 0.000, 0.000, 0.000, 15:41:07.087
137, -421.02, 5.98, 14.15, 14.87, 0.000, 0.000, 0.000, 15:41:07.107
138, 265.13, 12.59, 12.13, 15.93, 0.000, 0.000, 0.000, 15:41:07.107
139, 113.36, 5.49, 7.61, 8.70, 0.000, 0.000, 0.000, 15:41:07.107
140, -497.66, 4.79, 10.44, 12.21, 0.000, 0.000, 0.000, 15:41:07.108
141, 89.05, 5.18, 14.26, 17.76, 0.000, 0.000, 0.000, 15:41:07.129
142, 308.49, 10.99, 9.90, 8.90, 0.000, 0.000, 0.000, 15:41:07.130
143, -389.68, 14.26, 9.89, 11.00, 0.000, 0.000, 0.000, 15:41:07.130
144, -168.86, 7.08, 14.36, 17.84, 0.000, 0.000, 0.000, 15:41:07.131
145, 375.03, 3.55, 17.07, 16.45, 0.000, 0.000, 0.000, 15:41:07.131
146, -158.73, 15.90, 4.41, 6.00, 0.000, 0.000, 0.000, 15:41:07.131
147, -384.44, 6.33, 12.58, 14.10, 0.000, 0.000, 0.000, 15:41:07.152
148, 284.24, 6.03, 12.90, 13.24, 0.000, 0.000, 0.000, 15:41:07.160
149, 128.94, 12.33, 6.71, 6.32, 0.000, 0.000, 0.000, 15:41:07.160
150, -484.21, 13.15, 11.69, 8.23, 0.000, 0.000, 0.000, 15:41:07.161
151, 92.86, 4.83, 15.06, 11.96, 0.000, 0.000, 0.000, 15:41:07.174
152, 311.54, 7.60, 10.95, 12.04, 0.000, 0.000, 0.000, 15:41:07.175
153, -389.55, 12.86, 9.87, 9.70, 0.000, 0.000, 0.000, 15:41:07.175
154, -158.74, 3.75, 14.69, 14.57, 0.000, 0.000, 0.000, 15:41:07.175
155, 376.94, 5.56, 11.49, 10.82, 0.000, 0.000, 0.000, 15:41:07.197
156, -162.46, 21.24, 7.38, 6.60, 0.000, 0.000, 0.000, 15:41:07.197
157, -384.56, 1.39, 13.49, 14.63, 0.000, 0.000, 0.000, 15:41:07.219
158, 279.32, 7.45, 12.27, 13.32, 0.000, 0.000, 0.000, 15:41:07.220
159, 112.29, 12.07, 9.59, 4.59, 0.000, 0.000, 0.000, 15:41:07.220
160, -466.37, 12.05, 8.58, 12.31, 0.000, 0.000, 0.000, 15:41:07.221
161, 114.33, -1.44, 16.00, 15.68, 0.000, 0.000, 0.000, 15:41:07.221
162, 318.64, 9.18, 7.17, 9.14, 0.000, 0.000, 0.000, 15:41:07.221
163, -396.27, 11.05, 11.63, 9.94, 0.000, 0.000, 0.000, 15:41:07.221
164, -169.31, 3.00, 14.71, 16.35, 0.000, 0.000, 0.000, 15:41:07.222
165, 367.54, 5.19, 11.37, 15.46, 0.000, 0.000, 0.000, 15:41:07.242
166, -138.03, 14.99, 3.26, 4.41, 0.000, 0.000, 0.000, 15:41:07.242
167, -377.15, 2.15, 15.55, 15.40, 0.000, 0.000, 0.000, 15:41:07.243
168, 284.80, 6.38, 14.34, 13.66, 0.000, 0.000, 0.000, 15:41:07.243
169, 139.21, 12.76, 6.19, 10.79, 0.000, 0.000, 0.000, 15:41:07.264
170, -482.52, 11.06, 11.34, 13.32, 0.000, 0.000, 0.000, 15:41:07.265
171, 102.81, 7.65, 13.12, 13.48, 0.000, 0.000, 0.000, 15:41:07.265
172, 319.54, 12.76, 12.35, 10.11, 0.000, 0.000, 0.000, 15:41:07.265
173, -394.90, 10.38, 4.24, 9.27, 0.000, 0.000, 0.000, 15:41:07.324
174, -165.22, 6.90, 14.30, 16.90, 0.000, 0.000, 0.000, 15:41:07.324
175, 372.18, 0.18, 13.70, 13.93, 0.000, 0.000, 0.000, 15:41:07.325
176, -165.30, 13.42, 5.12, 10.01, 0.000, 0.000, 0.000, 15:41:07.325
177, -382.86, 3.36, 15.58, 16.71, 0.000, 0.000, 0.000, 15:41:07.325
178, 284.19, 7.33, 14.69, 14.53, 0.000, 0.000, 0.000, 15:41:07.326
179, 137.16, 12.31, 8.26, 9.09, 0.000, 0.000, 0.000, 15:41:07.326
180, -464.03, 7.94, 13.14, 14.14, 0.000, 0.000, 0.000, 15:41:07.326
181, 106.44, 2.80, 13.67, 9.51, 0.000, 0.000, 0.000, 15:41:07.327
182, 325.49, 5.20, 9.97, 8.08, 0.000, 0.000, 0.000, 15:41:07.327
183, -390.99, 17.31, 8.11, 7.93, 0.000, 0.000, 0.000, 15:41:07.370
184, -164.72, 3.21, 12.13, 14.63, 0.000, 0.000, 0.000, 15:41:07.370
185, 367.21, 5.88, 13.79, 14.56, 0.000, 0.000, 0.000, 15:41:07.371
186, -159.58, 15.25, 6.41, 6.52, 0.000, 0.000, 0.000, 15:41:07.371
187, -390.84, 9.55, 17.39, 17.76, 0.000, 0.000, 0.000, 15:41:07.372
188, 280.97, 6.35, 13.08, 11.05, 0.000, 0.000, 0.000, 15:41:07.372
189, 125.76, 15.00, 11.29, 14.33, 0.000, 0.000, 0.000, 15:41:07.372
190, -490.70, 5.05, 7.69, 10.23, 0.000, 0.000, 0.000, 15:41:07.373
191, 73.24, 1.96, 12.52, 13.67, 0.000, 0.000, 0.000, 15:41:07.377
192, 320.39, 13.72, 10.15, 10.44, 0.000, 0.000, 0.000, 15:41:07.377
193, -397.73, 9.59, 6.17, 7.11, 0.000, 0.000, 0.000, 15:41:07.378
194, -194.31, -0.85, 16.93, 14.57, 0.000, 0.000, 0.000, 15:41:07.378
195, 363.48, 7.13, 14.55, 13.70, 0.000, 0.000, 0.000, 15:41:07.399
196, -156.90, 14.77, 7.26, 4.39, 0.000, 0.000, 0.000, 15:41:07.400
197, -390.74, 6.17, 15.91, 12.99, 0.000, 0.000, 0.000, 15:41:07.400
198, 273.74, 8.06, 12.20, 14.85, 0.000, 0.000, 0.000, 15:41:07.400
199, 125.86, 11.33, 5.88, 11.94, 0.000, 0.000, 0.000, 15:41:07.401
200, -500.37, 5.23, 8.78, 9.21, 0.000, 0.000, 0.000, 15:41:07.401
0, 76.26, 9.76, 16.22, 15.72, 0.000, 0.000, 0.000, 15:41:07.422
1, 321.57, 4.08, 9.14, 12.18, 0.000, 0.000, 0.000, 15:41:07.422
2, -396.13, 12.21, 7.54, 7.12, 0.000, 0.000, 0.000, 15:41:07.422
3, -188.63, -1.12, 17.44, 12.09, 0.000, 0.000, 0.000, 15:41:07.444
4, 362.61, 6.82, 11.04, 14.80, 0.000, 0.000, 0.000, 15:41:07.444
5, -160.34, 10.94, 4.48, 8.34, 0.000, 0.000, 0.000, 15:41:07.445
6, -404.59, 6.04, 14.91, 15.01, 0.000, 0.000, 0.000, 15:41:07.445
7, 264.70, 6.43, 9.13, 15.61, 0.000, 0.000, 0.000, 15:41:07.445
8, 131.66, 16.18, 6.35, 8.81, 0.000, 0.000, 0.000, 15:41:07.446
9, -479.02, 17.17, 12.04, 14.69, 0.000, 0.000, 0.000, 15:41:07.467
10, 92.80, 3.29, 14.42, 15.74, 0.000, 0.000, 0.000, 15:41:07.467
11, 318.29, 8.81, 9.82, 10.65, 0.000, 0.000, 0.000, 15:41:07.468
12, -401.64, 11.17, 6.97, 10.32, 0.000, 0.000, 0.000, 15:41:07.468
13, -174.12, 5.97, 18.98, 11.28, 0.000, 0.000, 0.000, 15:41:07.489
14, 355.32, 7.71, 15.24, 16.23, 0.000, 0.000, 0.000, 15:41:07.490
15, -148.05, 17.24, 1.80, 6.35, 0.000, 0.000, 0.000, 15:41:07.490
16, -398.04, 4.91, 12.44, 11.73, 0.000, 0.000, 0.000, 15:41:07.490
17, 279.77, 4.99, 13.56, 13.69, 0.000, 0.000, 0.000, 15:41:07.512
18, 134.51, 11.15, 8.92, 13.00, 0.000, 0.000, 0.000, 15:41:07.512
19, -487.59, 3.63, 9.97, 13.10, 0.000, 0.000, 0.000, 15:41:07.512
20, 79.93, 3.29, 20.31, 17.53, 0.000, 0.000, 0.000, 15:41:07.513
21, 295.96, 12.41, 10.38, 10.96, 0.000, 0.000, 0.000, 15:41:07.534
22, -373.36, 14.07, 7.91, 8.43, 0.000, 0.000, 0.000, 15:41:07.534
23, -163.33, 3.71, 15.76, 10.67, 0.000, 0.000, 0.000, 15:41:07.535
24, 353.93, 4.74, 10.05, 13.20, 0.000, 0.000, 0.000, 15:41:07.535
25, -162.86, 13.04, 2.58, 6.52, 0.000, 0.000, 0.000, 15:41:07.535
26, -386.44, 4.85, 17.08, 13.63, 0.000, 0.000, 0.000, 15:41:07.536
27, 286.05, 10.55, 12.64, 13.74, 0.000, 0.000, 0.000, 15:41:07.557
28, 132.45, 5.72, 4.77, 7.91, 0.000, 0.000, 0.000, 15:41:07.557
29, -483.57, 10.85, 12.01, 13.27, 0.000, 0.000, 0.000, 15:41:07.579
30, 86.55, 2.35, 15.86, 16.64, 0.000, 0.000, 0.000, 15:41:07.579
31, 317.72, 10.32, 6.80, 12.57, 0.000, 0.000, 0.000, 15:41:07.580
32, -395.26, 10.65, 7.16, 8.83, 0.000, 0.000, 0.000, 15:41:07.580
33, -185.93, 6.90, 17.24, 10.50, 0.000, 0.000, 0.000, 15:41:07.583
34, 366.59, 10.97, 12.20, 12.73, 0.000, 0.000, 0.000, 15:41:07.583
35, -156.10, 14.48, 2.11, 8.15, 0.000, 0.000, 0.000, 15:41:07.602
36, -398.73, 8.57, 14.99, 8.86, 0.000, 0.000, 0.000, 15:41:07.602
37, 274.77, -0.53, 12.71, 12.03, 0.000, 0.000, 0.000, 15:41:07.602
38, 134.29, 11.83, 10.70, 12.39, 0.000, 0.000, 0.000, 15:41:07.603
39, -490.19, 10.36, 12.86, 10.71, 0.000, 0.000, 0.000, 15:41:07.624
40, 74.89, 4.06, 10.92, 16.63, 0.000, 0.000, 0.000, 15:41:07.626
41, 326.06, 10.65, 10.52, 15.67, 0.000, 0.000, 0.000, 15:41:07.626
42, -384.13, 11.71, 9.24, 11.47, 0.000, 0.000, 0.000, 15:41:07.626
43, -178.23, 2.63, 17.76, 14.46, 0.000, 0.000, 0.000, 15:41:07.626
44, 367.49, 9.13, 12.00, 18.49, 0.000, 0.000, 0.000, 15:41:07.627
45, -154.99, 16.92, 5.26, 6.34, 0.000, 0.000, 0.000, 15:41:07.647
46, -399.35, 7.18, 12.86, 15.08, 0.000, 0.000, 0.000, 15:41:07.647
47, 275.65, 1.73, 13.59, 9.92, 0.000, 0.000, 0.000, 15:41:07.648
48, 142.25, 15.68, 6.46, 11.34, 0.000, 0.000, 0.000, 15:41:07.648
49, -495.16, 9.46, 14.08, 12.00, 0.000, 0.000, 0.000, 15:41:07.669
50, 77.30, 2.84, 11.73, 13.98, 0.000, 0.000, 0.000, 15:41:07.670
51, 326.09, 9.71, 6.69, 11.40, 0.000, 0.000, 0.000, 15:41:07.670
52, -386.84, 16.53, 5.98, 6.69, 0.000, 0.000, 0.000, 15:41:07.670
53, -187.92, 1.13, 16.30, 14.65, 0.000, 0.000, 0.000, 15:41:07.692
54, 358.79, 9.60, 14.31, 14.00, 0.000, 0.000, 0.000, 15:41:07.693
55, -159.49, 6.90, 5.33, 5.34, 0.000, 0.000, 0.000, 15:41:07.694
56, -394.09, 4.18, 15.43, 14.77, 0.000, 0.000, 0.000, 15:41:07.694
57, 279.25, 6.17, 11.84, 12.15, 0.000, 0.000, 0.000, 15:41:07.714
58, 153.35, 13.59, 7.10, 6.82, 0.000, 0.000, 0.000, 15:41:07.715
59, -480.02, 8.27, 10.54, 15.25, 0.000, 0.000, 0.000, 15:41:07.716
60, 74.27, 4.32, 14.82, 16.78, 0.000, 0.000, 0.000, 15:41:07.716
61, 328.37, 13.31, 10.00, 8.28, 0.000, 0.000, 0.000, 15:41:07.717
62, -383.86, 16.11, 3.77, 12.16, 0.000, 0.000, 0.000, 15:41:07.717
63, -195.67, 7.94, 12.29, 12.47, 0.000, 0.000, 0.000, 15:41:07.737
64, 369.14, 6.21, 14.60, 10.67, 0.000, 0.000, 0.000, 15:41:07.737
65, -137.27, 14.93, 7.77, 9.65, 0.000, 0.000, 0.000, 15:41:07.737
66, -399.85, 5.03, 11.92, 17.43, 0.000, 0.000, 0.000, 15:41:07.738
67, 265.74, 9.16, 13.54, 14.53, 0.000, 0.000, 0.000, 15:41:07.759
68, 142.17, 11.34, 6.85, 8.88, 0.000, 0.000, 0.000, 15:41:07.760
69, -491.27, 13.14, 9.68, 12.48, 0.000, 0.000, 0.000, 15:41:07.760
70, 82.26, 4.67, 15.55, 14.01, 0.000, 0.000, 0.000, 15:41:07.760
71, 330.26, 7.89, 9.94, 10.94, 0.000, 0.000, 0.000, 15:41:07.782
72, -376.68, 12.22, 5.20, 7.72, 0.000, 0.000, 0.000, 15:41:07.782
73, -190.57, -3.06, 13.89, 15.60, 0.000, 0.000, 0.000, 15:41:07.782
74, 354.26, 9.35, 13.14, 10.64, 0.000, 0.000, 0.000, 15:41:07.782
75, -137.45, 11.97, 5.22, 8.64, 0.000, 0.000, 0.000, 15:41:07.804
76, -400.07, 2.83, 15.94, 15.41, 0.000, 0.000, 0.000, 15:41:07.805
77, 264.22, 2.00, 16.12, 16.66, 0.000, 0.000, 0.000, 15:41:07.805
78, 141.92, 9.95, 10.09, 8.48, 0.000, 0.000, 0.000, 15:41:07.805
79, -480.05, 10.87, 12.28, 10.41, 0.000, 0.000, 0.000, 15:41:07.805
80, 73.92, 1.29, 13.46, 14.08, 0.000, 0.000, 0.000, 15:41:07.806
81, 326.89, 11.16, 6.62, 6.67, 0.000, 0.000, 0.000, 15:41:07.827
82, -376.17, 8.66, 6.75, 5.70, 0.000, 0.000, 0.000, 15:41:07.827
83, -189.94, 4.90, 14.72, 15.45, 0.000, 0.000, 0.000, 15:41:07.827
84, 360.41, 3.13, 12.98, 14.88, 0.000, 0.000, 0.000, 15:41:07.828
85, -137.00, 15.96, 5.61, 4.55, 0.000, 0.000, 0.000, 15:41:07.849
86, -398.89, 4.73, 13.84, 12.66, 0.000, 0.000, 0.000, 15:41:07.850
87, 270.89, 3.87, 11.37, 14.00, 0.000, 0.000, 0.000, 15:41:07.850
88, 151.41, 14.50, 8.66, 8.42, 0.000, 0.000, 0.000, 15:41:07.850
89, -473.62, 9.30, 12.80, 15.88, 0.000, 0.000, 0.000, 15:41:07.872
90, 77.77, 10.62, 14.45, 14.11, 0.000, 0.000, 0.000, 15:41:07.872
91, 330.97, 7.07, 9.15, 13.81, 0.000, 0.000, 0.000, 15:41:07.872
92, -376.18, 9.82, 4.50, 10.24, 0.000, 0.000, 0.000, 15:41:07.873
93, -182.88, 4.10, 16.05, 14.89, 0.000, 0.000, 0.000, 15:41:07.894
94, 367.55, 3.29, 10.48, 14.49, 0.000, 0.000, 0.000, 15:41:07.894
95, -140.09, 13.42, 2.69, 6.33, 0.000, 0.000, 0.000, 15:41:07.895
96, -399.28, 7.98, 18.56, 15.92, 0.000, 0.000, 0.000, 15:41:07.895
97, 276.67, 6.34, 12.38, 15.16, 0.000, 0.000, 0.000, 15:41:07.895
98, 128.18, 9.97, 4.87, 9.60, 0.000, 0.000, 0.000, 15:41:07.896
99, -479.11, 16.26, 12.20, 10.23, 0.000, 0.000, 0.000, 15:41:07.917
100, 87.81, 3.08, 13.51, 14.04, 0.000, 0.000, 0.000, 15:41:07.917
101, 319.11, 8.53, 10.37, 13.16, 0.000, 0.000, 0.000, 15:41:07.917
102, -392.32, 13.25, 4.92, 6.10, 0.000, 0.000, 0.000, 15:41:07.918
103, -187.01, 4.90, 17.69, 14.21, 0.000, 0.000, 0.000, 15:41:07.940
104, 355.77, 6.59, 12.79, 15.30, 0.000, 0.000, 0.000, 15:41:07.940
105, -148.86, 13.32, 4.60, 2.94, 0.000, 0.000, 0.000, 15:41:07.940
106, -403.83, 2.08, 12.44, 13.73, 0.000, 0.000, 0.000, 15:41:07.941
107, 254.24, 6.45, 11.00, 15.80, 0.000, 0.000, 0.000, 15:41:07.962
108, 149.49, 16.99, 6.43, 13.16, 0.000, 0.000, 0.000, 15:41:07.962
109, -477.89, 8.69, 10.64, 12.17, 0.000, 0.000, 0.000, 15:41:07.962
110, 72.90, 2.69, 14.52, 14.61, 0.000, 0.000, 0.000, 15:41:07.963
111, 314.75, 10.39, 10.81, 10.11, 0.000, 0.000, 0.000, 15:41:07.984
112, -385.53, 12.01, 9.43, 5.36, 0.000, 0.000, 0.000, 15:41:07.984
113, -183.60, 3.10, 18.67, 13.30, 0.000, 0.000, 0.000, 15:41:07.985
114, 356.44, 8.40, 10.95, 12.53, 0.000, 0.000, 0.000, 15:41:07.985
115, -141.97, 11.96, 4.55, 7.12, 0.000, 0.000, 0.000, 15:41:07.985
116, -395.89, 4.12, 16.49, 16.27, 0.000, 0.000, 0.000, 15:41:07.986
117, 262.32, 7.24, 15.88, 16.77, 0.000, 0.000, 0.000, 15:41:08.007
118, 136.91, 7.00, 9.27, 6.62, 0.000, 0.000, 0.000, 15:41:08.007
119, -485.91, 11.26, 10.19, 11.31, 0.000, 0.000, 0.000, 15:41:08.007
120, 87.88, 1.33, 13.96, 14.27, 0.000, 0.000, 0.000, 15:41:08.007
121, 325.06, 9.82, 10.10, 12.57, 0.000, 0.000, 0.000, 15:41:08.029
122, -372.93, 12.67, 6.10, 9.32, 0.000, 0.000, 0.000, 15:41:08.029
123, -174.16, 6.40, 16.16, 14.27, 0.000, 0.000, 0.000, 15:41:08.030
124, 370.50, 7.64, 10.28, 13.09, 0.000, 0.000, 0.000, 15:41:08.030
125, -115.60, 16.35, 3.40, 6.76, 0.000, 0.000, 0.000, 15:41:08.052
126, -373.31, 9.60, 13.70, 14.17, 0.000, 0.000, 0.000, 15:41:08.052
127, 301.06, 0.81, 9.63, 15.50, 0.000, 0.000, 0.000, 15:41:08.052
128, 166.39, 8.66, 8.18, 7.53, 0.000, 0.000, 0.000, 15:41:08.052
129, -479.54, 14.09, 13.21, 8.56, 0.000, 0.000, 0.000, 15:41:08.074
130, 63.34, 5.44, 15.77, 17.16, 0.000, 0.000, 0.000, 15:41:08.075
131, 308.36, 7.55, 12.31, 12.32, 0.000, 0.000, 0.000, 15:41:08.075
132, -402.97, 13.34, 5.10, 6.63, 0.000, 0.000, 0.000, 15:41:08.075
133, -216.48, 6.11, 16.12, 15.34, 0.000, 0.000, 0.000, 15:41:08.076
134, 334.90, 5.67, 13.30, 13.58, 0.000, 0.000, 0.000, 15:41:08.076
135, -164.05, 14.34, 5.33, 8.09, 0.000, 0.000, 0.000, 15:41:08.097
136, -419.49, 2.07, 16.20, 16.36, 0.000, 0.000, 0.000, 15:41:08.097
137, 254.96, 4.92, 15.31, 13.41, 0.000, 0.000, 0.000, 15:41:08.097
138, 157.67, 12.41, 6.93, 8.43, 0.000, 0.000, 0.000, 15:41:08.097
139, -478.24, 4.08, 12.12, 13.24, 0.000, 0.000, 0.000, 15:41:08.120
140, 87.98, 4.24, 14.03, 14.16, 0.000, 0.000, 0.000, 15:41:08.120
141, 332.71, 12.64, 10.01, 7.55, 0.000, 0.000, 0.000, 15:41:08.120
142, -372.45, 10.42, 6.33, 3.70, 0.000, 0.000, 0.000, 15:41:08.120
143, -187.39, 8.99, 12.94, 14.14, 0.000, 0.000, 0.000, 15:41:08.142
144, 359.97, 8.96, 11.69, 13.32, 0.000, 0.000, 0.000, 15:41:08.143
145, -132.95, 9.64, 5.79, 9.09, 0.000, 0.000, 0.000, 15:41:08.144
146, -414.22, 3.49, 16.77, 16.14, 0.000, 0.000, 0.000, 15:41:08.144
147, 288.23, 4.63, 12.04, 11.47, 0.000, 0.000, 0.000, 15:41:08.164
148, 156.58, 11.52, 7.29, 12.67, 0.000, 0.000, 0.000, 15:41:08.165
149, -480.48, 8.26, 12.48, 14.14, 0.000, 0.000, 0.000, 15:41:08.165
150, 68.25, 5.66, 14.41, 15.89, 0.000, 0.000, 0.000, 15:41:08.165
151, 328.76, 12.95, 10.31, 11.50, 0.000, 0.000, 0.000, 15:41:08.166
152, -375.98, 9.55, 8.39, 3.95, 0.000, 0.000, 0.000, 15:41:08.166
153, -207.37, 6.50, 13.75, 15.66, 0.000, 0.000, 0.000, 15:41:08.187
154, 375.11, 3.70, 14.72, 14.31, 0.000, 0.000, 0.000, 15:41:08.187
155, -122.62, 13.06, 6.19, 3.52, 0.000, 0.000, 0.000, 15:41:08.187
156, -397.98, 5.16, 10.80, 17.49, 0.000, 0.000, 0.000, 15:41:08.187
157, 265.69, 4.62, 12.09, 11.22, 0.000, 0.000, 0.000, 15:41:08.209
158, 154.69, 13.00, 10.91, 9.02, 0.000, 0.000, 0.000, 15:41:08.209
159, -474.34, 12.82, 10.48, 14.24, 0.000, 0.000, 0.000, 15:41:08.210
160, 64.91, 3.90, 15.62, 19.65, 0.000, 0.000, 0.000, 15:41:08.210
161, 317.66, 12.80, 9.56, 15.17, 0.000, 0.000, 0.000, 15:41:08.232
162, -374.10, 16.49, 6.24, 8.09, 0.000, 0.000, 0.000, 15:41:08.232
163, -172.66, -0.02, 14.08, 15.13, 0.000, 0.000, 0.000, 15:41:08.233
164, 371.96, 5.52, 12.69, 14.65, 0.000, 0.000, 0.000, 15:41:08.234
165, -125.91, 12.98, 4.37, 6.05, 0.000, 0.000, 0.000, 15:41:08.255
166, -401.32, 5.83, 17.97, 13.72, 0.000, 0.000, 0.000, 15:41:08.256
167, 266.76, 8.77, 13.84, 15.04, 0.000, 0.000, 0.000, 15:41:08.256
168, 161.04, 11.45, 4.12, 6.53, 0.000, 0.000, 0.000, 15:41:08.256
169, -482.04, 9.63, 8.26, 10.42, 0.000, 0.000, 0.000, 15:41:08.256
170, 70.79, 2.38, 18.73, 15.01, 0.000, 0.000, 0.000, 15:41:08.257
171, 352.38, 15.29, 12.21, 9.95, 0.000, 0.000, 0.000, 15:41:08.277
172, -369.94, 7.28, 8.25, 9.15, 0.000, 0.000, 0.000, 15:41:08.277
173, -193.93, 5.22, 11.62, 17.35, 0.000, 0.000, 0.000, 15:41:08.277
174, 369.25, 6.72, 13.04, 14.94, 0.000, 0.000, 0.000, 15:41:08.278
175, -116.48, 10.60, 6.97, 5.87, 0.000, 0.000, 0.000, 15:41:08.299
176, -404.11, 1.96, 13.84, 10.66, 0.000, 0.000, 0.000, 15:41:08.300
177, 272.64, 5.22, 12.98, 13.37, 0.000, 0.000, 0.000, 15:41:08.300
178, 166.56, 12.52, 7.47, 10.73, 0.000, 0.000, 0.000, 15:41:08.302
179, -483.92, 10.09, 11.73, 13.30, 0.000, 0.000, 0.000, 15:41:08.322
180, 64.58, 9.28, 15.86, 17.32, 0.000, 0.000, 0.000, 15:41:08.323
181, 339.52, 1.86, 10.80, 12.32, 0.000, 0.000, 0.000, 15:41:08.323
182, -371.57, 14.99, 5.39, 5.25, 0.000, 0.000, 0.000, 15:41:08.323
183, -206.64, 3.29, 13.10, 12.91, 0.000, 0.000, 0.000, 15:41:08.344
184, 355.49, 5.96, 11.92, 11.50, 0.000, 0.000, 0.000, 15:41:08.345
185, -122.95, 9.65, 7.75, 5.62, 0.000, 0.000, 0.000, 15:41:08.345
186, -406.81, 5.91, 16.11, 17.21, 0.000, 0.000, 0.000, 15:41:08.345
187, 262.23, 7.54, 14.45, 12.58, 0.000, 0.000, 0.000, 15:41:08.347
188, 159.91, 15.52, 8.14, 8.65, 0.000, 0.000, 0.000, 15:41:08.347
189, -489.69, 12.58, 7.97, 11.21, 0.000, 0.000, 0.000, 15:41:08.367
190, 48.49, 2.73, 15.00, 17.99, 0.000, 0.000, 0.000, 15:41:08.367
191, 315.02, 10.10, 10.03, 14.31, 0.000, 0.000, 0.000, 15:41:08.368
192, -392.42, 12.64, 4.79, 9.77, 0.000, 0.000, 0.000, 15:41:08.368
193, -195.74, 8.76, 12.16, 14.86, 0.000, 0.000, 0.000, 15:41:08.389
194, 357.15, 6.32, 13.33, 13.84, 0.000, 0.000, 0.000, 15:41:08.389
195, -119.52, 14.91, 5.46, 6.07, 0.000, 0.000, 0.000, 15:41:08.390
196, -420.40, 0.25, 15.24, 15.89, 0.000, 0.000, 0.000, 15:41:08.390
197, 255.24, 4.24, 13.68, 13.26, 0.000, 0.000, 0.000, 15:41:08.412
198, 157.00, 16.79, 7.90, 9.67, 0.000, 0.000, 0.000, 15:41:08.412
199, -496.29, 5.05, 9.39, 8.70, 0.000, 0.000, 0.000, 15:41:08.413
200, 53.57, 3.11, 15.44, 18.41, 0.000, 0.000, 0.000, 15:41:08.413
0, 325.23, 8.75, 6.12, 10.89, 0.000, 0.000, 0.000, 15:41:08.413
1, -366.19, 14.11, 5.85, 6.79, 0.000, 0.000, 0.000, 15:41:08.434
2, -209.16, 5.76, 18.30, 15.10, 0.000, 0.000, 0.000, 15:41:08.435
3, 349.99, 6.77, 13.80, 16.64, 0.000, 0.000, 0.000, 15:41:08.435
4, -121.10, 13.21, 6.82, 7.17, 0.000, 0.000, 0.000, 15:41:08.435
5, -415.78, 4.41, 14.79, 14.06, 0.000, 0.000, 0.000, 15:41:08.457
6, 253.73, 8.76, 10.01, 13.88, 0.000, 0.000, 0.000, 15:41:08.457
7, 156.68, 7.97, 11.24, 11.44, 0.000, 0.000, 0.000, 15:41:08.459
8, -468.65, 10.77, 9.13, 13.77, 0.000, 0.000, 0.000, 15:41:08.459
9, 49.30, 3.63, 13.48, 16.10, 0.000, 0.000, 0.000, 15:41:08.479
10, 334.83, 8.88, 9.36, 14.74, 0.000, 0.000, 0.000, 15:41:08.480
11, -368.99, 10.18, 7.79, 8.81, 0.000, 0.000, 0.000, 15:41:08.480
12, -207.46, 5.41, 14.10, 12.59, 0.000, 0.000, 0.000, 15:41:08.480
13, 362.05, 2.46, 11.66, 12.42, 0.000, 0.000, 0.000, 15:41:08.480
14, -120.74, 11.84, 2.07, 8.47, 0.000, 0.000, 0.000, 15:41:08.481
15, -419.95, 12.90, 11.45, 12.74, 0.000, 0.000, 0.000, 15:41:08.502
16, 253.03, 7.00, 9.46, 12.78, 0.000, 0.000, 0.000, 15:41:08.502
17, 153.90, 12.53, 7.60, 7.49, 0.000, 0.000, 0.000, 15:41:08.502
18, -487.93, 13.36, 12.84, 11.33, 0.000, 0.000, 0.000, 15:41:08.502
19, 57.84, 5.62, 18.64, 13.67, 0.000, 0.000, 0.000, 15:41:08.524
20, 346.42, 6.85, 11.26, 10.99, 0.000, 0.000, 0.000, 15:41:08.524
21, -363.21, 11.81, 5.99, 11.07, 0.000, 0.000, 0.000, 15:41:08.525
22, -205.28, 3.77, 14.77, 14.94, 0.000, 0.000, 0.000, 15:41:08.525
23, 356.34, 2.52, 14.74, 12.67, 0.000, 0.000, 0.000, 15:41:08.547
24, -128.89, 19.60, 3.90, 6.38, 0.000, 0.000, 0.000, 15:41:08.547
25, -419.02, -1.15, 15.41, 17.54, 0.000, 0.000, 0.000, 15:41:08.547
26, 268.41, 7.90, 10.44, 12.13, 0.000, 0.000, 0.000, 15:41:08.547
27, 168.72, 11.65, 9.55, 5.99, 0.000, 0.000, 0.000, 15:41:08.569
28, -485.66, 10.80, 13.73, 10.00, 0.000, 0.000, 0.000, 15:41:08.569
29, 50.24, 3.58, 12.38, 13.01, 0.000, 0.000, 0.000, 15:41:08.570
30, 331.63, 11.38, 10.05, 11.11, 0.000, 0.000, 0.000, 15:41:08.570
31, -369.32, 13.30, 6.66, 9.06, 0.000, 0.000, 0.000, 15:41:08.570
32, -212.61, 3.35, 14.09, 17.04, 0.000, 0.000, 0.000, 15:41:08.571
33, 345.29, 15.33, 11.58, 9.34, 0.000, 0.000, 0.000, 15:41:08.592
34, -105.61, 13.14, 5.34, 5.63, 0.000, 0.000, 0.000, 15:41:08.592
35, -410.87, 1.98, 16.81, 15.37, 0.000, 0.000, 0.000, 15:41:08.593
36, 260.38, 5.90, 13.11, 14.35, 0.000, 0.000, 0.000, 15:41:08.594
37, 171.07, 8.15, 5.91, 10.86, 0.000, 0.000, 0.000, 15:41:08.614
38, -482.38, 8.78, 9.79, 11.65, 0.000, 0.000, 0.000, 15:41:08.614
39, 47.98, 6.53, 14.65, 15.16, 0.000, 0.000, 0.000, 15:41:08.615
40, 328.52, 8.09, 11.10, 14.56, 0.000, 0.000, 0.000, 15:41:08.615
41, -367.75, 11.21, 7.87, 6.72, 0.000, 0.000, 0.000, 15:41:08.637
42, -204.82, 9.39, 13.73, 16.68, 0.000, 0.000, 0.000, 15:41:08.637
43, 357.06, 2.97, 12.68, 16.03, 0.000, 0.000, 0.000, 15:41:08.638
44, -107.74, 13.70, 7.53, 4.01, 0.000, 0.000, 0.000, 15:41:08.638
45, -408.58, 5.51, 16.65, 14.82, 0.000, 0.000, 0.000, 15:41:08.659
46, 253.53, 7.16, 13.45, 11.95, 0.000, 0.000, 0.000, 15:41:08.660
47, 170.46, 6.63, 9.78, 9.02, 0.000, 0.000, 0.000, 15:41:08.660
48, -486.69, 11.72, 15.17, 13.89, 0.000, 0.000, 0.000, 15:41:08.660
49, 44.95, 2.12, 10.86, 15.25, 0.000, 0.000, 0.000, 15:41:08.661
50, 336.19, 10.02, 13.33, 9.46, 0.000, 0.000, 0.000, 15:41:08.661
51, -365.18, 15.65, 4.90, 8.98, 0.000, 0.000, 0.000, 15:41:08.681
52, -218.64, 3.13, 14.83, 15.92, 0.000, 0.000, 0.000, 15:41:08.682
53, 354.34, 8.28, 12.26, 13.76, 0.000, 0.000, 0.000, 15:41:08.704
54, -103.63, 15.23, 0.97, 10.30, 0.000, 0.000, 0.000, 15:41:08.704
55, -426.43, 2.01, 11.51, 15.19, 0.000, 0.000, 0.000, 15:41:08.705
56, 253.96, 4.29, 11.42, 17.08, 0.000, 0.000, 0.000, 15:41:08.705
57, 179.22, 12.22, 10.59, 9.07, 0.000, 0.000, 0.000, 15:41:08.705
58, -472.13, 7.47, 13.62, 7.11, 0.000, 0.000, 0.000, 15:41:08.706
59, 50.57, 6.77, 16.03, 14.82, 0.000, 0.000, 0.000, 15:41:08.726
60, 337.10, 13.29, 11.61, 10.86, 0.000, 0.000, 0.000, 15:41:08.727
61, -366.17, 9.45, 8.32, 9.02, 0.000, 0.000, 0.000, 15:41:08.727
62, -213.56, 3.77, 14.07, 18.71, 0.000, 0.000, 0.000, 15:41:08.727
63, 355.84, 5.48, 13.70, 13.81, 0.000, 0.000, 0.000, 15:41:08.749
64, -93.59, 17.68, 6.21, 6.90, 0.000, 0.000, 0.000, 15:41:08.750
65, -420.97, 5.60, 13.30, 11.37, 0.000, 0.000, 0.000, 15:41:08.750
66, 255.79, 6.88, 14.49, 14.44, 0.000, 0.000, 0.000, 15:41:08.750
67, 177.97, 12.90, 9.87, 6.50, 0.000, 0.000, 0.000, 15:41:08.750
68, -477.76, 11.94, 8.91, 11.93, 0.000, 0.000, 0.000, 15:41:08.750
69, 31.85, 5.29, 16.80, 15.31, 0.000, 0.000, 0.000, 15:41:08.772
70, 341.03, 7.31, 12.74, 10.21, 0.000, 0.000, 0.000, 15:41:08.772
71, -362.81, 16.69, 6.61, 8.71, 0.000, 0.000, 0.000, 15:41:08.773
72, -222.06, 2.89, 11.02, 14.85, 0.000, 0.000, 0.000, 15:41:08.773
73, 362.06, 2.89, 9.01, 11.74, 0.000, 0.000, 0.000, 15:41:08.794
74, -99.57, 15.31, 0.09, 8.32, 0.000, 0.000, 0.000, 15:41:08.794
75, -420.99, 7.65, 13.74, 18.04, 0.000, 0.000, 0.000, 15:41:08.795
76, 256.00, 4.75, 14.30, 14.13, 0.000, 0.000, 0.000, 15:41:08.795
77, 174.32, 5.88, 4.50, 8.64, 0.000, 0.000, 0.000, 15:41:08.817
78, -482.78, 12.49, 13.02, 9.19, 0.000, 0.000, 0.000, 15:41:08.817
79, 28.90, 2.37, 13.22, 16.21, 0.000, 0.000, 0.000, 15:41:08.817
80, 330.70, 8.25, 10.11, 11.73, 0.000, 0.000, 0.000, 15:41:08.817
81, -352.38, 13.38, 5.09, 8.82, 0.000, 0.000, 0.000, 15:41:08.839
82, -218.11, 6.04, 12.64, 14.11, 0.000, 0.000, 0.000, 15:41:08.840
83, 359.19, 7.70, 15.47, 12.66, 0.000, 0.000, 0.000, 15:41:08.840
84, -94.84, 11.30, 5.68, 6.81, 0.000, 0.000, 0.000, 15:41:08.841
85, -424.25, 7.17, 16.46, 15.67, 0.000, 0.000, 0.000, 15:41:08.841
86, 258.61, 7.98, 11.07, 14.05, 0.000, 0.000, 0.000, 15:41:08.841
87, 177.41, 11.51, 6.94, 10.28, 0.000, 0.000, 0.000, 15:41:08.862
88, -480.08, 9.85, 9.38, 12.93, 0.000, 0.000, 0.000, 15:41:08.862
89, 41.47, 3.29, 12.72, 12.65, 0.000, 0.000, 0.000, 15:41:08.862
90, 335.02, 7.94, 14.19, 7.84, 0.000, 0.000, 0.000, 15:41:08.862
91, -350.36, 9.13, 6.61, 3.64, 0.000, 0.000, 0.000, 15:41:08.885
92, -217.35, 4.68, 16.07, 13.63, 0.000, 0.000, 0.000, 15:41:08.885
93, 347.91, 7.25, 14.38, 12.87, 0.000, 0.000, 0.000, 15:41:08.885
94, -99.51, 12.44, 2.59, 7.87, 0.000, 0.000, 0.000, 15:41:08.885
95, -410.74, 4.21, 12.18, 18.32, 0.000, 0.000, 0.000, 15:41:08.907
96, 255.89, 12.14, 14.09, 11.05, 0.000, 0.000, 0.000, 15:41:08.907
97, 179.10, 4.03, 9.62, 14.16, 0.000, 0.000, 0.000, 15:41:08.907
98, -476.03, 9.44, 8.50, 12.77, 0.000, 0.000, 0.000, 15:41:08.908
99, 34.10, 5.50, 14.47, 13.59, 0.000, 0.000, 0.000, 15:41:08.929
100, 337.94, 7.97, 11.20, 13.47, 0.000, 0.000, 0.000, 15:41:08.930
101, -352.18, 11.45, 5.71, 7.54, 0.000, 0.000, 0.000, 15:41:08.930
102, -226.02, 6.09, 13.74, 15.61, 0.000, 0.000, 0.000, 15:41:08.930
103, 357.67, 6.08, 13.35, 11.60, 0.000, 0.000, 0.000, 15:41:08.930
104, -84.45, 11.90, 3.79, 4.50, 0.000, 0.000, 0.000, 15:41:08.930
105, -424.18, 10.99, 15.08, 15.24, 0.000, 0.000, 0.000, 15:41:08.952
106, 250.23, 4.35, 13.44, 17.17, 0.000, 0.000, 0.000, 15:41:08.952
107, 177.85, 8.94, 7.82, 6.44, 0.000, 0.000, 0.000, 15:41:08.952
108, -480.63, 8.20, 8.24, 10.43, 0.000, 0.000, 0.000, 15:41:08.952
109, 29.77, 3.60, 15.10, 16.01, 0.000, 0.000, 0.000, 15:41:08.974
110, 336.66, 7.79, 10.22, 8.69, 0.000, 0.000, 0.000, 15:41:08.975
111, -361.19, 16.60, 6.89, 5.15, 0.000, 0.000, 0.000, 15:41:08.975
112, -222.79, 3.20, 18.38, 19.11, 0.000, 0.000, 0.000, 15:41:08.976
113, 358.61, 7.70, 14.61, 13.11, 0.000, 0.000, 0.000, 15:41:08.997
114, -94.29, 19.54, 6.15, 5.35, 0.000, 0.000, 0.000, 15:41:08.997
115, -426.42, 2.78, 13.32, 14.73, 0.000, 0.000, 0.000, 15:41:08.997
116, 242.04, 7.86, 12.19, 14.94, 0.000, 0.000, 0.000, 15:41:08.997
117, 178.78, 11.70, 5.79, 8.68, 0.000, 0.000, 0.000, 15:41:09.019
118, -482.44, 14.40, 9.36, 12.24, 0.000, 0.000, 0.000, 15:41:09.019
119, 31.75, 2.98, 14.98, 12.61, 0.000, 0.000, 0.000, 15:41:09.020
120, 340.83, 15.09, 12.17, 11.53, 0.000, 0.000, 0.000, 15:41:09.020
121, -361.52, 11.00, 7.73, 11.50, 0.000, 0.000, 0.000, 15:41:09.020
122, -222.33, 5.57, 16.40, 14.72, 0.000, 0.000, 0.000, 15:41:09.020
123, 361.76, 8.17, 13.06, 14.00, 0.000, 0.000, 0.000, 15:41:09.042
124, -103.78, 13.70, 5.71, 8.02, 0.000, 0.000, 0.000, 15:41:09.042
125, -438.29, 4.05, 13.63, 9.99, 0.000, 0.000, 0.000, 15:41:09.042
126, 256.24, 4.59, 14.48, 17.71, 0.000, 0.000, 0.000, 15:41:09.043
127, 194.21, 8.47, 9.28, 11.31, 0.000, 0.000, 0.000, 15:41:09.064
128, -471.11, 5.44, 15.77, 11.64, 0.000, 0.000, 0.000, 15:41:09.065
129, 32.62, 4.58, 13.80, 13.47, 0.000, 0.000, 0.000, 15:41:09.065
130, 367.79, 8.55, 12.07, 11.85, 0.000, 0.000, 0.000, 15:41:09.065
131, -329.20, 7.85, 8.64, 8.96, 0.000, 0.000, 0.000, 15:41:09.087
132, -197.11, 7.94, 14.12, 13.08, 0.000, 0.000, 0.000, 15:41:09.087
133, 376.25, 2.52, 9.06, 14.13, 0.000, 0.000, 0.000, 15:41:09.087
134, -67.23, 15.49, 4.02, 7.79, 0.000, 0.000, 0.000, 15:41:09.087
135, -424.28, 6.56, 14.77, 17.58, 0.000, 0.000, 0.000, 15:41:09.109
136, 228.66, 8.51, 9.59, 18.09, 0.000, 0.000, 0.000, 15:41:09.110
137, 159.42, 9.81, 8.79, 9.42, 0.000, 0.000, 0.000, 15:41:09.110
138, -504.96, 10.47, 10.90, 10.45, 0.000, 0.000, 0.000, 15:41:09.110
139, 17.40, 2.68, 14.77, 15.12, 0.000, 0.000, 0.000, 15:41:09.111
140, 322.24, 8.51, 12.56, 12.71, 0.000, 0.000, 0.000, 15:41:09.111
141, -373.64, 17.97, 5.23, 7.14, 0.000, 0.000, 0.000, 15:41:09.132
142, -250.27, 2.17, 15.65, 15.21, 0.000, 0.000, 0.000, 15:41:09.132
143, 340.14, 10.73, 13.77, 12.36, 0.000, 0.000, 0.000, 15:41:09.133
144, -78.97, 13.09, 6.29, 5.85, 0.000, 0.000, 0.000, 15:41:09.133
145, -418.47, 6.76, 14.19, 11.93, 0.000, 0.000, 0.000, 15:41:09.154
146, 246.03, 4.68, 14.15, 10.85, 0.000, 0.000, 0.000, 15:41:09.155
147, 198.77, 11.11, 4.67, 4.72, 0.000, 0.000, 0.000, 15:41:09.155
148, -469.75, 8.13, 8.73, 9.79, 0.000, 0.000, 0.000, 15:41:09.155
149, 31.78, -0.16, 12.05, 12.73, 0.000, 0.000, 0.000, 15:41:09.177
150, 350.21, 15.96, 8.44, 10.82, 0.000, 0.000, 0.000, 15:41:09.177
151, -346.62, 11.90, 6.77, 11.70, 0.000, 0.000, 0.000, 15:41:09.178
152, -228.37, 4.98, 12.95, 13.80, 0.000, 0.000, 0.000, 15:41:09.178
153, 346.22, 5.64, 12.68, 11.68, 0.000, 0.000, 0.000, 15:41:09.199
154, -102.29, 12.08, 6.04, 6.78, 0.000, 0.000, 0.000, 15:41:09.200
155, -420.47, 4.78, 16.05, 11.12, 0.000, 0.000, 0.000, 15:41:09.200
156, 276.00, 4.80, 12.62, 14.53, 0.000, 0.000, 0.000, 15:41:09.200
157, 191.62, 10.90, 6.27, 8.74, 0.000, 0.000, 0.000, 15:41:09.201
158, -459.22, 6.31, 10.72, 11.91, 0.000, 0.000, 0.000, 15:41:09.201
159, 29.31, 7.95, 16.32, 16.69, 0.000, 0.000, 0.000, 15:41:09.222
160, 352.35, 6.09, 9.62, 11.91, 0.000, 0.000, 0.000, 15:41:09.222
161, -340.43, 11.47, 6.02, 7.32, 0.000, 0.000, 0.000, 15:41:09.223
162, -235.54, 5.50, 15.88, 15.76, 0.000, 0.000, 0.000, 15:41:09.223
163, 350.92, 7.82, 14.41, 16.70, 0.000, 0.000, 0.000, 15:41:09.244
164, -65.29, 15.66, 2.64, 6.37, 0.000, 0.000, 0.000, 15:41:09.245
165, -430.14, 7.63, 12.23, 13.76, 0.000, 0.000, 0.000, 15:41:09.245
166, 281.65, 4.83, 12.39, 10.11, 0.000, 0.000, 0.000, 15:41:09.245
167, 208.22, 10.97, 9.96, 10.75, 0.000, 0.000, 0.000, 15:41:09.267
168, -513.02, 14.67, 12.03, 12.51, 0.000, 0.000, 0.000, 15:41:09.267
169, 11.49, 0.96, 18.00, 16.97, 0.000, 0.000, 0.000, 15:41:09.267
170, 381.39, 9.86, 8.49, 12.76, 0.000, 0.000, 0.000, 15:41:09.267
171, -363.71, 11.93, 6.00, 11.21, 0.000, 0.000, 0.000, 15:41:09.289
172, -232.97, 3.33, 16.75, 16.54, 0.000, 0.000, 0.000, 15:41:09.289
173, 381.82, 3.26, 13.54, 14.33, 0.000, 0.000, 0.000, 15:41:09.290
174, -75.69, 10.36, 5.41, 8.27, 0.000, 0.000, 0.000, 15:41:09.290
175, -432.16, 5.15, 10.52, 14.56, 0.000, 0.000, 0.000, 15:41:09.290
176, 244.62, 6.11, 13.76, 14.13, 0.000, 0.000, 0.000, 15:41:09.291
177, 194.87, 8.80, 6.09, 7.12, 0.000, 0.000, 0.000, 15:41:09.312
178, -487.13, 4.24, 10.70, 11.18, 0.000, 0.000, 0.000, 15:41:09.312
179, -27.53, 3.12, 17.24, 17.49, 0.000, 0.000, 0.000, 15:41:09.312
180, 295.85, 12.32, 12.79, 8.98, 0.000, 0.000, 0.000, 15:41:09.313
181, -297.46, 13.18, 4.83, 6.77, 0.000, 0.000, 0.000, 15:41:09.335
182, -179.63, 3.81, 15.92, 13.84, 0.000, 0.000, 0.000, 15:41:09.335
183, 281.73, 6.41, 8.21, 14.78, 0.000, 0.000, 0.000, 15:41:09.335
184, -76.91, 12.23, 5.50, 3.95, 0.000, 0.000, 0.000, 15:41:09.335
185, -354.07, 5.21, 11.44, 14.16, 0.000, 0.000, 0.000, 15:41:09.357
186, 252.15, 9.76, 14.53, 15.29, 0.000, 0.000, 0.000, 15:41:09.357
187, 195.20, 7.04, 8.33, 10.09, 0.000, 0.000, 0.000, 15:41:09.358
188, -452.58, 12.65, 7.92, 11.14, 0.000, 0.000, 0.000, 15:41:09.358
189, 26.17, 4.04, 11.18, 17.04, 0.000, 0.000, 0.000, 15:41:09.379
190, 357.13, 6.33, 12.69, 11.99, 0.000, 0.000, 0.000, 15:41:09.379
191, -323.36, 10.30, 4.66, 9.78, 0.000, 0.000, 0.000, 15:41:09.380
192, -228.85, 5.73, 12.29, 16.83, 0.000, 0.000, 0.000, 15:41:09.380
193, 333.49, 5.21, 12.48, 12.40, 0.000, 0.000, 0.000, 15:41:09.380
194, -123.42, 12.75, 7.78, 6.80, 0.000, 0.000, 0.000, 15:41:09.381
195, -495.16, 9.39, 14.05, 16.13, 0.000, 0.000, 0.000, 15:41:09.402
196, 215.91, 7.07, 12.75, 14.60, 0.000, 0.000, 0.000, 15:41:09.402
197, 161.32, 10.37, 9.68, 9.65, 0.000, 0.000, 0.000, 15:41:09.402
198, -468.49, 10.81, 13.81, 14.19, 0.000, 0.000, 0.000, 15:41:09.403
199, 59.07, 5.23, 11.85, 12.50, 0.000, 0.000, 0.000, 15:41:09.424
200, 311.15, 8.45, 9.20, 14.90, 0.000, 0.000, 0.000, 15:41:09.424
0, -392.98, 14.88, 8.35, 9.08, 0.000, 0.000, 0.000, 15:41:09.425
1, -348.74, 4.34, 14.62, 14.38, 0.000, 0.000, 0.000, 15:41:09.425
2, 395.60, 6.86, 14.88, 9.28, 0.000, 0.000, 0.000, 15:41:09.425
3, -20.03, 17.73, 5.64, 3.22, 0.000, 0.000, 0.000, 15:41:09.447
4, -411.62, 3.28, 15.44, 15.03, 0.000, 0.000, 0.000, 15:41:09.447
5, 227.55, 6.08, 11.92, 12.99, 0.000, 0.000, 0.000, 15:41:09.447
6, 159.53, 11.00, 7.22, 9.17, 0.000, 0.000, 0.000, 15:41:09.447
7, -413.45, 11.95, 13.66, 9.80, 0.000, 0.000, 0.000, 15:41:09.469
8, 148.68, 4.80, 15.39, 18.58, 0.000, 0.000, 0.000, 15:41:09.470
9, 464.84, 11.30, 12.06, 13.22, 0.000, 0.000, 0.000, 15:41:09.470
10, -375.95, 12.66, 6.59, 9.40, 0.000, 0.000, 0.000, 15:41:09.470
11, -378.56, 6.20, 15.08, 19.29, 0.000, 0.000, 0.000, 15:41:09.492
12, 238.00, 11.13, 12.03, 15.44, 0.000, 0.000, 0.000, 15:41:09.492
13, -236.40, 7.98, 5.72, 6.36, 0.000, 0.000, 0.000, 15:41:09.492
14, -461.41, 1.65, 14.75, 13.68, 0.000, 0.000, 0.000, 15:41:09.493
15, 64.98, 7.58, 10.42, 12.59, 0.000, 0.000, 0.000, 15:41:09.514
16, 182.11, 15.01, 8.40, 8.30, 0.000, 0.000, 0.000, 15:41:09.514
17, -508.10, 8.67, 11.54, 11.43, 0.000, 0.000, 0.000, 15:41:09.515
18, -201.99, 7.41, 14.05, 20.30, 0.000, 0.000, 0.000, 15:41:09.515
19, 697.38, 8.21, 12.89, 12.61, 0.000, 0.000, 0.000, 15:41:09.515
20, -101.04, 12.81, 7.61, 9.37, 0.000, 0.000, 0.000, 15:41:09.516
21, -84.00, 2.72, 15.41, 11.62, 0.000, 0.000, 0.000, 15:41:09.537
22, 428.25, 1.56, 12.45, 15.05, 0.000, 0.000, 0.000, 15:41:09.537
23, -35.74, 13.44, 5.08, 4.57, 0.000, 0.000, 0.000, 15:41:09.537
24, -405.60, 6.58, 13.49, 10.40, 0.000, 0.000, 0.000, 15:41:09.538
25, 201.86, 4.80, 12.03, 17.21, 0.000, 0.000, 0.000, 15:41:09.559
26, 130.75, 11.04, 8.42, 12.24, 0.000, 0.000, 0.000, 15:41:09.559
27, -471.77, 9.46, 9.01, 7.32, 0.000, 0.000, 0.000, 15:41:09.560
28, -98.16, 7.31, 15.75, 15.54, 0.000, 0.000, 0.000, 15:41:09.560
29, 89.97, 8.18, 10.27, 9.21, 0.000, 0.000, 0.000, 15:41:09.582
30, -327.16, 13.85, 6.12, 5.58, 0.000, 0.000, 0.000, 15:41:09.582
31, -304.52, -0.73, 15.04, 14.91, 0.000, 0.000, 0.000, 15:41:09.582
32, 307.22, 4.56, 11.85, 14.45, 0.000, 0.000, 0.000, 15:41:09.582
33, -66.98, 12.21, 4.90, 6.92, 0.000, 0.000, 0.000, 15:41:09.604
34, -312.57, 10.69, 14.04, 10.91, 0.000, 0.000, 0.000, 15:41:09.604
35, 260.32, 5.60, 15.69, 14.54, 0.000, 0.000, 0.000, 15:41:09.627
36, 322.37, 9.09, 8.00, 10.27, 0.000, 0.000, 0.000, 15:41:09.627
37, -382.39, 7.44, 8.38, 13.62, 0.000, 0.000, 0.000, 15:41:09.627
38, 205.02, 2.31, 14.66, 12.08, 0.000, 0.000, 0.000, 15:41:09.628
39, 452.94, 9.29, 9.91, 16.55, 0.000, 0.000, 0.000, 15:41:09.628
40, -349.84, 13.63, 7.35, 5.85, 0.000, 0.000, 0.000, 15:41:09.628
41, -406.21, 6.44, 12.58, 11.46, 0.000, 0.000, 0.000, 15:41:09.629
42, 297.37, 7.49, 11.43, 14.65, 0.000, 0.000, 0.000, 15:41:09.629
43, -182.60, 13.69, 3.97, 9.99, 0.000, 0.000, 0.000, 15:41:09.649
44, -402.00, 5.00, 13.59, 11.97, 0.000, 0.000, 0.000, 15:41:09.649
45, 222.64, 5.02, 14.03, 14.35, 0.000, 0.000, 0.000, 15:41:09.650
46, -150.24, 11.21, 9.58, 6.98, 0.000, 0.000, 0.000, 15:41:09.650
47, -487.64, 10.77, 11.07, 12.41, 0.000, 0.000, 0.000, 15:41:09.672
48, 94.95, 10.71, 13.97, 13.19, 0.000, 0.000, 0.000, 15:41:09.672
49, 419.24, 3.03, 12.08, 14.84, 0.000, 0.000, 0.000, 15:41:09.673
50, -177.95, 14.46, 7.63, 7.58, 0.000, 0.000, 0.000, 15:41:09.673
51, -150.33, 3.34, 14.84, 13.69, 0.000, 0.000, 0.000, 15:41:09.695
52, 170.99, 5.58, 13.64, 15.76, 0.000, 0.000, 0.000, 15:41:09.695
53, 138.65, 10.48, 7.93, 11.85, 0.000, 0.000, 0.000, 15:41:09.696
54, -342.59, 7.05, 16.42, 11.72, 0.000, 0.000, 0.000, 15:41:09.696
55, 227.06, 5.39, 13.11, 12.75, 0.000, 0.000, 0.000, 15:41:09.697
56, 268.85, 9.59, 11.18, 9.50, 0.000, 0.000, 0.000, 15:41:09.697
57, -469.61, 14.83, 9.96, 11.56, 0.000, 0.000, 0.000, 15:41:09.717
58, -64.66, 2.78, 14.50, 19.68, 0.000, 0.000, 0.000, 15:41:09.717
59, 203.76, 7.92, 12.24, 12.41, 0.000, 0.000, 0.000, 15:41:09.717
60, -455.68, 13.38, 4.23, 7.47, 0.000, 0.000, 0.000, 15:41:09.717
61, -341.32, 6.68, 11.58, 12.55, 0.000, 0.000, 0.000, 15:41:09.739
62, 319.58, 7.10, 13.24, 17.85, 0.000, 0.000, 0.000, 15:41:09.739
63, 79.57, 12.92, 1.78, 6.30, 0.000, 0.000, 0.000, 15:41:09.740
64, -551.73, 7.48, 14.56, 14.40, 0.000, 0.000, 0.000, 15:41:09.740
65, 314.84, 3.79, 9.31, 14.65, 0.000, 0.000, 0.000, 15:41:09.762
66, 104.99, 14.51, 8.81, 8.15, 0.000, 0.000, 0.000, 15:41:09.762
67, -263.51, 3.72, 7.85, 9.71, 0.000, 0.000, 0.000, 15:41:09.762
68, 450.63, 2.37, 15.71, 16.91, 0.000, 0.000, 0.000, 15:41:09.762
69, 1044.27, 5.09, 13.61, 10.69, 0.000, 0.000, 0.000, 15:41:09.784
70, 978.42, 12.31, 8.84, 8.72, 0.000, 0.000, 0.000, 15:41:09.784
71, 687.32, 5.49, 13.73, 13.20, 0.000, 0.000, 0.000, 15:41:09.785
72, 1089.70, 8.80, 14.44, 16.28, 0.000, 0.000, 0.000, 15:41:09.785
73, 780.41, 12.83, 5.00, 9.09, 0.000, 0.000, 0.000, 15:41:09.788
74, 485.77, 9.27, 11.55, 10.05, 0.000, 0.000, 0.000, 15:41:09.788
75, 1169.74, 9.25, 10.88, 13.20, 0.000, 0.000, 0.000, 15:41:09.808
76, 961.11, 8.49, 11.52, 11.24, 0.000, 0.000, 0.000, 15:41:09.808
77, 111.77, 12.99, 6.54, 12.94, 0.000, 0.000, 0.000, 15:41:09.808
78, 315.14, 5.88, 14.89, 15.65, 0.000, 0.000, 0.000, 15:41:09.808
79, 479.36, 13.73, 12.98, 8.97, 0.000, 0.000, 0.000, 15:41:09.829
80, -118.56, 13.71, 7.43, 5.23, 0.000, 0.000, 0.000, 15:41:09.830
81, -243.55, 3.75, 10.94, 13.51, 0.000, 0.000, 0.000, 15:41:09.830
82, 341.50, 4.37, 15.45, 14.52, 0.000, 0.000, 0.000, 15:41:09.830
83, -36.82, 12.39, 6.20, 7.20, 0.000, 0.000, 0.000, 15:41:09.852
84, -589.67, 9.61, 15.47, 14.91, 0.000, 0.000, 0.000, 15:41:09.852
85, -549.90, 0.22, 15.31, 14.33, 0.000, 0.000, 0.000, 15:41:09.874
86, -634.55, 14.12, 8.81, 8.52, 0.000, 0.000, 0.000, 15:41:09.875
87, -862.05, 13.59, 8.71, 7.16, 0.000, 0.000, 0.000, 15:41:09.875
88, -60.92, 9.97, 13.31, 17.15, 0.000, 0.000, 0.000, 15:41:09.875
89, 454.89, 6.13, 10.33, 13.73, 0.000, 0.000, 0.000, 15:41:09.876
90, -298.48, 13.97, 7.09, 6.46, 0.000, 0.000, 0.000, 15:41:09.876
91, -334.92, 4.90, 15.24, 13.79, 0.000, 0.000, 0.000, 15:41:09.897
92, 389.67, 2.30, 12.32, 10.14, 0.000, 0.000, 0.000, 15:41:09.897
93, 177.81, 17.19, 6.71, 6.48, 0.000, 0.000, 0.000, 15:41:09.897
94, -712.50, 7.52, 13.45, 15.45, 0.000, 0.000, 0.000, 15:41:09.897
95, 121.98, 5.25, 13.86, 14.35, 0.000, 0.000, 0.000, 15:41:09.898
96, 424.72, 9.87, 8.44, 12.04, 0.000, 0.000, 0.000, 15:41:09.898
97, -98.48, 7.54, 8.78, 11.76, 0.000, 0.000, 0.000, 15:41:09.919
98, -159.67, 3.07, 14.21, 12.88, 0.000, 0.000, 0.000, 15:41:09.919
99, 124.71, 7.04, 11.61, 10.70, 0.000, 0.000, 0.000, 15:41:09.920
100, -266.75, 13.34, 4.58, 6.43, 0.000, 0.000, 0.000, 15:41:09.920
101, -332.71, 5.65, 14.54, 15.95, 0.000, 0.000, 0.000, 15:41:09.942
102, 439.76, 5.95, 15.34, 13.62, 0.000, 0.000, 0.000, 15:41:09.942
103, -412.67, 4.43, 7.66, 5.54, 0.000, 0.000, 0.000, 15:41:09.942
104, -331.47, 7.27, 10.80, 17.83, 0.000, 0.000, 0.000, 15:41:09.942
105, 337.40, 4.33, 13.18, 15.46, 0.000, 0.000, 0.000, 15:41:09.965
106, 379.35, 13.97, 8.64, 11.57, 0.000, 0.000, 0.000, 15:41:09.965
107, -380.15, 8.61, 11.10, 12.01, 0.000, 0.000, 0.000, 15:41:09.965
108, -216.15, 4.23, 18.27, 15.52, 0.000, 0.000, 0.000, 15:41:09.965
109, 31.59, 5.05, 12.08, 11.64, 0.000, 0.000, 0.000, 15:41:09.966
110, -253.70, 12.11, 7.02, 10.53, 0.000, 0.000, 0.000, 15:41:09.966
111, 41.59, 11.09, 13.72, 12.82, 0.000, 0.000, 0.000, 15:41:09.987
112, 604.13, 3.96, 15.34, 13.79, 0.000, 0.000, 0.000, 15:41:09.987
113, -162.98, 16.32, 5.10, 5.45, 0.000, 0.000, 0.000, 15:41:10.009
114, -462.03, 10.78, 13.35, 12.10, 0.000, 0.000, 0.000, 15:41:10.009
115, 132.58, 6.52, 14.10, 15.54, 0.000, 0.000, 0.000, 15:41:10.009
116, 116.63, 11.38, 11.55, 15.46, 0.000, 0.000, 0.000, 15:41:10.010
117, -315.15, 9.11, 10.52, 5.65, 0.000, 0.000, 0.000, 15:41:10.010
118, 51.27, 9.02, 13.17, 15.00, 0.000, 0.000, 0.000, 15:41:10.010
119, 80.38, 8.07, 12.24, 12.49, 0.000, 0.000, 0.000, 15:41:10.032
120, -443.32, 16.89, 6.20, 10.00, 0.000, 0.000, 0.000, 15:41:10.032
121, -94.05, 1.17, 14.74, 17.22, 0.000, 0.000, 0.000, 15:41:10.032
122, 568.83, 6.88, 11.76, 14.84, 0.000, 0.000, 0.000, 15:41:10.032
123, 23.61, 12.45, 4.51, 5.79, 0.000, 0.000, 0.000, 15:41:10.054
124, -607.07, 5.02, 12.29, 14.09, 0.000, 0.000, 0.000, 15:41:10.055
125, 9.50, 9.70, 13.95, 14.70, 0.000, 0.000, 0.000, 15:41:10.055
126, 400.26, 8.17, 9.51, 6.70, 0.000, 0.000, 0.000, 15:41:10.055
127, -227.46, 9.64, 7.23, 6.74, 0.000, 0.000, 0.000, 15:41:10.056
128, -225.96, 3.32, 14.85, 13.74, 0.000, 0.000, 0.000, 15:41:10.056
129, 323.06, 14.90, 13.10, 11.50, 0.000, 0.000, 0.000, 15:41:10.077
130, -599.04, 11.22, 6.26, 7.66, 0.000, 0.000, 0.000, 15:41:10.077
131, -132.22, 2.62, 14.41, 15.30, 0.000, 0.000, 0.000, 15:41:10.077
132, 587.33, 5.41, 12.30, 18.47, 0.000, 0.000, 0.000, 15:41:10.078
133, 411.22, 12.98, 3.03, 3.95, 0.000, 0.000, 0.000, 15:41:10.099
134, 938.51, 7.44, 11.41, 12.79, 0.000, 0.000, 0.000, 15:41:10.099
135, 1534.18, 7.43, 14.08, 13.71, 0.000, 0.000, 0.000, 15:41:10.100
136, 1168.71, 9.70, 5.58, 9.89, 0.000, 0.000, 0.000, 15:41:10.100
137, 550.38, 8.11, 10.06, 10.46, 0.000, 0.000, 0.000, 15:41:10.122
138, 874.50, 10.28, 12.14, 12.93, 0.000, 0.000, 0.000, 15:41:10.122
139, 783.98, 3.54, 9.41, 11.90, 0.000, 0.000, 0.000, 15:41:10.123
140, 576.75, 15.02, 5.36, 7.42, 0.000, 0.000, 0.000, 15:41:10.123
141, 503.13, 2.13, 15.56, 14.06, 0.000, 0.000, 0.000, 15:41:10.144
142, 626.65, 4.15, 13.96, 15.01, 0.000, 0.000, 0.000, 15:41:10.145
143, 13.02, 10.33, 5.86, 8.00, 0.000, 0.000, 0.000, 15:41:10.145
144, -378.84, 10.44, 16.94, 12.81, 0.000, 0.000, 0.000, 15:41:10.145
145, 257.93, 9.97, 13.71, 13.43, 0.000, 0.000, 0.000, 15:41:10.146
146, 432.84, 11.57, 8.65, 9.35, 0.000, 0.000, 0.000, 15:41:10.146
147, -448.48, 17.18, 9.80, 8.59, 0.000, 0.000, 0.000, 15:41:10.167
148, -352.50, -2.02, 11.84, 16.24, 0.000, 0.000, 0.000, 15:41:10.167
149, -217.39, 5.35, 13.14, 15.63, 0.000, 0.000, 0.000, 15:41:10.189
150, -1125.29, 11.88, 7.99, 8.13, 0.000, 0.000, 0.000, 15:41:10.189
151, -1305.19, 4.19, 13.90, 15.10, 0.000, 0.000, 0.000, 15:41:10.190
152, -840.43, 6.70, 11.13, 11.57, 0.000, 0.000, 0.000, 15:41:10.190
153, -1212.69, 11.47, 1.62, 9.07, 0.000, 0.000, 0.000, 15:41:10.191
154, -1421.53, 7.44, 13.37, 13.45, 0.000, 0.000, 0.000, 15:41:10.191
155, -571.72, 6.53, 12.63, 13.44, 0.000, 0.000, 0.000, 15:41:10.212
156, -828.64, 15.30, 6.29, 10.69, 0.000, 0.000, 0.000, 15:41:10.212
157, -1440.53, 7.58, 6.43, 10.36, 0.000, 0.000, 0.000, 15:41:10.212
158, -1095.33, 1.07, 15.59, 16.97, 0.000, 0.000, 0.000, 15:41:10.212
159, -595.95, 6.68, 10.61, 11.75, 0.000, 0.000, 0.000, 15:41:10.235
160, -1278.22, 12.22, 10.22, 8.77, 0.000, 0.000, 0.000, 15:41:10.235
161, -1272.99, 5.26, 15.51, 13.97, 0.000, 0.000, 0.000, 15:41:10.235
162, -952.18, 5.19, 10.91, 13.73, 0.000, 0.000, 0.000, 15:41:10.235
163, -402.31, 14.24, 6.68, 5.30, 0.000, 0.000, 0.000, 15:41:10.236
164, -563.50, 3.66, 10.68, 14.40, 0.000, 0.000, 0.000, 15:41:10.236
165, -1.08, 7.67, 11.76, 14.29, 0.000, 0.000, 0.000, 15:41:10.257
166, 484.07, 7.60, 11.69, 12.66, 0.000, 0.000, 0.000, 15:41:10.258
167, 393.85, 10.26, 10.44, 13.28, 0.000, 0.000, 0.000, 15:41:10.260
168, 1109.24, 4.86, 13.20, 14.25, 0.000, 0.000, 0.000, 15:41:10.260
169, 1458.17, 10.87, 11.67, 12.45, 0.000, 0.000, 0.000, 15:41:10.280
170, 1429.03, 12.00, 7.64, 5.00, 0.000, 0.000, 0.000, 15:41:10.280
171, 1851.13, 10.56, 16.59, 17.95, 0.000, 0.000, 0.000, 15:41:10.280
172, 2170.05, 3.75, 12.31, 12.12, 0.000, 0.000, 0.000, 15:41:10.281
173, 2166.14, 13.94, 7.19, 10.74, 0.000, 0.000, 0.000, 15:41:10.302
174, 1291.64, 11.09, 10.92, 11.14, 0.000, 0.000, 0.000, 15:41:10.302
175, 2075.71, 2.09, 16.50, 14.68, 0.000, 0.000, 0.000, 15:41:10.303
176, 2386.97, 9.11, 10.44, 8.20, 0.000, 0.000, 0.000, 15:41:10.303
177, 1409.84, 9.73, 11.34, 10.90, 0.000, 0.000, 0.000, 15:41:10.324
178, 1550.89, 7.67, 13.24, 17.43, 0.000, 0.000, 0.000, 15:41:10.324
179, 1759.94, 9.93, 15.26, 8.01, 0.000, 0.000, 0.000, 15:41:10.326
180, 1611.65, 11.23, 4.24, 11.30, 0.000, 0.000, 0.000, 15:41:10.326
181, 1830.86, 7.44, 13.58, 17.56, 0.000, 0.000, 0.000, 15:41:10.327
182, 2291.73, 6.56, 12.15, 11.48, 0.000, 0.000, 0.000, 15:41:10.327
183, 2047.89, 17.18, 8.29, 5.50, 0.000, 0.000, 0.000, 15:41:10.347
184, 1297.63, 3.40, 12.31, 16.77, 0.000, 0.000, 0.000, 15:41:10.347
185, 1801.43, 4.86, 12.47, 14.32, 0.000, 0.000, 0.000, 15:41:10.347
186, 2490.44, 14.90, 7.15, 10.36, 0.000, 0.000, 0.000, 15:41:10.347
187, 1702.69, 10.44, 13.45, 13.30, 0.000, 0.000, 0.000, 15:41:10.369
188, 1962.99, 2.41, 11.71, 13.92, 0.000, 0.000, 0.000, 15:41:10.370
189, 2151.78, 6.90, 8.35, 9.74, 0.000, 0.000, 0.000, 15:41:10.370
190, 1252.60, 10.17, 4.68, 6.76, 0.000, 0.000, 0.000, 15:41:10.370
191, 1750.47, 6.66, 13.02, 12.58, 0.000, 0.000, 0.000, 15:41:10.392
192, 2615.59, 12.20, 12.36, 12.32, 0.000, 0.000, 0.000, 15:41:10.392
193, 2013.81, 8.01, 6.14, 10.14, 0.000, 0.000, 0.000, 15:41:10.392
194, 1445.12, 2.00, 11.31, 14.17, 0.000, 0.000, 0.000, 15:41:10.393
195, 1450.48, 3.15, 12.88, 14.05, 0.000, 0.000, 0.000, 15:41:10.414
196, 1039.11, 10.37, 9.22, 11.43, 0.000, 0.000, 0.000, 15:41:10.415
197, 391.75, 10.85, 13.38, 12.43, 0.000, 0.000, 0.000, 15:41:10.415
198, 775.46, 4.41, 16.77, 17.18, 0.000, 0.000, 0.000, 15:41:10.416
199, 1225.53, 6.98, 15.61, 12.63, 0.000, 0.000, 0.000, 15:41:10.416
200, 492.21, 16.61, 9.52, 4.80, 0.000, 0.000, 0.000, 15:41:10.416
0, 97.28, 6.83, 16.32, 14.82, 0.000, 0.000, 0.000, 15:41:10.439
1, 302.79, 5.60, 8.77, 15.12, 0.000, 0.000, 0.000, 15:41:10.439
2, 176.06, 12.52, 4.34, 8.20, 0.000, 0.000, 0.000, 15:41:10.439
3, -368.76, 6.18, 15.39, 14.08, 0.000, 0.000, 0.000, 15:41:10.459
4, -69.19, 2.78, 14.77, 14.98, 0.000, 0.000, 0.000, 15:41:10.460
5, 272.82, 6.99, 6.96, 10.72, 0.000, 0.000, 0.000, 15:41:10.463
6, -487.51, 11.63, 8.04, 10.86, 0.000, 0.000, 0.000, 15:41:10.463
7, -34.84, 6.48, 17.63, 14.89, 0.000, 0.000, 0.000, 15:41:10.463
8, 436.31, 12.96, 14.43, 11.15, 0.000, 0.000, 0.000, 15:41:10.464
9, -449.95, 15.02, 7.13, 6.89, 0.000, 0.000, 0.000, 15:41:10.482
10, -404.97, 2.06, 13.65, 12.93, 0.000, 0.000, 0.000, 15:41:10.482
11, 139.65, 6.35, 11.04, 12.73, 0.000, 0.000, 0.000, 15:41:10.482
12, 525.64, 14.53, 4.45, 4.95, 0.000, 0.000, 0.000, 15:41:10.482
13, -431.63, 6.32, 15.28, 13.48, 0.000, 0.000, 0.000, 15:41:10.504
14, 338.95, 3.72, 13.06, 11.75, 0.000, 0.000, 0.000, 15:41:10.505
15, 99.47, 12.10, 6.54, 14.47, 0.000, 0.000, 0.000, 15:41:10.505
16, -652.39, 9.39, 10.68, 12.01, 0.000, 0.000, 0.000, 15:41:10.505
17, -88.37, 4.94, 17.96, 17.82, 0.000, 0.000, 0.000, 15:41:10.527
18, 520.44, 13.35, 11.25, 10.52, 0.000, 0.000, 0.000, 15:41:10.527
19, -359.90, 8.35, 5.00, 8.05, 0.000, 0.000, 0.000, 15:41:10.527
20, -228.02, 7.25, 17.21, 16.34, 0.000, 0.000, 0.000, 15:41:10.527
21, 109.92, 9.37, 12.57, 11.43, 0.000, 0.000, 0.000, 15:41:10.549
22, -205.08, 16.59, 5.23, 6.23, 0.000, 0.000, 0.000, 15:41:10.549
23, -297.00, 2.52, 11.80, 13.42, 0.000, 0.000, 0.000, 15:41:10.550
24, 335.01, 8.97, 14.13, 17.21, 0.000, 0.000, 0.000, 15:41:10.550
25, 109.08, 11.81, 12.53, 12.06, 0.000, 0.000, 0.000, 15:41:10.551
26, -455.17, 6.28, 10.97, 10.88, 0.000, 0.000, 0.000, 15:41:10.551
27, 268.15, 3.93, 19.66, 19.00, 0.000, 0.000, 0.000, 15:41:10.572
28, 480.98, 3.94, 10.48, 11.57, 0.000, 0.000, 0.000, 15:41:10.572
29, -451.91, 12.08, 8.14, 6.37, 0.000, 0.000, 0.000, 15:41:10.573
30, -421.16, 3.83, 14.33, 13.99, 0.000, 0.000, 0.000, 15:41:10.573
31, 469.97, 5.34, 9.47, 8.61, 0.000, 0.000, 0.000, 15:41:10.594
32, 265.50, 11.33, 6.86, 5.28, 0.000, 0.000, 0.000, 15:41:10.594
33, -559.36, 7.76, 13.17, 12.32, 0.000, 0.000, 0.000, 15:41:10.595
34, -132.37, 6.25, 14.88, 14.26, 0.000, 0.000, 0.000, 15:41:10.595
35, 83.91, 11.94, 5.65, 10.06, 0.000, 0.000, 0.000, 15:41:10.617
36, -490.66, 16.15, 2.60, 10.12, 0.000, 0.000, 0.000, 15:41:10.617
37, -10.54, -2.28, 17.03, 12.12, 0.000, 0.000, 0.000, 15:41:10.618
38, 489.57, 7.55, 8.82, 12.40, 0.000, 0.000, 0.000, 15:41:10.618
39, 439.79, 13.95, 5.02, 8.70, 0.000, 0.000, 0.000, 15:41:10.639
40, 873.80, 3.77, 14.97, 18.50, 0.000, 0.000, 0.000, 15:41:10.639
41, 1545.78, 2.55, 13.25, 14.05, 0.000, 0.000, 0.000, 15:41:10.640
42, 958.09, 14.20, 8.64, 10.65, 0.000, 0.000, 0.000, 15:41:10.640
43, 595.31, 6.49, 11.44, 11.24, 0.000, 0.000, 0.000, 15:41:10.640
44, 1108.11, 5.10, 15.74, 16.59, 0.000, 0.000, 0.000, 15:41:10.641
45, 986.40, 18.07, 7.08, 8.11, 0.000, 0.000, 0.000, 15:41:10.662
46, 774.60, 9.19, 12.34, 12.18, 0.000, 0.000, 0.000, 15:41:10.662
47, 916.41, 4.36, 11.77, 15.28, 0.000, 0.000, 0.000, 15:41:10.662
48, 1283.61, 10.29, 11.77, 9.02, 0.000, 0.000, 0.000, 15:41:10.662
49, 393.21, 14.04, 8.36, 8.89, 0.000, 0.000, 0.000, 15:41:10.684
50, 916.86, 3.12, 13.76, 13.88, 0.000, 0.000, 0.000, 15:41:10.684
51, 1294.27, 9.56, 11.27, 13.45, 0.000, 0.000, 0.000, 15:41:10.685
52, 994.81, 10.70, 7.89, 9.49, 0.000, 0.000, 0.000, 15:41:10.685
53, 410.82, 3.74, 11.03, 12.24, 0.000, 0.000, 0.000, 15:41:10.707
54, 1276.45, 7.18, 14.11, 14.15, 0.000, 0.000, 0.000, 15:41:10.707
55, 1158.43, 6.92, 7.07, 9.85, 0.000, 0.000, 0.000, 15:41:10.707
56, 478.47, 7.69, 10.15, 5.93, 0.000, 0.000, 0.000, 15:41:10.707
57, 1295.36, 2.57, 14.58, 19.53, 0.000, 0.000, 0.000, 15:41:10.730
58, 995.04, 6.38, 12.92, 11.14, 0.000, 0.000, 0.000, 15:41:10.730
59, 829.19, 13.13, 10.15, 7.00, 0.000, 0.000, 0.000, 15:41:10.730
60, 852.00, 2.29, 14.27, 16.17, 0.000, 0.000, 0.000, 15:41:10.730
61, 1124.86, 7.41, 12.75, 14.71, 0.000, 0.000, 0.000, 15:41:10.731
62, 881.10, 14.87, 5.72, 7.83, 0.000, 0.000, 0.000, 15:41:10.731
63, 560.69, 7.95, 14.87, 15.23, 0.000, 0.000, 0.000, 15:41:10.752
64, 1367.37, 2.07, 12.35, 12.32, 0.000, 0.000, 0.000, 15:41:10.752
65, 1288.17, 14.29, 7.95, 7.78, 0.000, 0.000, 0.000, 15:41:10.753
66, 382.27, 13.43, 9.80, 12.73, 0.000, 0.000, 0.000, 15:41:10.753
67, 845.64, 4.74, 15.25, 14.96, 0.000, 0.000, 0.000, 15:41:10.774
68, 1306.38, 6.62, 10.44, 11.43, 0.000, 0.000, 0.000, 15:41:10.774
69, 651.80, 16.90, 5.09, 11.54, 0.000, 0.000, 0.000, 15:41:10.775
70, 630.15, 5.57, 15.53, 13.74, 0.000, 0.000, 0.000, 15:41:10.775
71, 631.76, 4.82, 10.92, 11.19, 0.000, 0.000, 0.000, 15:41:10.797
72, 64.00, 17.17, 6.18, 7.89, 0.000, 0.000, 0.000, 15:41:10.797
73, -622.04, -0.71, 13.43, 14.61, 0.000, 0.000, 0.000, 15:41:10.797
74, 117.38, 2.58, 12.97, 13.26, 0.000, 0.000, 0.000, 15:41:10.797
75, 49.78, 12.87, 9.30, 11.08, 0.000, 0.000, 0.000, 15:41:10.820
76, -186.50, 9.89, 12.59, 8.76, 0.000, 0.000, 0.000, 15:41:10.820
77, 39.35, 7.73, 14.47, 18.02, 0.000, 0.000, 0.000, 15:41:10.820
78, 230.84, 9.21, 11.19, 14.21, 0.000, 0.000, 0.000, 15:41:10.820
79, -403.14, 11.05, 5.80, 5.23, 0.000, 0.000, 0.000, 15:41:10.821
80, -231.27, 5.28, 13.62, 11.57, 0.000, 0.000, 0.000, 15:41:10.821
81, 259.46, 9.40, 11.40, 14.39, 0.000, 0.000, 0.000, 15:41:10.842
82, 259.62, 11.95, 6.15, 7.75, 0.000, 0.000, 0.000, 15:41:10.842
83, 155.43, 10.51, 12.84, 14.04, 0.000, 0.000, 0.000, 15:41:10.843
84, 362.45, 1.96, 9.89, 15.28, 0.000, 0.000, 0.000, 15:41:10.843
85, 314.70, 12.18, 7.35, 11.39, 0.000, 0.000, 0.000, 15:41:10.864
86, -318.99, 7.65, 9.42, 11.94, 0.000, 0.000, 0.000, 15:41:10.864
87, -120.27, 4.92, 12.56, 12.68, 0.000, 0.000, 0.000, 15:41:10.865
88, 315.46, 10.44, 12.07, 12.69, 0.000, 0.000, 0.000, 15:41:10.865
89, -360.07, 14.79, 7.70, 9.55, 0.000, 0.000, 0.000, 15:41:10.887
90, -165.70, 8.57, 14.61, 15.75, 0.000, 0.000, 0.000, 15:41:10.887
91, 118.32, 1.94, 17.14, 12.12, 0.000, 0.000, 0.000, 15:41:10.887
92, -116.24, 13.77, 4.81, 6.83, 0.000, 0.000, 0.000, 15:41:10.888
93, -140.78, 5.93, 11.88, 15.22, 0.000, 0.000, 0.000, 15:41:10.909
94, 54.98, 3.18, 12.09, 14.60, 0.000, 0.000, 0.000, 15:41:10.910
95, 361.43, 4.92, 11.13, 13.06, 0.000, 0.000, 0.000, 15:41:10.910
96, -590.02, 11.53, 8.28, 8.11, 0.000, 0.000, 0.000, 15:41:10.910
97, 328.10, 4.66, 13.14, 15.94, 0.000, 0.000, 0.000, 15:41:10.911
98, 376.80, 9.88, 9.80, 13.44, 0.000, 0.000, 0.000, 15:41:10.911
99, -485.38, 14.85, 0.34, 7.88, 0.000, 0.000, 0.000, 15:41:10.932
100, -630.23, -2.05, 18.56, 14.61, 0.000, 0.000, 0.000, 15:41:10.932
101, -603.27, 3.51, 14.40, 13.79, 0.000, 0.000, 0.000, 15:41:10.932
102, -607.09, 15.74, 9.93, 9.85, 0.000, 0.000, 0.000, 15:41:10.932
103, -1559.89, 9.85, 13.29, 15.58, 0.000, 0.000, 0.000, 15:41:10.954
104, -994.33, 7.06, 16.25, 13.70, 0.000, 0.000, 0.000, 15:41:10.955
105, -725.10, 9.49, 8.50, 7.36, 0.000, 0.000, 0.000, 15:41:10.955
106, -979.92, 12.78, 8.47, 8.42, 0.000, 0.000, 0.000, 15:41:10.955
107, -822.93, 3.61, 17.28, 17.48, 0.000, 0.000, 0.000, 15:41:10.977
108, -553.35, 10.27, 13.24, 12.35, 0.000, 0.000, 0.000, 15:41:10.977
109, -784.01, 10.59, 7.29, 5.86, 0.000, 0.000, 0.000, 15:41:10.977
110, -279.40, 4.51, 17.73, 14.47, 0.000, 0.000, 0.000, 15:41:10.977
111, -236.92, 6.66, 12.66, 14.85, 0.000, 0.000, 0.000, 15:41:10.999
112, 72.18, 12.92, 4.47, 8.43, 0.000, 0.000, 0.000, 15:41:11.000
113, -260.85, 8.28, 13.26, 13.17, 0.000, 0.000, 0.000, 15:41:11.000
114, -470.49, 6.29, 11.98, 10.48, 0.000, 0.000, 0.000, 15:41:11.000
115, -509.26, 5.60, 6.37, 9.53, 0.000, 0.000, 0.000, 15:41:11.000
116, -768.19, 8.64, 9.45, 12.81, 0.000, 0.000, 0.000, 15:41:11.001
117, -706.31, 6.56, 14.85, 14.26, 0.000, 0.000, 0.000, 15:41:11.022
118, -631.86, 5.94, 11.87, 13.65, 0.000, 0.000, 0.000, 15:41:11.022
119, -638.35, 14.11, 3.20, 6.08, 0.000, 0.000, 0.000, 15:41:11.022
120, -338.06, 5.09, 14.99, 14.26, 0.000, 0.000, 0.000, 15:41:11.023
121, 136.07, 10.94, 15.63, 11.56, 0.000, 0.000, 0.000, 15:41:11.044
122, -273.97, 13.96, 4.28, 8.69, 0.000, 0.000, 0.000, 15:41:11.044
123, -377.37, 4.15, 11.69, 11.78, 0.000, 0.000, 0.000, 15:41:11.045
124, 531.06, 7.20, 12.35, 16.49, 0.000, 0.000, 0.000, 15:41:11.045
125, 443.86, 7.85, 5.99, 12.41, 0.000, 0.000, 0.000, 15:41:11.067
126, -502.55, 11.03, 9.22, 8.12, 0.000, 0.000, 0.000, 15:41:11.067
127, 69.82, 0.11, 18.32, 18.23, 0.000, 0.000, 0.000, 15:41:11.067
128, 720.14, 11.63, 15.88, 14.86, 0.000, 0.000, 0.000, 15:41:11.067
129, 502.61, 16.31, 2.50, 6.50, 0.000, 0.000, 0.000, 15:41:11.089
130, 641.27, 4.00, 12.66, 13.38, 0.000, 0.000, 0.000, 15:41:11.089
131, 1286.88, 8.26, 15.26, 15.26, 0.000, 0.000, 0.000, 15:41:11.091
132, 788.10, 19.34, 2.75, 1.93, 0.000, 0.000, 0.000, 15:41:11.091
133, 210.52, 7.33, 16.13, 16.38, 0.000, 0.000, 0.000, 15:41:11.091
134, 414.61, 4.53, 14.77, 18.24, 0.000, 0.000, 0.000, 15:41:11.092
135, 697.87, 12.76, 10.83, 13.07, 0.000, 0.000, 0.000, 15:41:11.112
136, 429.43, 7.57, 6.47, 7.61, 0.000, 0.000, 0.000, 15:41:11.112
137, 824.22, 5.03, 14.47, 16.41, 0.000, 0.000, 0.000, 15:41:11.112
138, 1120.01, 7.21, 10.06, 11.01, 0.000, 0.000, 0.000, 15:41:11.112
139, 923.92, 13.45, 4.98, 3.13, 0.000, 0.000, 0.000, 15:41:11.135
140, 460.48, 2.73, 18.88, 12.51, 0.000, 0.000, 0.000, 15:41:11.135
141, 1227.42, 6.66, 13.69, 13.12, 0.000, 0.000, 0.000, 15:41:11.136
142, 1022.83, 14.14, 5.05, 6.38, 0.000, 0.000, 0.000, 15:41:11.136
143, 134.25, 8.70, 9.76, 10.75, 0.000, 0.000, 0.000, 15:41:11.157
144, 876.74, 10.90, 12.85, 13.54, 0.000, 0.000, 0.000, 15:41:11.157
145, 366.42, 5.41, 8.76, 12.27, 0.000, 0.000, 0.000, 15:41:11.157
146, 208.12, 3.62, 9.31, 8.35, 0.000, 0.000, 0.000, 15:41:11.158
147, 873.74, 4.49, 17.65, 19.18, 0.000, 0.000, 0.000, 15:41:11.179
148, 1462.13, 7.33, 12.38, 12.35, 0.000, 0.000, 0.000, 15:41:11.179
149, 523.02, 10.49, 5.62, 8.88, 0.000, 0.000, 0.000, 15:41:11.180
150, 763.53, 6.82, 15.43, 16.65, 0.000, 0.000, 0.000, 15:41:11.180
151, 1262.30, 9.40, 11.26, 11.93, 0.000, 0.000, 0.000, 15:41:11.181
152, 1150.58, 13.39, 3.44, 8.21, 0.000, 0.000, 0.000, 15:41:11.181
153, 897.78, 11.18, 14.63, 11.48, 0.000, 0.000, 0.000, 15:41:11.202
154, 779.15, 2.01, 14.05, 13.27, 0.000, 0.000, 0.000, 15:41:11.203
155, 482.63, 10.52, 6.71, 11.81, 0.000, 0.000, 0.000, 15:41:11.203
156, 1040.50, 6.36, 8.43, 9.32, 0.000, 0.000, 0.000, 15:41:11.203
157, 1217.23, -0.96, 17.31, 15.77, 0.000, 0.000, 0.000, 15:41:11.224
158, 1317.00, 7.58, 13.26, 15.10, 0.000, 0.000, 0.000, 15:41:11.224
159, 689.12, 17.01, 5.63, 7.22, 0.000, 0.000, 0.000, 15:41:11.225
160, 738.42, 6.72, 12.99, 14.08, 0.000, 0.000, 0.000, 15:41:11.225
161, 1290.26, 6.36, 11.03, 16.38, 0.000, 0.000, 0.000, 15:41:11.247
162, 759.32, 16.43, 2.50, 3.91, 0.000, 0.000, 0.000, 15:41:11.247
163, 818.32, 6.61, 13.03, 11.45, 0.000, 0.000, 0.000, 15:41:11.247
164, 1308.59, 4.53, 14.70, 14.00, 0.000, 0.000, 0.000, 15:41:11.248
165, 1169.91, 9.86, 9.65, 10.13, 0.000, 0.000, 0.000, 15:41:11.269
166, 271.18, 9.47, 9.48, 7.58, 0.000, 0.000, 0.000, 15:41:11.269
167, 584.35, 0.84, 11.84, 12.13, 0.000, 0.000, 0.000, 15:41:11.270
168, 801.48, 8.13, 13.46, 14.82, 0.000, 0.000, 0.000, 15:41:11.270
169, 7.32, 10.34, 6.14, 7.29, 0.000, 0.000, 0.000, 15:41:11.271
170, -558.96, 2.86, 18.07, 17.19, 0.000, 0.000, 0.000, 15:41:11.271
171, 256.51, 7.82, 11.35, 12.00, 0.000, 0.000, 0.000, 15:41:11.292
172, 226.33, 12.64, 4.75, 6.56, 0.000, 0.000, 0.000, 15:41:11.292
173, -641.03, 7.73, 13.30, 12.82, 0.000, 0.000, 0.000, 15:41:11.293
174, 187.71, 5.26, 13.89, 12.60, 0.000, 0.000, 0.000, 15:41:11.293
175, 371.41, 10.69, 9.48, 11.58, 0.000, 0.000, 0.000, 15:41:11.315
176, -586.61, 12.86, 9.02, 9.58, 0.000, 0.000, 0.000, 15:41:11.315
177, -34.88, 3.35, 18.77, 16.83, 0.000, 0.000, 0.000, 15:41:11.316
178, 203.13, 7.69, 11.51, 12.01, 0.000, 0.000, 0.000, 15:41:11.317
179, -91.90, 13.87, 5.59, 7.69, 0.000, 0.000, 0.000, 15:41:11.337
180, -217.88, 10.53, 12.82, 15.91, 0.000, 0.000, 0.000, 15:41:11.337
181, 417.62, 1.44, 13.82, 16.32, 0.000, 0.000, 0.000, 15:41:11.338
182, -16.43, 9.49, 5.77, 6.81, 0.000, 0.000, 0.000, 15:41:11.338
183, -698.33, 8.43, 11.74, 13.38, 0.000, 0.000, 0.000, 15:41:11.359
184, 141.10, 6.11, 14.02, 13.78, 0.000, 0.000, 0.000, 15:41:11.359
185, 486.76, 9.57, 11.30, 13.67, 0.000, 0.000, 0.000, 15:41:11.360
186, -394.14, 11.09, 9.93, 10.32, 0.000, 0.000, 0.000, 15:41:11.360
187, -88.10, 3.59, 16.00, 15.28, 0.000, 0.000, 0.000, 15:41:11.361
188, 318.38, 9.39, 9.87, 14.34, 0.000, 0.000, 0.000, 15:41:11.361
189, -353.34, 14.91, 2.71, 6.61, 0.000, 0.000, 0.000, 15:41:11.385
190, -202.72, -0.98, 16.16, 16.23, 0.000, 0.000, 0.000, 15:41:11.385
191, 264.08, 11.18, 12.64, 11.12, 0.000, 0.000, 0.000, 15:41:11.385
192, -158.35, 16.55, 3.54, 8.10, 0.000, 0.000, 0.000, 15:41:11.386
193, -687.23, 6.84, 11.27, 14.94, 0.000, 0.000, 0.000, 15:41:11.405
194, -503.91, 2.34, 12.12, 18.19, 0.000, 0.000, 0.000, 15:41:11.405
195, -792.26, 14.09, 4.76, 7.57, 0.000, 0.000, 0.000, 15:41:11.405
196, -1383.28, 10.91, 11.23, 5.26, 0.000, 0.000, 0.000, 15:41:11.406
197, -1023.93, 6.64, 13.70, 10.47, 0.000, 0.000, 0.000, 15:41:11.427
198, -611.56, 12.52, 9.75, 14.60, 0.000, 0.000, 0.000, 15:41:11.427
199, -1076.55, 7.20, 4.51, 6.93, 0.000, 0.000, 0.000, 15:41:11.427
200, -1497.07, 3.23, 14.69, 11.32, 0.000, 0.000, 0.000, 15:41:11.428
0, 290.66, 5.39, 14.07, 12.73, 0.000, 0.000, 0.000, 15:41:11.428
1, 72.92, 12.01, 6.58, 11.36, 0.000, 0.000, 0.000, 15:41:11.450
2, -305.51, 4.97, 13.01, 15.22, 0.000, 0.000, 0.000, 15:41:11.450
3, -4.29, 6.41, 13.17, 15.85, 0.000, 0.000, 0.000, 15:41:11.453
4, 208.23, 10.62, 8.93, 8.18, 0.000, 0.000, 0.000, 15:41:11.454
5, -344.49, 8.29, 10.62, 9.64, 0.000, 0.000, 0.000, 15:41:11.472
6, -2.82, 7.49, 19.12, 16.58, 0.000, 0.000, 0.000, 15:41:11.472
7, 367.00, 5.70, 11.87, 14.44, 0.000, 0.000, 0.000, 15:41:11.494
8, -259.77, 14.22, 7.10, 7.00, 0.000, 0.000, 0.000, 15:41:11.495
9, -268.13, 6.94, 13.77, 14.65, 0.000, 0.000, 0.000, 15:41:11.495
10, 195.94, 7.98, 15.96, 11.88, 0.000, 0.000, 0.000, 15:41:11.495
11, -11.49, 14.14, 5.19, 11.86, 0.000, 0.000, 0.000, 15:41:11.496
12, -543.22, 6.37, 13.75, 15.82, 0.000, 0.000, 0.000, 15:41:11.496
13, -63.94, 8.72, 13.93, 16.41, 0.000, 0.000, 0.000, 15:41:11.518
14, 549.87, 10.37, 8.36, 11.01, 0.000, 0.000, 0.000, 15:41:11.518
15, -281.48, 10.99, 9.45, 9.41, 0.000, 0.000, 0.000, 15:41:11.519
16, -215.11, 5.17, 18.80, 16.34, 0.000, 0.000, 0.000, 15:41:11.519
17, 266.54, 5.39, 10.65, 9.31, 0.000, 0.000, 0.000, 15:41:11.520
18, -98.50, 15.28, 7.52, 5.18, 0.000, 0.000, 0.000, 15:41:11.520
19, -297.37, 2.82, 13.64, 15.51, 0.000, 0.000, 0.000, 15:41:11.539
20, 40.78, 4.49, 14.97, 15.38, 0.000, 0.000, 0.000, 15:41:11.540
21, 75.03, 13.48, 5.53, 7.18, 0.000, 0.000, 0.000, 15:41:11.540
22, -559.83, 8.46, 14.17, 13.30, 0.000, 0.000, 0.000, 15:41:11.540
23, 242.94, 3.52, 10.72, 16.17, 0.000, 0.000, 0.000, 15:41:11.562
24, 549.81, 12.98, 8.04, 13.05, 0.000, 0.000, 0.000, 15:41:11.562
25, -310.47, 4.01, 7.10, 9.39, 0.000, 0.000, 0.000, 15:41:11.562
26, -219.61, 7.66, 17.86, 14.88, 0.000, 0.000, 0.000, 15:41:11.562
27, 332.91, 10.04, 12.27, 13.60, 0.000, 0.000, 0.000, 15:41:11.584
28, -255.21, 17.24, 2.18, 7.14, 0.000, 0.000, 0.000, 15:41:11.585
29, -486.50, 2.87, 13.47, 12.25, 0.000, 0.000, 0.000, 15:41:11.585
30, -467.74, 8.34, 11.22, 15.72, 0.000, 0.000, 0.000, 15:41:11.585
31, -1171.44, 17.99, 4.95, 6.33, 0.000, 0.000, 0.000, 15:41:11.586
32, -1471.23, 6.37, 12.25, 13.61, 0.000, 0.000, 0.000, 15:41:11.586
33, -684.39, 5.67, 16.59, 15.23, 0.000, 0.000, 0.000, 15:41:11.607
34, -641.61, 9.01, 14.25, 11.19, 0.000, 0.000, 0.000, 15:41:11.607
35, -1540.87, 11.60, 8.24, 9.08, 0.000, 0.000, 0.000, 15:41:11.608
36, -965.95, 6.19, 16.51, 18.05, 0.000, 0.000, 0.000, 15:41:11.608
37, -197.68, 8.06, 12.26, 13.10, 0.000, 0.000, 0.000, 15:41:11.629
38, -379.17, 12.26, 5.96, 7.24, 0.000, 0.000, 0.000, 15:41:11.629
39, -640.16, 4.78, 14.53, 14.78, 0.000, 0.000, 0.000, 15:41:11.630
40, 128.84, 3.67, 14.83, 14.37, 0.000, 0.000, 0.000, 15:41:11.630
41, -65.22, 11.50, 3.21, 5.60, 0.000, 0.000, 0.000, 15:41:11.652
42, -69.16, 8.88, 10.74, 14.28, 0.000, 0.000, 0.000, 15:41:11.652
43, -98.59, 0.79, 14.85, 11.97, 0.000, 0.000, 0.000, 15:41:11.652
44, 346.25, 10.52, 8.76, 12.09, 0.000, 0.000, 0.000, 15:41:11.653
45, -558.01, 7.01, 7.43, 5.89, 0.000, 0.000, 0.000, 15:41:11.674
46, 24.07, 2.57, 12.53, 13.26, 0.000, 0.000, 0.000, 15:41:11.674
47, 702.18, 9.99, 10.98, 13.30, 0.000, 0.000, 0.000, 15:41:11.675
48, -214.70, 13.10, 6.62, 11.36, 0.000, 0.000, 0.000, 15:41:11.675
49, -184.71, 2.41, 17.98, 14.53, 0.000, 0.000, 0.000, 15:41:11.676
50, 153.16, 11.70, 12.58, 12.04, 0.000, 0.000, 0.000, 15:41:11.676
51, -522.88, 17.31, 4.37, 10.00, 0.000, 0.000, 0.000, 15:41:11.697
52, -331.69, 5.81, 11.32, 14.28, 0.000, 0.000, 0.000, 15:41:11.697
53, 329.93, 2.78, 10.73, 13.60, 0.000, 0.000, 0.000, 15:41:11.697
54, 243.50, 11.16, 9.02, 12.50, 0.000, 0.000, 0.000, 15:41:11.697
55, -666.79, 9.91, 10.81, 7.15, 0.000, 0.000, 0.000, 15:41:11.721
56, 139.96, 3.25, 16.49, 14.53, 0.000, 0.000, 0.000, 15:41:11.721
57, 633.15, 8.45, 12.52, 10.17, 0.000, 0.000, 0.000, 15:41:11.721
58, -242.06, 11.52, 7.53, 7.01, 0.000, 0.000, 0.000, 15:41:11.721
59, -533.92, 3.42, 16.08, 17.17, 0.000, 0.000, 0.000, 15:41:11.742
60, 283.42, 10.80, 14.51, 12.20, 0.000, 0.000, 0.000, 15:41:11.742
61, 263.92, 6.95, 5.56, 8.45, 0.000, 0.000, 0.000, 15:41:11.742
62, -578.87, 7.84, 13.87, 10.06, 0.000, 0.000, 0.000, 15:41:11.742
63, -91.18, 1.23, 9.52, 19.27, 0.000, 0.000, 0.000, 15:41:11.764
64, 556.57, 8.92, 11.48, 12.97, 0.000, 0.000, 0.000, 15:41:11.765
65, 491.52, 12.55, 7.81, 9.93, 0.000, 0.000, 0.000, 15:41:11.765
66, 634.49, 6.23, 14.75, 12.50, 0.000, 0.000, 0.000, 15:41:11.765
67, 790.71, 7.78, 8.22, 8.10, 0.000, 0.000, 0.000, 15:41:11.765
68, 786.32, 14.52, 6.00, 5.72, 0.000, 0.000, 0.000, 15:41:11.766
69, 356.76, 4.05, 16.06, 13.41, 0.000, 0.000, 0.000, 15:41:11.787
70, 1043.25, 3.90, 15.54, 17.14, 0.000, 0.000, 0.000, 15:41:11.787
71, 876.13, 15.83, 6.07, 8.44, 0.000, 0.000, 0.000, 15:41:11.788
72, 512.57, 7.81, 12.18, 14.18, 0.000, 0.000, 0.000, 15:41:11.788
73, 1425.08, 3.51, 14.52, 18.09, 0.000, 0.000, 0.000, 15:41:11.809
74, 1283.00, 10.17, 8.63, 12.61, 0.000, 0.000, 0.000, 15:41:11.809
75, 858.82, 11.95, 5.96, 6.76, 0.000, 0.000, 0.000, 15:41:11.810
76, 774.10, 6.11, 16.92, 14.49, 0.000, 0.000, 0.000, 15:41:11.810
77, 1502.15, 9.05, 12.70, 14.55, 0.000, 0.000, 0.000, 15:41:11.832
78, 859.30, 20.94, 7.07, 8.89, 0.000, 0.000, 0.000, 15:41:11.832
79, 427.16, 1.65, 11.05, 15.40, 0.000, 0.000, 0.000, 15:41:11.833
80, 1068.00, 6.61, 16.13, 11.43, 0.000, 0.000, 0.000, 15:41:11.833
81, 971.80, 8.64, 3.42, 5.16, 0.000, 0.000, 0.000, 15:41:11.854
82, 628.25, 8.95, 11.54, 9.69, 0.000, 0.000, 0.000, 15:41:11.855
83, 1036.59, 1.12, 15.58, 16.15, 0.000, 0.000, 0.000, 15:41:11.855
84, 1241.32, 13.13, 13.44, 9.54, 0.000, 0.000, 0.000, 15:41:11.855
85, 723.02, 11.21, 9.90, 8.61, 0.000, 0.000, 0.000, 15:41:11.856
86, 620.88, 9.44, 15.22, 12.42, 0.000, 0.000, 0.000, 15:41:11.857
87, 1469.62, 6.02, 11.44, 13.82, 0.000, 0.000, 0.000, 15:41:11.877
88, 1020.35, 16.62, 6.30, 11.14, 0.000, 0.000, 0.000, 15:41:11.877
89, 251.26, -0.23, 12.83, 17.16, 0.000, 0.000, 0.000, 15:41:11.877
90, 579.40, 1.06, 15.04, 11.86, 0.000, 0.000, 0.000, 15:41:11.877
91, 440.25, 13.11, 7.17, 6.47, 0.000, 0.000, 0.000, 15:41:11.901
92, 277.10, 7.79, 12.67, 13.45, 0.000, 0.000, 0.000, 15:41:11.901
93, 1100.75, 5.19, 13.62, 13.07, 0.000, 0.000, 0.000, 15:41:11.901
94, 1471.93, 7.67, 10.28, 7.23, 0.000, 0.000, 0.000, 15:41:11.901
95, 584.71, 10.92, 6.91, 8.97, 0.000, 0.000, 0.000, 15:41:11.922
96, 519.57, 8.58, 12.65, 15.81, 0.000, 0.000, 0.000, 15:41:11.922
97, 710.08, 1.35, 12.77, 11.39, 0.000, 0.000, 0.000, 15:41:11.922
98, 1125.76, 14.87, 4.42, 3.28, 0.000, 0.000, 0.000, 15:41:11.923
99, 732.29, 5.85, 13.36, 17.09, 0.000, 0.000, 0.000, 15:41:11.946
100, 1148.80, 5.44, 10.11, 14.90, 0.000, 0.000, 0.000, 15:41:11.946
101, 1196.89, 10.50, 5.21, 8.02, 0.000, 0.000, 0.000, 15:41:11.946
102, 1193.42, 11.88, 8.10, 12.61, 0.000, 0.000, 0.000, 15:41:11.946
103, 1531.70, 3.85, 17.88, 15.88, 0.000, 0.000, 0.000, 15:41:11.947
104, 1335.06, 7.44, 7.84, 11.01, 0.000, 0.000, 0.000, 15:41:11.947
105, 634.82, 10.77, 6.80, 11.84, 0.000, 0.000, 0.000, 15:41:11.968
106, 906.94, 3.81, 14.08, 16.52, 0.000, 0.000, 0.000, 15:41:11.969
107, 1342.48, 4.40, 8.96, 12.75, 0.000, 0.000, 0.000, 15:41:11.969
108, 1057.25, 18.05, 6.82, 6.60, 0.000, 0.000, 0.000, 15:41:11.969
109, 968.04, 5.81, 17.63, 17.33, 0.000, 0.000, 0.000, 15:41:11.989
110, 847.95, 4.67, 13.59, 13.32, 0.000, 0.000, 0.000, 15:41:11.989
111, 224.29, 16.23, 8.01, 7.80, 0.000, 0.000, 0.000, 15:41:11.990
112, 495.98, 7.14, 13.63, 10.28, 0.000, 0.000, 0.000, 15:41:11.990
113, 1377.64, 4.51, 14.32, 11.65, 0.000, 0.000, 0.000, 15:41:12.012
114, 1137.87, 14.15, 7.95, 9.19, 0.000, 0.000, 0.000, 15:41:12.012
115, 608.81, 5.27, 6.74, 10.50, 0.000, 0.000, 0.000, 15:41:12.012
116, 961.42, 4.71, 10.83, 14.94, 0.000, 0.000, 0.000, 15:41:12.012
117, 1413.10, 8.70, 14.47, 12.55, 0.000, 0.000, 0.000, 15:41:12.034
118, 763.27, 14.60, 4.32, 9.53, 0.000, 0.000, 0.000, 15:41:12.035
119, 786.64, 5.39, 16.75, 15.43, 0.000, 0.000, 0.000, 15:41:12.035
120, 1309.07, 6.83, 13.38, 16.52, 0.000, 0.000, 0.000, 15:41:12.035
121, 1198.43, 13.11, 6.15, 8.07, 0.000, 0.000, 0.000, 15:41:12.036
122, 571.47, 6.10, 11.30, 10.83, 0.000, 0.000, 0.000, 15:41:12.036
123, 994.06, 8.11, 14.01, 15.30, 0.000, 0.000, 0.000, 15:41:12.057
124, 1210.07, 3.95, 9.99, 10.08, 0.000, 0.000, 0.000, 15:41:12.057
125, 448.18, 11.57, 6.23, 5.37, 0.000, 0.000, 0.000, 15:41:12.057
126, 1068.29, 6.89, 15.05, 12.79, 0.000, 0.000, 0.000, 15:41:12.058
127, 1491.69, 8.12, 12.53, 16.05, 0.000, 0.000, 0.000, 15:41:12.080
128, 1486.60, 10.29, 4.87, 7.51, 0.000, 0.000, 0.000, 15:41:12.081
129, 1324.61, 4.48, 15.68, 13.08, 0.000, 0.000, 0.000, 15:41:12.081
130, 2144.97, 6.67, 11.19, 18.30, 0.000, 0.000, 0.000, 15:41:12.081
131, 2234.97, 11.88, 7.42, 7.94, 0.000, 0.000, 0.000, 15:41:12.102
132, 1635.83, 10.57, 12.19, 15.46, 0.000, 0.000, 0.000, 15:41:12.102
133, 1983.95, -1.70, 14.96, 11.63, 0.000, 0.000, 0.000, 15:41:12.103
134, 2325.30, 9.94, 10.08, 7.29, 0.000, 0.000, 0.000, 15:41:12.103
135, 1917.76, 13.59, 6.53, 12.14, 0.000, 0.000, 0.000, 15:41:12.124
136, 1699.44, 8.78, 13.74, 16.30, 0.000, 0.000, 0.000, 15:41:12.125
137, 2226.41, 9.27, 14.38, 12.45, 0.000, 0.000, 0.000, 15:41:12.125
138, 1769.78, 11.31, 5.32, 6.76, 0.000, 0.000, 0.000, 15:41:12.125
139, 1217.32, 4.24, 11.88, 15.41, 0.000, 0.000, 0.000, 15:41:12.126
140, 2033.49, 4.58, 12.60, 14.81, 0.000, 0.000, 0.000, 15:41:12.126
141, 2385.79, 14.15, 7.86, 9.07, 0.000, 0.000, 0.000, 15:41:12.147
142, 2362.65, 3.92, 12.09, 13.69, 0.000, 0.000, 0.000, 15:41:12.147
143, 2366.09, 5.12, 15.91, 14.01, 0.000, 0.000, 0.000, 15:41:12.147
144, 2646.20, 14.91, 9.77, 12.72, 0.000, 0.000, 0.000, 15:41:12.148
145, 2062.32, 15.41, 7.50, 6.34, 0.000, 0.000, 0.000, 15:41:12.169
146, 2938.02, 4.43, 16.43, 15.20, 0.000, 0.000, 0.000, 15:41:12.170
147, 3168.73, 8.97, 11.06, 12.35, 0.000, 0.000, 0.000, 15:41:12.170
148, 2649.61, 14.59, 3.70, 8.88, 0.000, 0.000, 0.000, 15:41:12.170
149, 2917.82, 4.42, 15.60, 13.72, 0.000, 0.000, 0.000, 15:41:12.192
150, 3297.41, 14.59, 13.05, 17.41, 0.000, 0.000, 0.000, 15:41:12.192
151, 2564.71, 8.63, 11.14, 5.69, 0.000, 0.000, 0.000, 15:41:12.193
152, 2558.62, 6.52, 15.04, 10.34, 0.000, 0.000, 0.000, 15:41:12.193
153, 3215.81, 8.76, 12.18, 15.92, 0.000, 0.000, 0.000, 15:41:12.216
154, 3039.57, 6.46, 8.50, 10.34, 0.000, 0.000, 0.000, 15:41:12.216
155, 2632.01, 9.39, 7.11, 8.03, 0.000, 0.000, 0.000, 15:41:12.217
156, 2842.95, 4.37, 14.74, 18.12, 0.000, 0.000, 0.000, 15:41:12.217
157, 2993.43, 4.56, 14.64, 12.21, 0.000, 0.000, 0.000, 15:41:12.217
158, 3349.88, 14.00, 9.53, 6.34, 0.000, 0.000, 0.000, 15:41:12.217
159, 2717.80, 5.58, 13.19, 15.07, 0.000, 0.000, 0.000, 15:41:12.237
160, 3377.19, 3.87, 11.43, 13.15, 0.000, 0.000, 0.000, 15:41:12.238
161, 2805.59, 6.07, 4.81, 7.04, 0.000, 0.000, 0.000, 15:41:12.238
162, 2164.70, 10.59, 11.62, 10.24, 0.000, 0.000, 0.000, 15:41:12.239
163, 2180.21, 5.09, 14.54, 15.52, 0.000, 0.000, 0.000, 15:41:12.259
164, 1821.02, 9.21, 11.26, 12.23, 0.000, 0.000, 0.000, 15:41:12.259
165, 1604.81, 15.01, 8.91, 6.42, 0.000, 0.000, 0.000, 15:41:12.260
166, 2557.83, 5.54, 11.21, 12.83, 0.000, 0.000, 0.000, 15:41:12.261
167, 2329.85, 4.51, 12.29, 12.60, 0.000, 0.000, 0.000, 15:41:12.284
168, 2307.97, 19.32, 5.32, 8.11, 0.000, 0.000, 0.000, 15:41:12.284
169, 2896.64, -1.45, 14.29, 16.68, 0.000, 0.000, 0.000, 15:41:12.284
170, 3150.00, 7.61, 13.18, 14.36, 0.000, 0.000, 0.000, 15:41:12.284
171, 3249.74, 13.59, 4.26, 8.76, 0.000, 0.000, 0.000, 15:41:12.305
172, 2859.91, 15.29, 10.52, 10.63, 0.000, 0.000, 0.000, 15:41:12.305
173, 3408.62, 6.90, 13.75, 15.65, 0.000, 0.000, 0.000, 15:41:12.305
174, 3104.90, 6.31, 10.73, 10.84, 0.000, 0.000, 0.000, 15:41:12.306
175, 2266.30, 11.23, 8.78, 11.13, 0.000, 0.000, 0.000, 15:41:12.306
176, 2189.43, 5.79, 12.69, 13.04, 0.000, 0.000, 0.000, 15:41:12.306
177, 3127.04, 11.59, 12.95, 12.04, 0.000, 0.000, 0.000, 15:41:12.327
178, 2897.13, 11.16, 3.90, 6.58, 0.000, 0.000, 0.000, 15:41:12.327
179, 2706.95, 4.82, 16.48, 13.81, 0.000, 0.000, 0.000, 15:41:12.327
180, 3476.62, 7.01, 15.37, 12.92, 0.000, 0.000, 0.000, 15:41:12.328
181, 2575.09, 10.25, 4.38, 10.16, 0.000, 0.000, 0.000, 15:41:12.349
182, 2170.14, 6.12, 13.51, 13.86, 0.000, 0.000, 0.000, 15:41:12.350
183, 2385.04, 3.52, 11.91, 17.29, 0.000, 0.000, 0.000, 15:41:12.350
184, 2379.93, 10.27, 6.30, 10.45, 0.000, 0.000, 0.000, 15:41:12.350
185, 1509.03, 15.65, 7.92, 9.14, 0.000, 0.000, 0.000, 15:41:12.372
186, 2151.05, 9.32, 13.64, 17.76, 0.000, 0.000, 0.000, 15:41:12.373
187, 2150.85, -2.83, 12.19, 13.28, 0.000, 0.000, 0.000, 15:41:12.373
188, 1320.32, 12.08, 4.67, 2.67, 0.000, 0.000, 0.000, 15:41:12.373
189, 1456.32, 6.90, 17.59, 10.11, 0.000, 0.000, 0.000, 15:41:12.394
190, 1629.60, 6.95, 13.76, 11.61, 0.000, 0.000, 0.000, 15:41:12.395
191, 940.11, 10.97, 6.93, 7.28, 0.000, 0.000, 0.000, 15:41:12.417
192, 428.93, 9.36, 9.61, 14.14, 0.000, 0.000, 0.000, 15:41:12.417
193, 1201.44, 2.38, 12.11, 12.02, 0.000, 0.000, 0.000, 15:41:12.417
194, 1400.77, 10.90, 8.96, 11.79, 0.000, 0.000, 0.000, 15:41:12.418
195, 894.28, 10.50, 5.69, 11.24, 0.000, 0.000, 0.000, 15:41:12.419
196, 854.88, 3.20, 13.22, 15.59, 0.000, 0.000, 0.000, 15:41:12.419
197, 1602.98, 9.63, 17.48, 16.70, 0.000, 0.000, 0.000, 15:41:12.441
198, 1504.26, 16.29, 4.28, 5.31, 0.000, 0.000, 0.000, 15:41:12.441
199, 1173.05, 6.05, 15.66, 13.26, 0.000, 0.000, 0.000, 15:41:12.442
200, 1204.47, 1.09, 11.33, 13.83, 0.000, 0.000, 0.000, 15:41:12.442
0, -16.51, 13.05, 8.87, 8.61, 0.000, 0.000, 0.000, 15:41:12.442
1, -164.76, 7.23, 7.96, 12.89, 0.000, 0.000, 0.000, 15:41:12.462
2, 12.90, 4.92, 16.98, 10.68, 0.000, 0.000, 0.000, 15:41:12.462
3, -414.48, 13.75, 10.19, 12.47, 0.000, 0.000, 0.000, 15:41:12.462
4, -129.72, 11.76, 10.29, 9.06, 0.000, 0.000, 0.000, 15:41:12.463
5, 153.79, 3.99, 13.58, 15.55, 0.000, 0.000, 0.000, 15:41:12.463
6, 613.10, 7.71, 15.90, 10.98, 0.000, 0.000, 0.000, 15:41:12.463
7, -185.12, 14.15, 4.14, 9.85, 0.000, 0.000, 0.000, 15:41:12.485
8, -359.83, 4.54, 16.32, 17.24, 0.000, 0.000, 0.000, 15:41:12.486
9, 113.48, 8.83, 11.99, 13.84, 0.000, 0.000, 0.000, 15:41:12.486
10, 217.39, 10.60, 5.02, 8.19, 0.000, 0.000, 0.000, 15:41:12.486
11, -201.10, 9.03, 12.37, 10.28, 0.000, 0.000, 0.000, 15:41:12.508
12, 66.65, 11.97, 12.98, 8.74, 0.000, 0.000, 0.000, 15:41:12.509
13, 34.18, 4.70, 10.97, 11.19, 0.000, 0.000, 0.000, 15:41:12.509
14, -358.42, 9.11, 6.01, 8.99, 0.000, 0.000, 0.000, 15:41:12.509
15, -373.65, 5.47, 13.76, 15.03, 0.000, 0.000, 0.000, 15:41:12.529
16, 448.69, 4.01, 13.99, 10.70, 0.000, 0.000, 0.000, 15:41:12.530
17, -251.61, 13.18, 7.21, 8.63, 0.000, 0.000, 0.000, 15:41:12.530
18, -317.54, 7.43, 15.93, 12.18, 0.000, 0.000, 0.000, 15:41:12.530
19, 340.27, 6.53, 13.48, 15.13, 0.000, 0.000, 0.000, 15:41:12.531
20, 35.36, 11.48, 4.80, 8.20, 0.000, 0.000, 0.000, 15:41:12.531
21, -170.88, 12.90, 11.43, 13.47, 0.000, 0.000, 0.000, 15:41:12.552
22, 68.11, 2.74, 12.63, 11.49, 0.000, 0.000, 0.000, 15:41:12.552
23, 92.10, 9.23, 15.11, 12.36, 0.000, 0.000, 0.000, 15:41:12.553
24, -484.87, 12.29, 10.77, 13.79, 0.000, 0.000, 0.000, 15:41:12.553
25, -226.60, 4.17, 14.20, 17.15, 0.000, 0.000, 0.000, 15:41:12.575
26, 455.08, 5.09, 10.22, 17.16, 0.000, 0.000, 0.000, 15:41:12.575
27, -116.48, 12.64, 1.66, 6.32, 0.000, 0.000, 0.000, 15:41:12.576
28, -171.59, 6.34, 14.57, 12.08, 0.000, 0.000, 0.000, 15:41:12.577
29, 155.21, 8.88, 13.52, 11.25, 0.000, 0.000, 0.000, 15:41:12.597
30, -106.26, 16.35, 3.35, 10.55, 0.000, 0.000, 0.000, 15:41:12.597
31, -555.66, 0.74, 12.92, 15.80, 0.000, 0.000, 0.000, 15:41:12.598
32, 280.96, 5.08, 14.66, 15.70, 0.000, 0.000, 0.000, 15:41:12.598
33, 239.98, 10.19, 9.56, 9.52, 0.000, 0.000, 0.000, 15:41:12.619
34, -307.90, 16.14, 8.03, 7.49, 0.000, 0.000, 0.000, 15:41:12.620
35, -119.50, 2.98, 17.28, 16.77, 0.000, 0.000, 0.000, 15:41:12.620
36, 346.48, 6.61, 12.60, 11.83, 0.000, 0.000, 0.000, 15:41:12.620
37, -254.63, 14.41, 6.30, 3.97, 0.000, 0.000, 0.000, 15:41:12.621
38, -329.65, 7.59, 13.33, 15.87, 0.000, 0.000, 0.000, 15:41:12.621
39, 306.83, 11.75, 11.37, 11.23, 0.000, 0.000, 0.000, 15:41:12.642
40, 72.59, 8.71, 7.75, 8.13, 0.000, 0.000, 0.000, 15:41:12.642
41, -471.44, 5.37, 13.41, 9.78, 0.000, 0.000, 0.000, 15:41:12.642
42, 147.45, 2.67, 17.39, 15.00, 0.000, 0.000, 0.000, 15:41:12.643
43, 288.79, 10.54, 15.14, 13.98, 0.000, 0.000, 0.000, 15:41:12.665
44, -415.37, 12.83, 11.93, 10.43, 0.000, 0.000, 0.000, 15:41:12.665
45, -118.75, 4.04, 12.68, 11.10, 0.000, 0.000, 0.000, 15:41:12.665
46, 371.45, 9.47, 12.21, 10.15, 0.000, 0.000, 0.000, 15:41:12.665
47, -229.76, 11.85, 6.96, 3.70, 0.000, 0.000, 0.000, 15:41:12.687
48, -333.45, 9.49, 12.24, 14.67, 0.000, 0.000, 0.000, 15:41:12.687
49, 301.22, -0.48, 12.89, 14.77, 0.000, 0.000, 0.000, 15:41:12.687
50, 76.38, 12.81, 7.16, 6.10, 0.000, 0.000, 0.000, 15:41:12.688
51, -478.19, 10.05, 11.44, 13.42, 0.000, 0.000, 0.000, 15:41:12.711
52, 155.99, 7.46, 12.55, 15.82, 0.000, 0.000, 0.000, 15:41:12.711
53, 288.17, 8.26, 10.11, 13.32, 0.000, 0.000, 0.000, 15:41:12.711
54, -421.68, 14.71, 8.55, 10.10, 0.000, 0.000, 0.000, 15:41:12.711
55, -111.04, 4.63, 14.35, 14.53, 0.000, 0.000, 0.000, 15:41:12.712
56, 378.89, 4.16, 10.33, 14.83, 0.000, 0.000, 0.000, 15:41:12.712
57, -219.20, 17.34, 5.87, 7.33, 0.000, 0.000, 0.000, 15:41:12.732
58, -348.78, 0.84, 14.72, 17.64, 0.000, 0.000, 0.000, 15:41:12.732
59, 303.75, 7.42, 11.98, 17.36, 0.000, 0.000, 0.000, 15:41:12.733
60, 88.00, 14.10, 5.27, 9.87, 0.000, 0.000, 0.000, 15:41:12.733
61, -476.68, 7.78, 12.63, 14.38, 0.000, 0.000, 0.000, 15:41:12.754
62, 143.00, 2.59, 13.27, 13.97, 0.000, 0.000, 0.000, 15:41:12.755
63, 297.69, 14.74, 5.23, 13.42, 0.000, 0.000, 0.000, 15:41:12.755
64, -425.90, 15.60, 7.02, 8.46, 0.000, 0.000, 0.000, 15:41:12.755
65, -140.25, 5.98, 19.34, 13.66, 0.000, 0.000, 0.000, 15:41:12.777
66, 388.81, 16.07, 13.63, 9.16, 0.000, 0.000, 0.000, 15:41:12.778
67, -220.90, 7.15, 2.41, 5.99, 0.000, 0.000, 0.000, 15:41:12.778
68, -325.13, 4.42, 15.18, 14.07, 0.000, 0.000, 0.000, 15:41:12.779
69, 295.19, 4.62, 11.87, 20.60, 0.000, 0.000, 0.000, 15:41:12.802
70, 52.09, 14.72, 10.67, 7.86, 0.000, 0.000, 0.000, 15:41:12.802
71, -449.01, 7.28, 13.15, 11.96, 0.000, 0.000, 0.000, 15:41:12.802
72, 162.21, 6.62, 8.95, 13.99, 0.000, 0.000, 0.000, 15:41:12.803
73, 294.17, 10.67, 10.51, 14.60, 0.000, 0.000, 0.000, 15:41:12.803
74, -411.84, 8.47, 7.54, 10.74, 0.000, 0.000, 0.000, 15:41:12.803
75, -124.56, 7.60, 16.56, 18.26, 0.000, 0.000, 0.000, 15:41:12.823
76, 373.18, 3.59, 15.89, 13.99, 0.000, 0.000, 0.000, 15:41:12.823
77, -217.96, 12.88, 6.10, 10.06, 0.000, 0.000, 0.000, 15:41:12.823
78, -348.67, 7.86, 14.34, 16.62, 0.000, 0.000, 0.000, 15:41:12.824
79, 307.94, 6.03, 12.24, 10.11, 0.000, 0.000, 0.000, 15:41:12.845
80, 85.37, 9.26, 7.79, 9.88, 0.000, 0.000, 0.000, 15:41:12.846
81, -474.01, 9.79, 12.18, 9.94, 0.000, 0.000, 0.000, 15:41:12.846
82, 140.52, 1.91, 12.23, 14.71, 0.000, 0.000, 0.000, 15:41:12.846
83, 286.02, 8.76, 7.84, 10.11, 0.000, 0.000, 0.000, 15:41:12.867
84, -423.33, 14.76, 11.76, 7.78, 0.000, 0.000, 0.000, 15:41:12.867
85, -131.08, -1.85, 13.00, 11.86, 0.000, 0.000, 0.000, 15:41:12.867
86, 371.55, 5.35, 10.47, 10.26, 0.000, 0.000, 0.000, 15:41:12.867
87, -235.26, 15.33, 3.40, 7.27, 0.000, 0.000, 0.000, 15:41:12.889
88, -351.36, 4.45, 16.23, 13.24, 0.000, 0.000, 0.000, 15:41:12.889
89, 302.27, 5.49, 10.90, 11.87, 0.000, 0.000, 0.000, 15:41:12.890
90, 84.98, 8.91, 7.31, 7.63, 0.000, 0.000, 0.000, 15:41:12.890
91, -481.41, 9.38, 13.70, 15.40, 0.000, 0.000, 0.000, 15:41:12.890
92, 134.51, 6.92, 14.52, 17.31, 0.000, 0.000, 0.000, 15:41:12.890
93, 284.01, 9.85, 10.60, 14.14, 0.000, 0.000, 0.000, 15:41:12.912
94, -425.37, 8.52, 6.57, 6.86, 0.000, 0.000, 0.000, 15:41:12.912
95, -140.53, 1.43, 16.37, 15.04, 0.000, 0.000, 0.000, 15:41:12.912
96, 362.58, 9.70, 13.38, 10.57, 0.000, 0.000, 0.000, 15:41:12.912
97, -214.82, 7.94, 2.58, 9.00, 0.000, 0.000, 0.000, 15:41:12.934
98, -369.17, -1.95, 16.68, 12.03, 0.000, 0.000, 0.000, 15:41:12.934
99, 290.83, 6.34, 12.29, 13.88, 0.000, 0.000, 0.000, 15:41:12.935
100, 84.64, 11.84, 10.71, 4.44, 0.000, 0.000, 0.000, 15:41:12.935
101, -485.49, 10.00, 10.10, 10.66, 0.000, 0.000, 0.000, 15:41:12.957
102, 133.89, 9.64, 15.23, 13.19, 0.000, 0.000, 0.000, 15:41:12.957
103, 282.18, 2.99, 12.69, 11.86, 0.000, 0.000, 0.000, 15:41:12.958
104, -426.18, 10.53, 8.47, 12.89, 0.000, 0.000, 0.000, 15:41:12.958
105, -125.54, 5.18, 14.24, 16.63, 0.000, 0.000, 0.000, 15:41:12.979
106, 368.74, 7.29, 10.42, 13.17, 0.000, 0.000, 0.000, 15:41:12.979
107, -211.46, 14.22, 6.26, 10.09, 0.000, 0.000, 0.000, 15:41:12.980
108, -342.43, 4.13, 15.89, 13.09, 0.000, 0.000, 0.000, 15:41:12.980
109, 313.92, 9.42, 11.11, 11.98, 0.000, 0.000, 0.000, 15:41:12.981
110, 117.87, 10.72, 8.86, 6.93, 0.000, 0.000, 0.000, 15:41:12.981
111, -444.27, 9.61, 13.22, 12.89, 0.000, 0.000, 0.000, 15:41:13.002
112, 134.76, 0.21, 13.51, 13.01, 0.000, 0.000, 0.000, 15:41:13.002
113, 296.99, 12.07, 5.88, 9.34, 0.000, 0.000, 0.000, 15:41:13.002
114, -411.58, 11.78, 4.53, 7.96, 0.000, 0.000, 0.000, 15:41:13.003
115, -157.71, 6.81, 12.79, 16.24, 0.000, 0.000, 0.000, 15:41:13.024
116, 345.87, 7.21, 11.75, 12.21, 0.000, 0.000, 0.000, 15:41:13.025
117, -236.19, 14.56, 4.51, 6.88, 0.000, 0.000, 0.000, 15:41:13.025
118, -386.57, 4.00, 18.35, 18.60, 0.000, 0.000, 0.000, 15:41:13.025
119, 264.15, 8.89, 13.10, 13.93, 0.000, 0.000, 0.000, 15:41:13.047
120, 81.51, 13.15, 6.71, 6.56, 0.000, 0.000, 0.000, 15:41:13.047
121, -485.86, 5.51, 14.17, 14.43, 0.000, 0.000, 0.000, 15:41:13.048
122, 131.21, 2.04, 15.95, 14.79, 0.000, 0.000, 0.000, 15:41:13.048
123, 297.59, 7.98, 9.23, 12.76, 0.000, 0.000, 0.000, 15:41:13.069
124, -401.90, 12.63, 8.05, 8.09, 0.000, 0.000, 0.000, 15:41:13.070
125, -133.75, 2.23, 14.42, 13.91, 0.000, 0.000, 0.000, 15:41:13.070
126, 371.35, 10.09, 9.53, 13.60, 0.000, 0.000, 0.000, 15:41:13.070
127, -204.07, 9.94, 6.41, 5.73, 0.000, 0.000, 0.000, 15:41:13.070
128, -359.42, 5.74, 13.61, 13.93, 0.000, 0.000, 0.000, 15:41:13.071
129, 284.78, 7.64, 7.98, 15.35, 0.000, 0.000, 0.000, 15:41:13.092
130, 99.50, 13.27, 7.30, 8.47, 0.000, 0.000, 0.000, 15:41:13.092
131, -481.88, 5.54, 10.70, 14.95, 0.000, 0.000, 0.000, 15:41:13.092
132, 139.33, 5.76, 15.01, 16.38, 0.000, 0.000, 0.000, 15:41:13.093
133, 300.77, 5.68, 7.65, 9.72, 0.000, 0.000, 0.000, 15:41:13.114
134, -402.10, 9.83, 6.29, 11.66, 0.000, 0.000, 0.000, 15:41:13.115
135, -133.47, 9.52, 14.68, 15.78, 0.000, 0.000, 0.000, 15:41:13.115
136, 383.12, 8.98, 13.35, 12.59, 0.000, 0.000, 0.000, 15:41:13.115
137, -201.75, 10.74, 6.28, 3.25, 0.000, 0.000, 0.000, 15:41:13.138
138, -357.57, 11.34, 16.37, 14.84, 0.000, 0.000, 0.000, 15:41:13.138
139, 299.13, 1.31, 12.62, 17.84, 0.000, 0.000, 0.000, 15:41:13.138
140, 97.30, 12.50, 5.25, 9.15, 0.000, 0.000, 0.000, 15:41:13.139
141, -476.31, 9.33, 13.03, 11.79, 0.000, 0.000, 0.000, 15:41:13.159
142, 134.00, 6.22, 15.84, 13.58, 0.000, 0.000, 0.000, 15:41:13.160
143, 307.11, 9.63, 10.71, 11.85, 0.000, 0.000, 0.000, 15:41:13.160
144, -404.24, 12.62, 7.38, 5.15, 0.000, 0.000, 0.000, 15:41:13.160
145, -140.45, 5.72, 16.09, 9.22, 0.000, 0.000, 0.000, 15:41:13.160
146, 371.24, 5.66, 13.29, 12.90, 0.000, 0.000, 0.000, 15:41:13.161
147, -202.01, 17.29, 6.17, 9.83, 0.000, 0.000, 0.000, 15:41:13.182
148, -367.52, 5.07, 15.35, 16.77, 0.000, 0.000, 0.000, 15:41:13.182
149, 287.57, 6.59, 12.47, 11.15, 0.000, 0.000, 0.000, 15:41:13.183
150, 113.27, 13.86, 7.25, 9.70, 0.000, 0.000, 0.000, 15:41:13.183
151, -456.51, 10.38, 14.30, 10.43, 0.000, 0.000, 0.000, 15:41:13.204
152, 134.81, 7.21, 13.28, 16.66, 0.000, 0.000, 0.000, 15:41:13.205
153, 310.73, 13.46, 11.92, 11.89, 0.000, 0.000, 0.000, 15:41:13.205
154, -402.95, 11.95, 7.80, 11.26, 0.000, 0.000, 0.000, 15:41:13.205
155, -138.28, 7.56, 14.34, 13.54, 0.000, 0.000, 0.000, 15:41:13.227
156, 376.92, 12.86, 13.38, 10.85, 0.000, 0.000, 0.000, 15:41:13.227
157, -201.77, 8.88, 4.44, 9.44, 0.000, 0.000, 0.000, 15:41:13.228
158, -360.37, 2.50, 14.45, 18.37, 0.000, 0.000, 0.000, 15:41:13.228
159, 307.73, 5.28, 8.05, 13.98, 0.000, 0.000, 0.000, 15:41:13.249
160, 115.35, 15.90, 6.54, 7.69, 0.000, 0.000, 0.000, 15:41:13.249
161, -471.02, 5.02, 11.13, 13.01, 0.000, 0.000, 0.000, 15:41:13.250
162, 129.05, 5.55, 13.42, 12.98, 0.000, 0.000, 0.000, 15:41:13.250
163, 308.00, 8.48, 6.74, 10.22, 0.000, 0.000, 0.000, 15:41:13.251
164, -408.02, 14.14, 8.68, 9.03, 0.000, 0.000, 0.000, 15:41:13.251
165, -145.91, 7.69, 13.14, 10.57, 0.000, 0.000, 0.000, 15:41:13.272
166, 373.95, 5.50, 15.00, 11.58, 0.000, 0.000, 0.000, 15:41:13.272
167, -206.32, 16.06, 6.22, 7.89, 0.000, 0.000, 0.000, 15:41:13.272
168, -374.89, 5.01, 13.03, 15.00, 0.000, 0.000, 0.000, 15:41:13.272
169, 296.29, 6.32, 12.47, 14.76, 0.000, 0.000, 0.000, 15:41:13.294
170, 108.96, 10.48, 10.57, 6.92, 0.000, 0.000, 0.000, 15:41:13.295
171, -486.92, 6.15, 13.17, 12.68, 0.000, 0.000, 0.000, 15:41:13.296
172, 111.03, 3.62, 16.14, 17.71, 0.000, 0.000, 0.000, 15:41:13.296
173, 294.95, 9.65, 13.48, 8.61, 0.000, 0.000, 0.000, 15:41:13.317
174, -415.28, 22.51, 7.68, 7.62, 0.000, 0.000, 0.000, 15:41:13.317
175, -155.83, -3.60, 17.46, 14.64, 0.000, 0.000, 0.000, 15:41:13.317
176, 365.09, 3.97, 10.89, 13.94, 0.000, 0.000, 0.000, 15:41:13.318
177, -200.14, 14.27, 4.27, 8.53, 0.000, 0.000, 0.000, 15:41:13.339
178, -381.16, 3.41, 12.87, 18.04, 0.000, 0.000, 0.000, 15:41:13.340
179, 274.95, 6.21, 14.44, 14.55, 0.000, 0.000, 0.000, 15:41:13.340
180, 104.16, 8.89, 5.38, 7.75, 0.000, 0.000, 0.000, 15:41:13.340
181, -486.44, 7.53, 8.37, 6.59, 0.000, 0.000, 0.000, 15:41:13.341
182, 111.29, -0.51, 13.99, 11.28, 0.000, 0.000, 0.000, 15:41:13.341
183, 305.06, 10.67, 10.21, 10.59, 0.000, 0.000, 0.000, 15:41:13.362
184, -414.91, 11.96, 5.21, 7.46, 0.000, 0.000, 0.000, 15:41:13.362
185, -162.55, 5.95, 12.29, 13.90, 0.000, 0.000, 0.000, 15:41:13.363
186, 369.22, 7.31, 12.73, 14.86, 0.000, 0.000, 0.000, 15:41:13.363
187, -209.32, 8.64, 3.37, 8.04, 0.000, 0.000, 0.000, 15:41:13.384
188, -361.50, 6.48, 17.44, 16.27, 0.000, 0.000, 0.000, 15:41:13.384
189, 291.97, 6.65, 14.17, 14.38, 0.000, 0.000, 0.000, 15:41:13.385
190, 107.96, 6.78, 5.39, 7.63, 0.000, 0.000, 0.000, 15:41:13.385
191, -490.66, 7.79, 10.17, 9.39, 0.000, 0.000, 0.000, 15:41:13.407
192, 114.76, 13.51, 13.36, 14.29, 0.000, 0.000, 0.000, 15:41:13.407
193, 304.93, 1.13, 7.81, 8.82, 0.000, 0.000, 0.000, 15:41:13.407
194, -409.86, 15.63, 6.70, 7.64, 0.000, 0.000, 0.000, 15:41:13.407
195, -154.86, 3.75, 16.49, 14.03, 0.000, 0.000, 0.000, 15:41:13.429
196, 373.56, 7.12, 15.48, 12.43, 0.000, 0.000, 0.000, 15:41:13.429
197, -194.53, 3.13, 5.75, 10.41, 0.000, 0.000, 0.000, 15:41:13.430
198, -379.12, 7.75, 19.29, 19.02, 0.000, 0.000, 0.000, 15:41:13.430
199, 289.50, 8.25, 12.43, 13.85, 0.000, 0.000, 0.000, 15:41:13.430
200, 110.19, 8.82, 6.77, 8.28, 0.000, 0.000, 0.000, 15:41:13.430
0, -485.10, 12.38, 11.02, 11.76, 0.000, 0.000, 0.000, 15:41:13.452
1, 115.23, 3.42, 13.17, 18.21, 0.000, 0.000, 0.000, 15:41:13.452
2, 305.06, 7.21, 6.09, 9.10, 0.000, 0.000, 0.000, 15:41:13.453
3, -406.29, 10.75, 8.86, 11.81, 0.000, 0.000, 0.000, 15:41:13.474
4, -154.40, 11.34, 14.33, 16.50, 0.000, 0.000, 0.000, 15:41:13.474
5, 372.03, 7.48, 13.00, 14.69, 0.000, 0.000, 0.000, 15:41:13.475
6, -188.18, 15.14, 6.47, 6.71, 0.000, 0.000, 0.000, 15:41:13.475
7, -375.74, 5.05, 16.26, 13.25, 0.000, 0.000, 0.000, 15:41:13.475
8, 287.15, 7.27, 12.34, 17.17, 0.000, 0.000, 0.000, 15:41:13.476
9, 113.52, 14.94, 3.57, 6.09, 0.000, 0.000, 0.000, 15:41:13.497
10, -485.52, 4.82, 10.29, 11.36, 0.000, 0.000, 0.000, 15:41:13.497
11, 111.35, 2.00, 14.74, 14.79, 0.000, 0.000, 0.000, 15:41:13.498
12, 311.07, 7.89, 10.24, 10.88, 0.000, 0.000, 0.000, 15:41:13.498
13, -406.94, 15.39, 10.37, 11.12, 0.000, 0.000, 0.000, 15:41:13.519
14, -162.94, 5.02, 14.44, 11.94, 0.000, 0.000, 0.000, 15:41:13.519
15, 371.75, 10.86, 14.05, 14.12, 0.000, 0.000, 0.000, 15:41:13.520
16, -187.08, 15.59, -0.13, 3.62, 0.000, 0.000, 0.000, 15:41:13.520
17, -379.21, 3.41, 13.76, 14.78, 0.000, 0.000, 0.000, 15:41:13.541
18, 285.26, 13.50, 10.66, 15.46, 0.000, 0.000, 0.000, 15:41:13.542
19, 118.68, 7.45, 9.07, 7.17, 0.000, 0.000, 0.000, 15:41:13.542
20, -494.24, 9.42, 9.68, 9.76, 0.000, 0.000, 0.000, 15:41:13.542
21, 104.92, 3.39, 9.76, 15.19, 0.000, 0.000, 0.000, 15:41:13.564
22, 319.68, 10.89, 14.83, 13.10, 0.000, 0.000, 0.000, 15:41:13.564
23, -403.35, 9.62, 8.47, 8.55, 0.000, 0.000, 0.000, 15:41:13.565
24, -152.33, 5.20, 14.74, 12.95, 0.000, 0.000, 0.000, 15:41:13.565
25, 368.58, 6.51, 15.74, 14.94, 0.000, 0.000, 0.000, 15:41:13.565
26, -185.51, 13.40, 1.31, 7.81, 0.000, 0.000, 0.000, 15:41:13.566
27, -375.27, 7.29, 15.14, 16.13, 0.000, 0.000, 0.000, 15:41:13.587
28, 287.27, 6.88, 11.98, 16.23, 0.000, 0.000, 0.000, 15:41:13.587
29, 115.37, 6.98, 9.06, 6.82, 0.000, 0.000, 0.000, 15:41:13.587
30, -483.92, 7.95, 13.73, 15.18, 0.000, 0.000, 0.000, 15:41:13.587
31, 104.63, 3.20, 18.13, 12.78, 0.000, 0.000, 0.000, 15:41:13.609
32, 314.76, 7.55, 10.29, 13.71, 0.000, 0.000, 0.000, 15:41:13.611
33, -403.34, 13.15, 7.56, 9.42, 0.000, 0.000, 0.000, 15:41:13.611
34, -163.16, 5.43, 16.12, 10.73, 0.000, 0.000, 0.000, 15:41:13.612
35, 370.72, 7.05, 15.49, 16.82, 0.000, 0.000, 0.000, 15:41:13.632
36, -178.93, 16.86, 4.41, 7.90, 0.000, 0.000, 0.000, 15:41:13.632
37, -383.86, -1.91, 12.10, 15.62, 0.000, 0.000, 0.000, 15:41:13.632
38, 281.29, 7.98, 12.60, 9.89, 0.000, 0.000, 0.000, 15:41:13.632
39, 123.97, 13.04, 6.05, 9.47, 0.000, 0.000, 0.000, 15:41:13.654
40, -484.83, 9.27, 11.99, 11.51, 0.000, 0.000, 0.000, 15:41:13.655
41, 102.01, -0.27, 15.46, 15.50, 0.000, 0.000, 0.000, 15:41:13.655
42, 306.28, 9.94, 9.62, 8.87, 0.000, 0.000, 0.000, 15:41:13.655
43, -391.78, 14.29, 8.62, 9.68, 0.000, 0.000, 0.000, 15:41:13.655
44, -165.95, 5.58, 19.04, 15.27, 0.000, 0.000, 0.000, 15:41:13.656
45, 370.84, 10.80, 11.36, 13.43, 0.000, 0.000, 0.000, 15:41:13.677
46, -170.77, 12.96, 3.83, 6.25, 0.000, 0.000, 0.000, 15:41:13.677
47, -382.25, 4.43, 13.87, 17.62, 0.000, 0.000, 0.000, 15:41:13.677
48, 283.53, 8.51, 13.65, 12.41, 0.000, 0.000, 0.000, 15:41:13.677
49, 120.73, 13.98, 7.41, 8.67, 0.000, 0.000, 0.000, 15:41:13.699
50, -488.41, 4.93, 9.83, 12.07, 0.000, 0.000, 0.000, 15:41:13.699
51, 102.98, 7.95, 15.29, 18.72, 0.000, 0.000, 0.000, 15:41:13.700
52, 313.62, 11.95, 8.49, 8.51, 0.000, 0.000, 0.000, 15:41:13.700
53, -400.63, 12.34, 10.19, 10.19, 0.000, 0.000, 0.000, 15:41:13.722
54, -169.14, 9.76, 14.20, 14.33, 0.000, 0.000, 0.000, 15:41:13.722
55, 372.29, 4.62, 9.27, 14.60, 0.000, 0.000, 0.000, 15:41:13.722
56, -174.56, 15.05, 0.26, 3.16, 0.000, 0.000, 0.000, 15:41:13.722
57, -388.43, 2.16, 15.96, 13.62, 0.000, 0.000, 0.000, 15:41:13.744
58, 284.71, 5.37, 14.13, 13.02, 0.000, 0.000, 0.000, 15:41:13.745
59, 124.72, 11.34, 8.67, 10.84, 0.000, 0.000, 0.000, 15:41:13.745
60, -482.42, 9.68, 12.59, 13.94, 0.000, 0.000, 0.000, 15:41:13.745
61, 106.73, 1.45, 18.86, 12.79, 0.000, 0.000, 0.000, 15:41:13.745
62, 316.60, 11.58, 9.89, 12.58, 0.000, 0.000, 0.000, 15:41:13.745
63, -398.12, 11.38, 6.10, 9.14, 0.000, 0.000, 0.000, 15:41:13.767
64, -169.83, 1.84, 15.34, 14.54, 0.000, 0.000, 0.000, 15:41:13.767
65, 370.56, 9.35, 14.16, 11.92, 0.000, 0.000, 0.000, 15:41:13.768
66, -168.75, 15.02, 6.94, 7.82, 0.000, 0.000, 0.000, 15:41:13.768
67, -383.48, 6.75, 12.11, 13.63, 0.000, 0.000, 0.000, 15:41:13.789
68, 280.18, 5.07, 12.48, 16.63, 0.000, 0.000, 0.000, 15:41:13.790
69, 135.06, 14.67, 9.95, 8.87, 0.000, 0.000, 0.000, 15:41:13.790
70, -481.61, 7.20, 11.27, 13.91, 0.000, 0.000, 0.000, 15:41:13.790
71, 102.63, 1.23, 16.61, 13.43, 0.000, 0.000, 0.000, 15:41:13.813
72, 322.91, 12.84, 6.66, 11.16, 0.000, 0.000, 0.000, 15:41:13.813
73, -396.60, 6.91, 5.52, 8.65, 0.000, 0.000, 0.000, 15:41:13.814
74, -169.26, -0.14, 13.09, 16.31, 0.000, 0.000, 0.000, 15:41:13.814
75, 373.23, 7.67, 14.07, 10.10, 0.000, 0.000, 0.000, 15:41:13.834
76, -166.32, 12.13, 4.30, 6.37, 0.000, 0.000, 0.000, 15:41:13.834
77, -391.32, 6.74, 14.97, 16.37, 0.000, 0.000, 0.000, 15:41:13.835
78, 281.87, 10.28, 10.99, 14.16, 0.000, 0.000, 0.000, 15:41:13.835
79, 125.86, 15.45, 8.84, 9.38, 0.000, 0.000, 0.000, 15:41:13.836
80, -491.99, 7.21, 11.30, 9.97, 0.000, 0.000, 0.000, 15:41:13.836
81, 101.25, 5.49, 14.22, 15.08, 0.000, 0.000, 0.000, 15:41:13.857
82, 317.89, 6.38, 7.13, 12.37, 0.000, 0.000, 0.000, 15:41:13.857
83, -401.19, 15.18, 9.07, 9.61, 0.000, 0.000, 0.000, 15:41:13.857
84, -172.17, 1.76, 14.65, 14.83, 0.000, 0.000, 0.000, 15:41:13.857
85, 376.73, 4.42, 8.94, 11.16, 0.000, 0.000, 0.000, 15:41:13.880
86, -174.06, 11.92, 7.39, 8.63, 0.000, 0.000, 0.000, 15:41:13.880
87, -397.23, 1.69, 11.98, 15.91, 0.000, 0.000, 0.000, 15:41:13.880
88, 278.97, 4.53, 13.93, 11.95, 0.000, 0.000, 0.000, 15:41:13.880
89, 123.16, 12.94, 6.27, 6.58, 0.000, 0.000, 0.000, 15:41:13.901
90, -496.95, 16.23, 13.16, 10.39, 0.000, 0.000, 0.000, 15:41:13.902
91, 90.23, 1.84, 18.22, 15.44, 0.000, 0.000, 0.000, 15:41:13.902
92, 333.29, 10.80, 9.38, 15.17, 0.000, 0.000, 0.000, 15:41:13.902
93, -395.20, 9.76, 6.70, 9.35, 0.000, 0.000, 0.000, 15:41:13.924
94, -168.92, 5.79, 15.04, 16.42, 0.000, 0.000, 0.000, 15:41:13.924
95, 377.50, 7.71, 10.89, 10.88, 0.000, 0.000, 0.000, 15:41:13.925
96, -176.47, 15.57, 1.55, 3.33, 0.000, 0.000, 0.000, 15:41:13.925
97, -397.08, 3.46, 13.98, 15.00, 0.000, 0.000, 0.000, 15:41:13.926
98, 287.67, 6.75, 11.32, 12.03, 0.000, 0.000, 0.000, 15:41:13.926
99, 128.08, 17.44, 9.78, 10.91, 0.000, 0.000, 0.000, 15:41:13.947
100, -484.50, 6.93, 9.25, 12.37, 0.000, 0.000, 0.000, 15:41:13.948
101, 103.03, 3.08, 12.68, 16.28, 0.000, 0.000, 0.000, 15:41:13.948
102, 331.67, 8.61, 9.29, 10.64, 0.000, 0.000, 0.000, 15:41:13.948
103, -375.81, 13.04, 8.37, 9.57, 0.000, 0.000, 0.000, 15:41:13.970
104, -138.44, 4.26, 17.21, 19.83, 0.000, 0.000, 0.000, 15:41:13.970
105, 405.71, 7.20, 12.74, 9.76, 0.000, 0.000, 0.000, 15:41:13.970
106, -149.59, 16.74, 2.00, 7.72, 0.000, 0.000, 0.000, 15:41:13.970
107, -378.06, 3.97, 16.06, 14.55, 0.000, 0.000, 0.000, 15:41:13.992
108, 267.20, 6.02, 15.24, 14.77, 0.000, 0.000, 0.000, 15:41:13.992
109, 106.01, 7.80, 7.62, 10.47, 0.000, 0.000, 0.000, 15:41:13.992
110, -514.70, 8.98, 12.34, 6.32, 0.000, 0.000, 0.000, 15:41:13.993
111, 75.16, 0.48, 16.68, 17.61, 0.000, 0.000, 0.000, 15:41:14.016
112, 294.91, 5.23, 8.52, 12.85, 0.000, 0.000, 0.000, 15:41:14.016
113, -419.31, 16.23, 11.22, 11.69, 0.000, 0.000, 0.000, 15:41:14.017
114, -185.11, 6.48, 14.02, 15.09, 0.000, 0.000, 0.000, 15:41:14.017
115, 369.08, 9.98, 10.97, 14.25, 0.000, 0.000, 0.000, 15:41:14.017
116, -167.57, 15.97, 3.26, 6.53, 0.000, 0.000, 0.000, 15:41:14.017
117, -393.77, 7.96, 12.08, 14.04, 0.000, 0.000, 0.000, 15:41:14.037
118, 286.06, 4.17, 11.04, 10.84, 0.000, 0.000, 0.000, 15:41:14.037
119, 132.82, 19.22, 8.51, 6.47, 0.000, 0.000, 0.000, 15:41:14.037
120, -484.51, 7.23, 8.17, 12.06, 0.000, 0.000, 0.000, 15:41:14.037
121, 102.41, 3.78, 15.26, 15.68, 0.000, 0.000, 0.000, 15:41:14.059
122, 326.76, 7.91, 6.79, 11.50, 0.000, 0.000, 0.000, 15:41:14.060
123, -391.31, 13.99, 5.95, 8.41, 0.000, 0.000, 0.000, 15:41:14.060
124, -175.38, 2.88, 16.66, 15.56, 0.000, 0.000, 0.000, 15:41:14.060
125, 382.20, 6.17, 9.65, 13.65, 0.000, 0.000, 0.000, 15:41:14.082
126, -161.99, 18.85, 7.34, 6.36, 0.000, 0.000, 0.000, 15:41:14.082
127, -387.71, 2.54, 13.38, 15.96, 0.000, 0.000, 0.000, 15:41:14.083
128, 278.21, 6.55, 18.07, 16.60, 0.000, 0.000, 0.000, 15:41:14.083
129, 139.31, 8.07, 11.71, 10.40, 0.000, 0.000, 0.000, 15:41:14.104
130, -491.79, 10.46, 11.74, 8.86, 0.000, 0.000, 0.000, 15:41:14.104
131, 99.79, 1.07, 15.23, 15.83, 0.000, 0.000, 0.000, 15:41:14.105
132, 328.22, 7.57, 7.07, 8.38, 0.000, 0.000, 0.000, 15:41:14.105
133, -398.17, 10.80, 10.41, 8.13, 0.000, 0.000, 0.000, 15:41:14.106
134, -180.17, 3.28, 14.90, 15.21, 0.000, 0.000, 0.000, 15:41:14.106
135, 394.13, 6.74, 13.47, 16.08, 0.000, 0.000, 0.000, 15:41:14.127
136, -156.18, 10.60, 3.32, 6.32, 0.000, 0.000, 0.000, 15:41:14.127
137, -390.94, 6.37, 18.37, 9.93, 0.000, 0.000, 0.000, 15:41:14.128
138, 284.28, 6.58, 11.57, 17.82, 0.000, 0.000, 0.000, 15:41:14.129
139, 142.26, 11.90, 8.92, 10.26, 0.000, 0.000, 0.000, 15:41:14.149
140, -480.96, 11.94, 9.33, 9.36, 0.000, 0.000, 0.000, 15:41:14.150
141, 98.00, -1.79, 14.38, 11.57, 0.000, 0.000, 0.000, 15:41:14.151
142, 328.91, 9.84, 9.75, 11.90, 0.000, 0.000, 0.000, 15:41:14.151
143, -388.88, 13.04, 6.85, 10.72, 0.000, 0.000, 0.000, 15:41:14.172
144, -172.01, 10.17, 12.28, 10.81, 0.000, 0.000, 0.000, 15:41:14.172
145, 381.54, 0.16, 10.37, 14.97, 0.000, 0.000, 0.000, 15:41:14.173
146, -154.21, 12.05, 4.70, 9.71, 0.000, 0.000, 0.000, 15:41:14.173
147, -391.87, 6.10, 13.13, 14.48, 0.000, 0.000, 0.000, 15:41:14.194
148, 283.35, 7.43, 15.05, 11.25, 0.000, 0.000, 0.000, 15:41:14.194
149, 143.71, 13.38, 6.68, 10.04, 0.000, 0.000, 0.000, 15:41:14.195
150, -481.14, 8.27, 11.07, 13.34, 0.000, 0.000, 0.000, 15:41:14.195
151, 96.59, 3.04, 11.24, 15.41, 0.000, 0.000, 0.000, 15:41:14.195
152, 333.10, 10.97, 8.37, 8.58, 0.000, 0.000, 0.000, 15:41:14.196
153, -388.10, 12.58, 8.18, 9.62, 0.000, 0.000, 0.000, 15:41:14.217
154, -172.29, 5.03, 13.42, 15.16, 0.000, 0.000, 0.000, 15:41:14.217
155, 380.15, 8.60, 14.05, 13.75, 0.000, 0.000, 0.000, 15:41:14.218
156, -148.44, 12.98, 11.42, 8.70, 0.000, 0.000, 0.000, 15:41:14.218
157, -392.71, 9.29, 15.79, 16.74, 0.000, 0.000, 0.000, 15:41:14.239
158, 281.50, 8.88, 12.07, 10.57, 0.000, 0.000, 0.000, 15:41:14.239
159, 141.82, 16.07, 12.29, 8.83, 0.000, 0.000, 0.000, 15:41:14.240
160, -485.56, 9.71, 12.93, 13.26, 0.000, 0.000, 0.000, 15:41:14.240
161, 88.04, 6.89, 14.79, 15.80, 0.000, 0.000, 0.000, 15:41:14.262
162, 324.28, 15.37, 7.04, 8.43, 0.000, 0.000, 0.000, 15:41:14.262
163, -396.15, 6.84, 9.26, 9.53, 0.000, 0.000, 0.000, 15:41:14.263
164, -185.08, 7.16, 14.13, 17.19, 0.000, 0.000, 0.000, 15:41:14.263
165, 364.84, 6.90, 14.71, 13.87, 0.000, 0.000, 0.000, 15:41:14.284
166, -163.42, 14.92, 1.82, 5.51, 0.000, 0.000, 0.000, 15:41:14.285
167, -396.03, 0.32, 11.68, 14.20, 0.000, 0.000, 0.000, 15:41:14.285
168, 269.80, 10.02, 10.76, 13.75, 0.000, 0.000, 0.000, 15:41:14.285
169, 106.13, 9.58, 4.37, 8.42, 0.000, 0.000, 0.000, 15:41:14.285
170, -492.75, 7.93, 11.99, 8.02, 0.000, 0.000, 0.000, 15:41:14.286
171, 97.32, 3.84, 18.34, 15.61, 0.000, 0.000, 0.000, 15:41:14.307
172, 297.28, 11.07, 7.05, 11.15, 0.000, 0.000, 0.000, 15:41:14.307
173, -413.13, 12.19, 6.19, 6.41, 0.000, 0.000, 0.000, 15:41:14.307
174, -154.82, 4.51, 14.94, 13.26, 0.000, 0.000, 0.000, 15:41:14.307
175, 361.60, 6.44, 15.84, 12.81, 0.000, 0.000, 0.000, 15:41:14.330
176, -184.50, 12.42, 5.47, 8.20, 0.000, 0.000, 0.000, 15:41:14.330
177, -378.27, 6.28, 14.41, 13.25, 0.000, 0.000, 0.000, 15:41:14.332
178, 281.55, 7.41, 12.00, 12.18, 0.000, 0.000, 0.000, 15:41:14.332
179, 104.15, 12.73, 7.02, 6.57, 0.000, 0.000, 0.000, 15:41:14.352
180, -487.49, 10.36, 12.43, 9.80, 0.000, 0.000, 0.000, 15:41:14.352
181, 109.06, 0.69, 15.67, 17.56, 0.000, 0.000, 0.000, 15:41:14.352
182, 298.14, 8.42, 8.79, 13.49, 0.000, 0.000, 0.000, 15:41:14.352
183, -410.29, 10.36, 7.51, 9.70, 0.000, 0.000, 0.000, 15:41:14.374
184, -150.37, 6.35, 16.01, 15.98, 0.000, 0.000, 0.000, 15:41:14.375
185, 356.68, 2.44, 11.83, 13.59, 0.000, 0.000, 0.000, 15:41:14.375
186, -183.44, 15.26, 5.21, 6.36, 0.000, 0.000, 0.000, 15:41:14.375
187, -377.75, 5.52, 17.61, 14.88, 0.000, 0.000, 0.000, 15:41:14.376
188, 288.54, 9.26, 12.07, 12.91, 0.000, 0.000, 0.000, 15:41:14.376
189, 105.53, 12.69, 3.92, 9.53, 0.000, 0.000, 0.000, 15:41:14.397
190, -469.37, 6.84, 11.49, 15.15, 0.000, 0.000, 0.000, 15:41:14.397
191, 117.60, 5.40, 15.93, 15.44, 0.000, 0.000, 0.000, 15:41:14.398
192, 296.27, 8.85, 12.96, 12.52, 0.000, 0.000, 0.000, 15:41:14.398
193, -405.06, 11.10, 4.79, 8.10, 0.000, 0.000, 0.000, 15:41:14.419
194, -143.73, -2.26, 18.16, 18.76, 0.000, 0.000, 0.000, 15:41:14.419
195, 354.53, 6.05, 13.60, 10.00, 0.000, 0.000, 0.000, 15:41:14.420
196, -179.24, 16.12, 4.02, 4.40, 0.000, 0.000, 0.000, 15:41:14.420
197, -372.05, 6.54, 15.89, 16.71, 0.000, 0.000, 0.000, 15:41:14.442
198, 283.71, 11.99, 14.18, 12.38, 0.000, 0.000, 0.000, 15:41:14.442
199, 109.69, 7.10, 5.57, 6.48, 0.000, 0.000, 0.000, 15:41:14.442
200, -474.60, 7.91, 11.50, 15.56, 0.000, 0.000, 0.000, 15:41:14.443
0, 116.31, 2.42, 16.08, 17.74, 0.000, 0.000, 0.000, 15:41:14.443
1, 293.86, 11.26, 9.72, 8.91, 0.000, 0.000, 0.000, 15:41:14.464
2, -402.57, 14.09, 6.78, 11.06, 0.000, 0.000, 0.000, 15:41:14.465
3, -144.37, 1.50, 17.05, 13.55, 0.000, 0.000, 0.000, 15:41:14.465
4, 352.21, 7.98, 9.00, 13.32, 0.000, 0.000, 0.000, 15:41:14.465
5, -176.38, 15.42, 0.81, 6.89, 0.000, 0.000, 0.000, 15:41:14.487
6, -365.97, 11.81, 15.94, 10.58, 0.000, 0.000, 0.000, 15:41:14.487
7, 288.47, 0.59, 13.44, 13.37, 0.000, 0.000, 0.000, 15:41:14.487
8, 110.00, 9.71, 6.05, 10.04, 0.000, 0.000, 0.000, 15:41:14.487
9, -472.72, 6.48, 12.17, 13.18, 0.000, 0.000, 0.000, 15:41:14.521
10, 113.73, 5.88, 15.11, 16.28, 0.000, 0.000, 0.000, 15:41:14.521
11, 291.39, 11.75, 11.44, 11.27, 0.000, 0.000, 0.000, 15:41:14.522
12, -399.77, 12.12, 5.51, 10.21, 0.000, 0.000, 0.000, 15:41:14.522
13, -145.75, 2.12, 12.67, 16.82, 0.000, 0.000, 0.000, 15:41:14.522
14, 345.51, 7.25, 16.22, 10.92, 0.000, 0.000, 0.000, 15:41:14.522
15, -176.21, 15.71, 5.89, 5.67, 0.000, 0.000, 0.000, 15:41:14.534
16, -373.25, 2.50, 14.41, 14.38, 0.000, 0.000, 0.000, 15:41:14.534
17, 291.14, 4.24, 10.60, 12.32, 0.000, 0.000, 0.000, 15:41:14.534
18, 114.65, 12.54, 3.72, 6.50, 0.000, 0.000, 0.000, 15:41:14.534
19, -477.13, 8.82, 9.71, 10.75, 0.000, 0.000, 0.000, 15:41:14.556
20, 114.19, 2.87, 14.93, 14.92, 0.000, 0.000, 0.000, 15:41:14.556
21, 295.46, 15.60, 7.87, 8.59, 0.000, 0.000, 0.000, 15:41:14.557
22, -398.44, 16.46, 8.04, 12.94, 0.000, 0.000, 0.000, 15:41:14.557
23, -148.08, -2.28, 18.71, 21.28, 0.000, 0.000, 0.000, 15:41:14.577
24, 355.78, 12.37, 11.35, 10.82, 0.000, 0.000, 0.000, 15:41:14.577
25, -178.45, 10.78, 7.38, 8.69, 0.000, 0.000, 0.000, 15:41:14.577
26, -377.82, 6.02, 15.84, 17.15, 0.000, 0.000, 0.000, 15:41:14.578
27, 293.26, 8.11, 10.94, 11.67, 0.000, 0.000, 0.000, 15:41:14.599
28, 108.01, 11.18, 6.87, 6.76, 0.000, 0.000, 0.000, 15:41:14.600
29, -470.67, 4.04, 8.83, 9.24, 0.000, 0.000, 0.000, 15:41:14.600
30, 110.41, 3.63, 14.63, 11.29, 0.000, 0.000, 0.000, 15:41:14.600
31, 296.31, 10.97, 12.64, 9.00, 0.000, 0.000, 0.000, 15:41:14.601
32, -407.58, 14.88, 9.05, 13.12, 0.000, 0.000, 0.000, 15:41:14.601
33, -143.41, 4.57, 15.40, 15.63, 0.000, 0.000, 0.000, 15:41:14.622
34, 357.24, 3.28, 12.95, 18.13, 0.000, 0.000, 0.000, 15:41:14.622
35, -174.02, 13.79, 2.65, 8.34, 0.000, 0.000, 0.000, 15:41:14.622
36, -370.22, 0.97, 15.20, 15.42, 0.000, 0.000, 0.000, 15:41:14.622
37, 281.16, 6.52, 8.44, 14.27, 0.000, 0.000, 0.000, 15:41:14.644
38, 110.64, 9.85, 9.15, 15.77, 0.000, 0.000, 0.000, 15:41:14.645
39, -470.09, 15.17, 14.25, 12.42, 0.000, 0.000, 0.000, 15:41:14.645
40, 110.77, 1.19, 16.14, 13.18, 0.000, 0.000, 0.000, 15:41:14.645
41, 298.96, 10.33, 12.23, 8.22, 0.000, 0.000, 0.000, 15:41:14.667
42, -396.83, 18.45, 4.42, 10.27, 0.000, 0.000, 0.000, 15:41:14.667
43, -153.76, -3.12, 15.60, 16.81, 0.000, 0.000, 0.000, 15:41:14.667
44, 350.85, 12.41, 11.74, 12.19, 0.000, 0.000, 0.000, 15:41:14.667
45, -167.84, 16.97, 2.99, 6.85, 0.000, 0.000, 0.000, 15:41:14.689
46, -366.94, 4.34, 12.04, 14.27, 0.000, 0.000, 0.000, 15:41:14.690
47, 279.14, 0.88, 13.62, 13.88, 0.000, 0.000, 0.000, 15:41:14.690
48, 113.59, 10.32, 8.71, 9.97, 0.000, 0.000, 0.000, 15:41:14.690
49, -466.01, 9.40, 12.17, 8.59, 0.000, 0.000, 0.000, 15:41:14.690
50, 107.11, 2.50, 15.57, 16.07, 0.000, 0.000, 0.000, 15:41:14.691
51, 292.69, 11.13, 7.62, 11.09, 0.000, 0.000, 0.000, 15:41:14.712
52, -395.34, 10.59, 6.89, 7.75, 0.000, 0.000, 0.000, 15:41:14.712
53, -146.45, 2.54, 17.51, 16.13, 0.000, 0.000, 0.000, 15:41:14.713
54, 345.00, 5.62, 15.49, 8.46, 0.000, 0.000, 0.000, 15:41:14.713
55, -168.62, 13.71, 5.68, 6.25, 0.000, 0.000, 0.000, 15:41:14.734
56, -368.08, 1.26, 17.78, 16.34, 0.000, 0.000, 0.000, 15:41:14.735
57, 280.20, 5.78, 14.10, 12.42, 0.000, 0.000, 0.000, 15:41:14.735
58, 115.41, 14.10, 5.13, 7.18, 0.000, 0.000, 0.000, 15:41:14.735
59, -473.04, 11.72, 12.55, 11.07, 0.000, 0.000, 0.000, 15:41:14.757
60, 101.95, 7.42, 14.09, 18.60, 0.000, 0.000, 0.000, 15:41:14.757
61, 298.78, 4.02, 8.96, 11.88, 0.000, 0.000, 0.000, 15:41:14.757
62, -395.54, 12.32, 6.60, 6.26, 0.000, 0.000, 0.000, 15:41:14.758
63, -151.83, 4.47, 16.71, 16.25, 0.000, 0.000, 0.000, 15:41:14.779
64, 351.71, 11.01, 11.93, 13.69, 0.000, 0.000, 0.000, 15:41:14.780
65, -163.95, 12.28, 2.88, 5.11, 0.000, 0.000, 0.000, 15:41:14.780
66, -365.66, 8.42, 13.37, 13.45, 0.000, 0.000, 0.000, 15:41:14.780
67, 279.02, 3.25, 11.98, 11.80, 0.000, 0.000, 0.000, 15:41:14.781
68, 110.60, 11.72, 7.29, 9.69, 0.000, 0.000, 0.000, 15:41:14.781
69, -467.39, 11.94, 12.01, 11.80, 0.000, 0.000, 0.000, 15:41:14.802
70, 105.35, 0.41, 15.48, 17.85, 0.000, 0.000, 0.000, 15:41:14.802
71, 298.88, 11.00, 10.97, 11.00, 0.000, 0.000, 0.000, 15:41:14.802
72, -387.20, 13.95, 7.18, 8.67, 0.000, 0.000, 0.000, 15:41:14.803
73, -147.02, 2.23, 17.67, 18.07, 0.000, 0.000, 0.000, 15:41:14.824
74, 352.62, 7.60, 12.55, 13.56, 0.000, 0.000, 0.000, 15:41:14.825
75, -162.79, 15.42, 4.73, 8.37, 0.000, 0.000, 0.000, 15:41:14.825
76, -375.90, 3.81, 15.10, 14.97, 0.000, 0.000, 0.000, 15:41:14.825
77, 276.68, 7.99, 11.07, 12.31, 0.000, 0.000, 0.000, 15:41:14.847
78, 109.52, 17.06, 5.55, 11.22, 0.000, 0.000, 0.000, 15:41:14.847
79, -469.37, 2.17, 11.77, 14.56, 0.000, 0.000, 0.000, 15:41:14.848
80, 107.74, 4.01, 14.33, 15.26, 0.000, 0.000, 0.000, 15:41:14.848
81, 294.61, 13.99, 10.46, 4.79, 0.000, 0.000, 0.000, 15:41:14.869
82, -400.61, 12.67, 7.35, 8.89, 0.000, 0.000, 0.000, 15:41:14.869
83, -145.27, 1.74, 15.94, 19.34, 0.000, 0.000, 0.000, 15:41:14.870
84, 345.10, 8.39, 11.65, 11.24, 0.000, 0.000, 0.000, 15:41:14.870
85, -165.68, 18.00, 4.13, 8.88, 0.000, 0.000, 0.000, 15:41:14.870
86, -376.62, 5.06, 14.97, 15.07, 0.000, 0.000, 0.000, 15:41:14.870
87, 274.21, 6.92, 10.38, 14.01, 0.000, 0.000, 0.000, 15:41:14.892
88, 115.70, 9.40, 8.42, 7.14, 0.000, 0.000, 0.000, 15:41:14.892
89, -469.69, 6.46, 9.39, 8.80, 0.000, 0.000, 0.000, 15:41:14.894
90, 93.31, 8.64, 13.24, 16.42, 0.000, 0.000, 0.000, 15:41:14.894
91, 300.62, 10.40, 8.53, 7.79, 0.000, 0.000, 0.000, 15:41:14.914
92, -396.94, 10.20, 7.73, 9.33, 0.000, 0.000, 0.000, 15:41:14.914
93, -153.36, 5.86, 17.11, 18.08, 0.000, 0.000, 0.000, 15:41:14.915
94, 355.64, 3.16, 9.19, 13.03, 0.000, 0.000, 0.000, 15:41:14.915
95, -162.85, 14.12, 6.97, 3.67, 0.000, 0.000, 0.000, 15:41:14.937
96, -392.73, 7.67, 13.57, 10.96, 0.000, 0.000, 0.000, 15:41:14.937
97, 274.70, 1.63, 12.61, 10.24, 0.000, 0.000, 0.000, 15:41:14.937
98, 135.46, 12.90, 6.34, 14.36, 0.000, 0.000, 0.000, 15:41:14.937
99, -460.78, 8.84, 10.90, 15.42, 0.000, 0.000, 0.000, 15:41:14.959
100, 106.75, 4.21, 14.45, 15.40, 0.000, 0.000, 0.000, 15:41:14.960
101, 315.79, 10.83, 14.18, 12.37, 0.000, 0.000, 0.000, 15:41:14.960
102, -363.63, 13.96, 6.51, 6.89, 0.000, 0.000, 0.000, 15:41:14.960
103, -124.39, 2.92, 14.45, 16.81, 0.000, 0.000, 0.000, 15:41:14.961
104, 380.49, 7.71, 13.70, 15.46, 0.000, 0.000, 0.000, 15:41:14.961
105, -128.96, 18.67, 4.19, 4.81, 0.000, 0.000, 0.000, 15:41:14.982
106, -374.46, 6.10, 14.09, 14.29, 0.000, 0.000, 0.000, 15:41:14.982
107, 263.15, 6.41, 11.67, 13.66, 0.000, 0.000, 0.000, 15:41:15.005
108, 105.16, 12.08, 9.24, 6.58, 0.000, 0.000, 0.000, 15:41:15.005
109, -490.89, 6.71, 10.73, 9.81, 0.000, 0.000, 0.000, 15:41:15.005
110, 72.12, 5.56, 17.33, 14.75, 0.000, 0.000, 0.000, 15:41:15.005
111, 279.68, 12.29, 9.57, 10.37, 0.000, 0.000, 0.000, 15:41:15.006
112, -406.15, 12.62, 4.20, 11.41, 0.000, 0.000, 0.000, 15:41:15.006
113, -169.04, 2.58, 14.25, 17.12, 0.000, 0.000, 0.000, 15:41:15.027
114, 352.90, 5.54, 14.81, 12.52, 0.000, 0.000, 0.000, 15:41:15.027
115, -147.15, 14.28, 6.01, 5.39, 0.000, 0.000, 0.000, 15:41:15.027
116, -373.27, 6.58, 16.13, 15.33, 0.000, 0.000, 0.000, 15:41:15.028
117, 277.88, 7.17, 10.86, 9.20, 0.000, 0.000, 0.000, 15:41:15.049
118, 123.19, 7.47, 8.96, 9.94, 0.000, 0.000, 0.000, 15:41:15.050
119, -469.99, 10.12, 14.45, 11.57, 0.000, 0.000, 0.000, 15:41:15.050
120, 89.89, 4.50, 14.44, 14.79, 0.000, 0.000, 0.000, 15:41:15.050
121, 295.63, 8.46, 10.22, 11.83, 0.000, 0.000, 0.000, 15:41:15.050
122, -401.67, 12.51, 8.45, 6.09, 0.000, 0.000, 0.000, 15:41:15.051
123, -161.07, 5.72, 15.01, 15.42, 0.000, 0.000, 0.000, 15:41:15.072
124, 340.35, 3.93, 14.38, 15.29, 0.000, 0.000, 0.000, 15:41:15.073
125, -161.04, 15.91, 1.37, 5.30, 0.000, 0.000, 0.000, 15:41:15.073
126, -384.38, 6.86, 15.62, 18.41, 0.000, 0.000, 0.000, 15:41:15.073
127, 259.75, 7.77, 11.63, 13.24, 0.000, 0.000, 0.000, 15:41:15.094
128, 110.66, 12.26, 7.94, 9.78, 0.000, 0.000, 0.000, 15:41:15.095
129, -488.52, 8.48, 11.13, 8.42, 0.000, 0.000, 0.000, 15:41:15.095
130, 84.01, 3.73, 15.54, 15.16, 0.000, 0.000, 0.000, 15:41:15.095
131, 283.64, 8.06, 11.27, 11.89, 0.000, 0.000, 0.000, 15:41:15.117
132, -401.80, 16.93, 6.57, 10.32, 0.000, 0.000, 0.000, 15:41:15.117
133, -180.71, -4.76, 16.99, 16.91, 0.000, 0.000, 0.000, 15:41:15.118
134, 342.72, 8.36, 7.38, 10.28, 0.000, 0.000, 0.000, 15:41:15.118
135, -169.37, 12.97, 5.65, 6.10, 0.000, 0.000, 0.000, 15:41:15.139
136, -405.23, 4.68, 15.55, 12.50, 0.000, 0.000, 0.000, 15:41:15.140
137, 238.02, 3.06, 11.35, 12.67, 0.000, 0.000, 0.000, 15:41:15.140
138, 76.18, 14.90, 9.63, 13.00, 0.000, 0.000, 0.000, 15:41:15.140
139, -520.19, 10.38, 11.62, 14.36, 0.000, 0.000, 0.000, 15:41:15.141
140, 26.10, 2.41, 13.24, 15.56, 0.000, 0.000, 0.000, 15:41:15.142
141, 226.68, 14.14, 7.05, 8.73, 0.000, 0.000, 0.000, 15:41:15.163
142, -466.61, 9.17, 4.70, 8.61, 0.000, 0.000, 0.000, 15:41:15.163
143, -247.37, 3.05, 15.43, 17.70, 0.000, 0.000, 0.000, 15:41:15.163
144, 259.20, 8.58, 12.95, 8.97, 0.000, 0.000, 0.000, 15:41:15.163
145, -219.75, 14.00, 2.41, 5.93, 0.000, 0.000, 0.000, 15:41:15.184
146, -451.19, 3.57, 16.44, 14.30, 0.000, 0.000, 0.000, 15:41:15.185
147, 198.70, 4.73, 11.05, 15.88, 0.000, 0.000, 0.000, 15:41:15.185
148, 61.21, 13.77, 9.99, 10.28, 0.000, 0.000, 0.000, 15:41:15.185
149, -526.04, 6.70, 11.22, 13.09, 0.000, 0.000, 0.000, 15:41:15.207
150, 51.67, 5.66, 19.74, 12.87, 0.000, 0.000, 0.000, 15:41:15.208
151, 269.87, 5.53, 9.65, 15.78, 0.000, 0.000, 0.000, 15:41:15.208
152, -395.74, 14.20, 6.07, 11.06, 0.000, 0.000, 0.000, 15:41:15.208
153, -158.43, 1.59, 18.15, 21.00, 0.000, 0.000, 0.000, 15:41:15.230
154, 354.96, 9.88, 13.74, 11.97, 0.000, 0.000, 0.000, 15:41:15.230
155, -130.60, 15.95, 4.70, 3.21, 0.000, 0.000, 0.000, 15:41:15.230
156, -361.30, 2.47, 11.19, 14.19, 0.000, 0.000, 0.000, 15:41:15.231
157, 293.31, 7.46, 8.24, 12.97, 0.000, 0.000, 0.000, 15:41:15.231
158, 160.24, 12.33, 4.75, 9.23, 0.000, 0.000, 0.000, 15:41:15.231
159, -446.02, 8.83, 12.90, 10.58, 0.000, 0.000, 0.000, 15:41:15.252
160, 109.65, 1.08, 14.13, 18.60, 0.000, 0.000, 0.000, 15:41:15.252
161, 318.65, 6.06, 10.84, 9.26, 0.000, 0.000, 0.000, 15:41:15.252
162, -377.25, 11.91, 9.46, 8.89, 0.000, 0.000, 0.000, 15:41:15.253
163, -168.13, -0.07, 15.89, 17.82, 0.000, 0.000, 0.000, 15:41:15.275
164, 320.55, 4.92, 12.55, 10.68, 0.000, 0.000, 0.000, 15:41:15.275
165, -174.66, 18.34, 3.85, 5.54, 0.000, 0.000, 0.000, 15:41:15.275
166, -419.07, 4.25, 14.10, 14.92, 0.000, 0.000, 0.000, 15:41:15.276
167, 220.26, 6.57, 12.41, 13.50, 0.000, 0.000, 0.000, 15:41:15.298
168, 82.94, 17.07, 4.61, 4.81, 0.000, 0.000, 0.000, 15:41:15.298
169, -518.62, 3.51, 11.09, 9.30, 0.000, 0.000, 0.000, 15:41:15.298
170, 37.57, 5.14, 14.53, 15.25, 0.000, 0.000, 0.000, 15:41:15.299
171, 252.92, 12.52, 10.97, 8.29, 0.000, 0.000, 0.000, 15:41:15.321
172, -426.33, 13.79, 6.97, 7.95, 0.000, 0.000, 0.000, 15:41:15.321
173, -212.85, 1.80, 20.46, 17.92, 0.000, 0.000, 0.000, 15:41:15.322
174, 298.17, 5.13, 13.90, 9.45, 0.000, 0.000, 0.000, 15:41:15.322
175, -187.00, 13.06, 2.56, 6.32, 0.000, 0.000, 0.000, 15:41:15.322
176, -430.02, 6.47, 16.38, 15.36, 0.000, 0.000, 0.000, 15:41:15.322
177, 232.99, 7.27, 15.19, 14.66, 0.000, 0.000, 0.000, 15:41:15.344
178, 95.68, 6.68, 4.33, 6.68, 0.000, 0.000, 0.000, 15:41:15.344
179, -496.66, 9.03, 7.79, 9.33, 0.000, 0.000, 0.000, 15:41:15.365
180, 63.40, 3.98, 17.37, 14.77, 0.000, 0.000, 0.000, 15:41:15.365
181, 292.58, 14.33, 8.65, 12.23, 0.000, 0.000, 0.000, 15:41:15.366
182, -384.25, 9.36, 7.40, 7.82, 0.000, 0.000, 0.000, 15:41:15.366
183, -162.66, 2.58, 16.49, 19.65, 0.000, 0.000, 0.000, 15:41:15.366
184, 351.40, 9.61, 13.70, 17.75, 0.000, 0.000, 0.000, 15:41:15.366
185, -124.52, 19.60, 5.82, 5.40, 0.000, 0.000, 0.000, 15:41:15.387
186, -366.98, 6.25, 14.04, 13.81, 0.000, 0.000, 0.000, 15:41:15.387
187, 297.97, 3.01, 14.01, 15.07, 0.000, 0.000, 0.000, 15:41:15.388
188, 162.09, 12.63, 4.04, 11.96, 0.000, 0.000, 0.000, 15:41:15.388
189, -438.80, 7.80, 7.01, 9.72, 0.000, 0.000, 0.000, 15:41:15.409
