%OpenBCI Raw EEG Data
%
%Sample Rate = 200.0 Hz
%First Column = SampleIndex
%Last Column = Timestamp 
%Other Columns = EEG data in microvolts followed by Accel Data (in G) interleaved with Aux Data
0, -107.33, -364.67, -447.50, -538.41, 0.000, 0.000, 0.000, 15:34:01.930
1, -147.23, -24.99, -390.08, -565.58, 0.000, 0.000, 0.000, 15:34:01.935
2, -190.84, -181.59, -314.38, -96.91, 0.000, 0.000, 0.000, 15:34:01.937
3, -215.42, -448.60, -448.76, -378.51, 0.000, 0.000, 0.000, 15:34:01.951
4, -49.24, -91.82, -382.61, -657.78, 0.000, 0.000, 0.000, 15:34:01.953
5, -256.40, -98.16, -350.84, -267.74, 0.000, 0.000, 0.000, 15:34:01.954
6, -195.71, -384.24, -358.76, -163.00, 0.000, 0.000, 0.000, 15:34:01.954
7, -133.38, -244.16, -442.34, -709.10, 0.000, 0.000, 0.000, 15:34:01.972
8, -173.93, 3.76, -319.17, -390.29, 0.000, 0.000, 0.000, 15:34:01.973
9, -239.90, -309.89, -322.60, -97.38, 0.000, 0.000, 0.000, 15:34:01.974
10, -140.91, -353.18, -417.54, -542.84, 0.000, 0.000, 0.000, 15:34:01.975
11, -129.31, -8.09, -347.63, -552.95, 0.000, 0.000, 0.000, 15:34:01.994
12, -257.49, -197.02, -312.37, -135.13, 0.000, 0.000, 0.000, 15:34:01.995
13, -157.35, -414.89, -382.94, -328.14, 0.000, 0.000, 0.000, 15:34:01.996
14, -147.29, -113.40, -400.60, -690.06, 0.000, 0.000, 0.000, 15:34:01.996
15, -182.12, -66.54, -293.41, -194.78, 0.000, 0.000, 0.000, 15:34:02.023
16, -264.10, -417.49, -373.38, -189.18, 0.000, 0.000, 0.000, 15:34:02.024
17, -67.42, -222.39, -384.66, -627.49, 0.000, 0.000, 0.000, 15:34:02.025
18, -224.25, -28.01, -339.27, -414.89, 0.000, 0.000, 0.000, 15:34:02.025
19, -208.08, -304.41, -301.58, -60.58, 0.000, 0.000, 0.000, 15:34:02.026
20, -181.96, -372.04, -431.14, -545.41, 0.000, 0.000, 0.000, 15:34:02.026
21, -124.66, -14.51, -345.56, -534.10, 0.000, 0.000, 0.000, 15:34:02.041
22, -248.84, -190.07, -317.11, -114.93, 0.000, 0.000, 0.000, 15:34:02.041
23, -169.34, -429.02, -393.08, -318.11, 0.000, 0.000, 0.000, 15:34:02.043
24, -109.78, -105.11, -389.24, -659.19, 0.000, 0.000, 0.000, 15:34:02.043
25, -205.53, -78.33, -303.85, -212.42, 0.000, 0.000, 0.000, 15:34:02.064
26, -219.61, -404.38, -366.53, -167.12, 0.000, 0.000, 0.000, 15:34:02.064
27, -107.84, -240.56, -419.20, -651.57, 0.000, 0.000, 0.000, 15:34:02.065
28, -185.98, -19.60, -341.45, -391.44, 0.000, 0.000, 0.000, 15:34:02.065
29, -254.68, -326.24, -352.84, -100.08, 0.000, 0.000, 0.000, 15:34:02.087
30, -96.78, -360.04, -401.14, -508.35, 0.000, 0.000, 0.000, 15:34:02.088
31, -160.64, -31.88, -375.89, -559.76, 0.000, 0.000, 0.000, 15:34:02.109
32, -202.28, -182.72, -298.44, -84.90, 0.000, 0.000, 0.000, 15:34:02.110
33, -184.08, -424.83, -411.26, -343.13, 0.000, 0.000, 0.000, 15:34:02.111
34, -112.26, -106.40, -405.60, -662.60, 0.000, 0.000, 0.000, 15:34:02.111
35, -186.79, -72.39, -301.89, -199.18, 0.000, 0.000, 0.000, 15:34:02.111
36, -236.30, -412.10, -385.25, -174.74, 0.000, 0.000, 0.000, 15:34:02.112
37, -63.93, -225.63, -402.03, -619.96, 0.000, 0.000, 0.000, 15:34:02.113
38, -192.25, -13.33, -331.87, -379.57, 0.000, 0.000, 0.000, 15:34:02.113
39, -242.10, -314.67, -342.38, -90.70, 0.000, 0.000, 0.000, 15:34:02.131
40, -90.26, -343.66, -401.84, -507.65, 0.000, 0.000, 0.000, 15:34:02.132
41, -185.73, -24.27, -382.81, -565.67, 0.000, 0.000, 0.000, 15:34:02.133
42, -191.90, -168.08, -286.03, -87.84, 0.000, 0.000, 0.000, 15:34:02.134
43, -180.68, -422.77, -396.13, -311.15, 0.000, 0.000, 0.000, 15:34:02.154
44, -119.85, -103.31, -398.01, -664.24, 0.000, 0.000, 0.000, 15:34:02.155
45, -186.88, -61.80, -307.11, -202.86, 0.000, 0.000, 0.000, 15:34:02.155
46, -214.81, -392.63, -358.86, -145.07, 0.000, 0.000, 0.000, 15:34:02.156
47, -106.66, -235.98, -430.91, -654.68, 0.000, 0.000, 0.000, 15:34:02.177
48, -166.19, -4.30, -327.69, -367.42, 0.000, 0.000, 0.000, 15:34:02.177
49, -223.11, -308.11, -340.22, -83.34, 0.000, 0.000, 0.000, 15:34:02.178
50, -135.17, -363.86, -421.53, -522.81, 0.000, 0.000, 0.000, 15:34:02.178
51, -130.99, -13.19, -359.09, -537.68, 0.000, 0.000, 0.000, 15:34:02.204
52, -224.03, -191.31, -303.02, -94.48, 0.000, 0.000, 0.000, 15:34:02.205
53, -168.92, -420.76, -409.45, -330.35, 0.000, 0.000, 0.000, 15:34:02.205
54, -102.58, -89.92, -394.28, -661.91, 0.000, 0.000, 0.000, 15:34:02.205
55, -211.86, -71.48, -306.57, -214.33, 0.000, 0.000, 0.000, 15:34:02.206
56, -213.94, -401.28, -367.85, -160.96, 0.000, 0.000, 0.000, 15:34:02.206
57, -95.34, -236.26, -419.13, -645.69, 0.000, 0.000, 0.000, 15:34:02.221
58, -173.75, -5.34, -332.58, -379.08, 0.000, 0.000, 0.000, 15:34:02.221
59, -233.03, -310.54, -344.44, -90.63, 0.000, 0.000, 0.000, 15:34:02.223
60, -124.96, -361.61, -418.14, -514.80, 0.000, 0.000, 0.000, 15:34:02.224
61, -130.16, -11.26, -363.14, -545.88, 0.000, 0.000, 0.000, 15:34:02.246
62, -222.40, -188.51, -305.70, -101.42, 0.000, 0.000, 0.000, 15:34:02.247
63, -216.24, -446.63, -441.47, -368.55, 0.000, 0.000, 0.000, 15:34:02.247
64, -102.41, -107.55, -409.98, -671.15, 0.000, 0.000, 0.000, 15:34:02.248
65, -203.68, -72.55, -315.51, -216.72, 0.000, 0.000, 0.000, 15:34:02.274
66, -227.25, -402.47, -381.19, -168.86, 0.000, 0.000, 0.000, 15:34:02.274
67, -93.00, -234.50, -427.37, -658.63, 0.000, 0.000, 0.000, 15:34:02.280
68, -197.52, -19.91, -349.00, -390.08, 0.000, 0.000, 0.000, 15:34:02.280
69, -257.18, -322.31, -359.66, -102.99, 0.000, 0.000, 0.000, 15:34:02.290
70, -95.26, -347.86, -408.16, -504.38, 0.000, 0.000, 0.000, 15:34:02.290
71, -130.36, -15.95, -370.40, -552.74, 0.000, 0.000, 0.000, 15:34:02.291
72, -252.49, -203.11, -332.70, -133.28, 0.000, 0.000, 0.000, 15:34:02.291
73, -187.63, -425.51, -415.01, -335.01, 0.000, 0.000, 0.000, 15:34:02.293
74, -89.65, -97.21, -401.33, -651.10, 0.000, 0.000, 0.000, 15:34:02.294
75, -191.57, -70.58, -306.24, -197.55, 0.000, 0.000, 0.000, 15:34:02.309
76, -229.55, -410.14, -373.27, -177.32, 0.000, 0.000, 0.000, 15:34:02.310
77, -106.36, -247.03, -426.94, -659.66, 0.000, 0.000, 0.000, 15:34:02.311
78, -172.11, -1.66, -328.20, -374.42, 0.000, 0.000, 0.000, 15:34:02.311
79, -207.60, -303.65, -319.25, -66.68, 0.000, 0.000, 0.000, 15:34:02.332
80, -126.03, -357.84, -417.67, -526.74, 0.000, 0.000, 0.000, 15:34:02.333
81, -149.22, -24.89, -376.68, -560.15, 0.000, 0.000, 0.000, 15:34:02.333
82, -229.73, -188.72, -324.69, -115.98, 0.000, 0.000, 0.000, 15:34:02.334
83, -161.51, -425.94, -398.56, -328.87, 0.000, 0.000, 0.000, 15:34:02.354
84, -79.63, -97.17, -378.52, -638.37, 0.000, 0.000, 0.000, 15:34:02.355
85, -212.19, -69.92, -317.92, -223.41, 0.000, 0.000, 0.000, 15:34:02.355
86, -228.08, -404.95, -375.12, -172.10, 0.000, 0.000, 0.000, 15:34:02.356
87, -95.66, -229.14, -416.30, -648.93, 0.000, 0.000, 0.000, 15:34:02.377
88, -157.85, -9.01, -325.31, -360.02, 0.000, 0.000, 0.000, 15:34:02.377
89, -214.15, -305.34, -330.60, -78.39, 0.000, 0.000, 0.000, 15:34:02.378
90, -147.46, -370.82, -435.14, -534.79, 0.000, 0.000, 0.000, 15:34:02.379
91, -147.14, -20.35, -377.05, -557.16, 0.000, 0.000, 0.000, 15:34:02.380
92, -222.17, -185.48, -314.63, -100.05, 0.000, 0.000, 0.000, 15:34:02.380
93, -172.63, -425.02, -405.79, -318.94, 0.000, 0.000, 0.000, 15:34:02.400
94, -105.15, -99.33, -390.87, -667.40, 0.000, 0.000, 0.000, 15:34:02.401
95, -232.34, -78.52, -319.86, -236.89, 0.000, 0.000, 0.000, 15:34:02.401
96, -224.97, -403.52, -378.58, -172.96, 0.000, 0.000, 0.000, 15:34:02.402
97, -89.37, -234.26, -415.96, -649.74, 0.000, 0.000, 0.000, 15:34:02.423
98, -151.57, -1.91, -323.64, -358.64, 0.000, 0.000, 0.000, 15:34:02.424
99, -243.86, -314.56, -343.08, -92.14, 0.000, 0.000, 0.000, 15:34:02.425
100, -142.42, -364.06, -432.64, -524.81, 0.000, 0.000, 0.000, 15:34:02.425
101, -91.65, -1.42, -348.91, -516.55, 0.000, 0.000, 0.000, 15:34:02.444
102, -240.90, -188.10, -316.24, -100.64, 0.000, 0.000, 0.000, 15:34:02.445
103, -174.03, -414.17, -408.60, -328.79, 0.000, 0.000, 0.000, 15:34:02.445
104, -91.25, -101.33, -396.67, -664.58, 0.000, 0.000, 0.000, 15:34:02.446
105, -203.43, -75.27, -308.20, -205.76, 0.000, 0.000, 0.000, 15:34:02.467
106, -208.29, -389.20, -361.93, -145.71, 0.000, 0.000, 0.000, 15:34:02.467
107, -88.66, -223.90, -420.07, -646.74, 0.000, 0.000, 0.000, 15:34:02.468
108, -168.60, -1.54, -332.72, -367.38, 0.000, 0.000, 0.000, 15:34:02.469
109, -231.59, -311.80, -339.29, -78.67, 0.000, 0.000, 0.000, 15:34:02.489
110, -128.72, -360.74, -426.08, -528.92, 0.000, 0.000, 0.000, 15:34:02.490
111, -124.48, -0.06, -355.07, -547.86, 0.000, 0.000, 0.000, 15:34:02.491
112, -238.33, -180.25, -323.11, -112.61, 0.000, 0.000, 0.000, 15:34:02.495
113, -172.97, -417.03, -403.43, -329.23, 0.000, 0.000, 0.000, 15:34:02.495
114, -102.21, -94.78, -400.14, -669.41, 0.000, 0.000, 0.000, 15:34:02.496
115, -231.99, -88.91, -342.95, -239.94, 0.000, 0.000, 0.000, 15:34:02.512
116, -196.43, -401.24, -367.69, -157.07, 0.000, 0.000, 0.000, 15:34:02.513
117, -102.95, -249.60, -434.97, -673.19, 0.000, 0.000, 0.000, 15:34:02.514
118, -198.35, -36.82, -350.30, -405.88, 0.000, 0.000, 0.000, 15:34:02.514
119, -216.50, -302.68, -326.81, -76.13, 0.000, 0.000, 0.000, 15:34:02.534
120, -164.85, -377.54, -452.06, -560.20, 0.000, 0.000, 0.000, 15:34:02.535
121, -113.99, -9.62, -351.50, -547.18, 0.000, 0.000, 0.000, 15:34:02.535
122, -242.79, -196.39, -329.66, -124.56, 0.000, 0.000, 0.000, 15:34:02.536
123, -176.22, -422.17, -402.45, -314.26, 0.000, 0.000, 0.000, 15:34:02.557
124, -81.25, -99.50, -399.16, -662.11, 0.000, 0.000, 0.000, 15:34:02.558
125, -250.33, -87.51, -328.47, -225.39, 0.000, 0.000, 0.000, 15:34:02.560
126, -196.49, -397.11, -351.20, -122.48, 0.000, 0.000, 0.000, 15:34:02.561
127, -115.51, -236.34, -426.62, -649.97, 0.000, 0.000, 0.000, 15:34:02.564
128, -166.75, 11.18, -330.92, -356.39, 0.000, 0.000, 0.000, 15:34:02.565
129, -242.80, -316.02, -344.55, -60.19, 0.000, 0.000, 0.000, 15:34:02.580
130, -94.46, -365.65, -412.68, -482.65, 0.000, 0.000, 0.000, 15:34:02.580
131, -130.23, -34.95, -372.94, -504.64, 0.000, 0.000, 0.000, 15:34:02.581
132, -190.23, -205.62, -324.31, 5.01, 0.000, 0.000, 0.000, 15:34:02.582
133, -142.91, -439.15, -432.18, -229.12, 0.000, 0.000, 0.000, 15:34:02.603
134, -55.11, -92.77, -446.06, -697.73, 0.000, 0.000, 0.000, 15:34:02.603
135, -171.39, -57.51, -339.36, -315.12, 0.000, 0.000, 0.000, 15:34:02.604
136, -180.18, -372.82, -375.13, -269.27, 0.000, 0.000, 0.000, 15:34:02.604
137, -79.14, -208.11, -406.24, -750.16, 0.000, 0.000, 0.000, 15:34:02.624
138, -172.30, 16.95, -300.31, -408.60, 0.000, 0.000, 0.000, 15:34:02.625
139, -236.74, -296.10, -315.31, -83.10, 0.000, 0.000, 0.000, 15:34:02.626
140, -136.01, -353.04, -410.79, -535.73, 0.000, 0.000, 0.000, 15:34:02.626
141, -142.60, -11.87, -346.56, -563.48, 0.000, 0.000, 0.000, 15:34:02.647
142, -246.25, -195.67, -303.16, -95.73, 0.000, 0.000, 0.000, 15:34:02.648
143, -188.37, -440.04, -401.44, -310.37, 0.000, 0.000, 0.000, 15:34:02.648
144, -141.23, -125.69, -426.72, -676.25, 0.000, 0.000, 0.000, 15:34:02.652
145, -175.01, -67.09, -279.76, -153.85, 0.000, 0.000, 0.000, 15:34:02.652
146, -270.33, -419.58, -411.81, -166.02, 0.000, 0.000, 0.000, 15:34:02.653
147, -73.06, -240.44, -431.02, -635.06, 0.000, 0.000, 0.000, 15:34:02.669
148, -205.61, -22.40, -359.26, -392.62, 0.000, 0.000, 0.000, 15:34:02.670
149, -206.82, -293.47, -332.35, -42.24, 0.000, 0.000, 0.000, 15:34:02.692
150, -197.79, -375.30, -462.41, -556.46, 0.000, 0.000, 0.000, 15:34:02.693
151, -87.37, -8.27, -348.12, -524.28, 0.000, 0.000, 0.000, 15:34:02.714
152, -239.30, -182.23, -326.28, -97.67, 0.000, 0.000, 0.000, 15:34:02.715
153, -192.20, -425.42, -419.03, -320.02, 0.000, 0.000, 0.000, 15:34:02.715
154, -76.24, -96.21, -399.35, -650.76, 0.000, 0.000, 0.000, 15:34:02.716
155, -222.63, -76.42, -325.24, -215.63, 0.000, 0.000, 0.000, 15:34:02.716
156, -205.55, -385.76, -374.64, -130.22, 0.000, 0.000, 0.000, 15:34:02.717
157, -106.27, -234.98, -432.82, -665.46, 0.000, 0.000, 0.000, 15:34:02.717
158, -165.57, -2.57, -335.96, -382.27, 0.000, 0.000, 0.000, 15:34:02.718
159, -213.40, -303.55, -328.08, -51.68, 0.000, 0.000, 0.000, 15:34:02.737
160, -149.24, -369.05, -444.40, -530.83, 0.000, 0.000, 0.000, 15:34:02.738
161, -120.74, -13.76, -370.02, -555.18, 0.000, 0.000, 0.000, 15:34:02.738
162, -227.77, -180.16, -316.36, -100.10, 0.000, 0.000, 0.000, 15:34:02.739
163, -187.79, -429.52, -430.74, -331.53, 0.000, 0.000, 0.000, 15:34:02.739
164, -85.66, -96.40, -397.08, -664.53, 0.000, 0.000, 0.000, 15:34:02.739
165, -224.52, -94.83, -337.60, -231.16, 0.000, 0.000, 0.000, 15:34:02.759
166, -186.63, -395.05, -369.36, -127.91, 0.000, 0.000, 0.000, 15:34:02.760
167, -121.04, -247.62, -448.59, -692.38, 0.000, 0.000, 0.000, 15:34:02.761
168, -143.85, 0.16, -335.45, -363.25, 0.000, 0.000, 0.000, 15:34:02.761
169, -246.61, -320.01, -360.97, -91.30, 0.000, 0.000, 0.000, 15:34:02.782
170, -100.24, -357.48, -431.61, -507.56, 0.000, 0.000, 0.000, 15:34:02.782
171, -155.05, -39.63, -390.71, -573.00, 0.000, 0.000, 0.000, 15:34:02.783
172, -191.17, -169.08, -310.19, -74.18, 0.000, 0.000, 0.000, 15:34:02.783
173, -211.53, -425.20, -432.84, -340.48, 0.000, 0.000, 0.000, 15:34:02.804
174, -46.76, -86.06, -383.34, -634.47, 0.000, 0.000, 0.000, 15:34:02.805
175, -223.58, -77.14, -338.91, -228.38, 0.000, 0.000, 0.000, 15:34:02.806
176, -210.99, -401.62, -381.68, -133.79, 0.000, 0.000, 0.000, 15:34:02.806
177, -64.57, -228.61, -426.91, -645.30, 0.000, 0.000, 0.000, 15:34:02.827
178, -185.43, -15.24, -358.23, -393.57, 0.000, 0.000, 0.000, 15:34:02.828
179, -220.42, -309.42, -355.05, -61.63, 0.000, 0.000, 0.000, 15:34:02.829
180, -88.31, -354.75, -425.58, -500.83, 0.000, 0.000, 0.000, 15:34:02.829
181, -131.43, -18.55, -377.72, -564.35, 0.000, 0.000, 0.000, 15:34:02.830
182, -219.15, -181.91, -337.91, -95.39, 0.000, 0.000, 0.000, 15:34:02.830
183, -133.09, -409.98, -409.75, -290.65, 0.000, 0.000, 0.000, 15:34:02.849
184, -95.29, -101.99, -419.92, -679.15, 0.000, 0.000, 0.000, 15:34:02.850
185, -208.13, -76.43, -338.92, -217.71, 0.000, 0.000, 0.000, 15:34:02.850
186, -197.21, -407.97, -374.10, -137.11, 0.000, 0.000, 0.000, 15:34:02.851
187, -61.91, -231.86, -430.73, -655.85, 0.000, 0.000, 0.000, 15:34:02.873
188, -179.43, 5.93, -349.01, -404.78, 0.000, 0.000, 0.000, 15:34:02.874
189, -232.43, -298.45, -357.62, -88.76, 0.000, 0.000, 0.000, 15:34:02.874
190, -86.99, -339.42, -424.99, -515.97, 0.000, 0.000, 0.000, 15:34:02.874
191, -125.45, -9.86, -376.21, -579.09, 0.000, 0.000, 0.000, 15:34:02.894
192, -241.66, -186.76, -327.20, -126.64, 0.000, 0.000, 0.000, 15:34:02.895
193, -143.89, -413.18, -401.32, -321.59, 0.000, 0.000, 0.000, 15:34:02.895
194, -95.64, -107.81, -401.06, -703.45, 0.000, 0.000, 0.000, 15:34:02.896
195, -238.18, -75.87, -320.23, -254.20, 0.000, 0.000, 0.000, 15:34:02.917
196, -196.99, -386.63, -350.05, -148.66, 0.000, 0.000, 0.000, 15:34:02.918
197, -99.48, -230.56, -419.35, -690.16, 0.000, 0.000, 0.000, 15:34:02.918
198, -202.75, -13.37, -351.60, -426.01, 0.000, 0.000, 0.000, 15:34:02.918
199, -212.92, -297.52, -320.75, -70.57, 0.000, 0.000, 0.000, 15:34:02.919
200, -149.98, -371.77, -429.67, -554.69, 0.000, 0.000, 0.000, 15:34:02.919
0, -172.01, -33.91, -376.54, -600.10, 0.000, 0.000, 0.000, 15:34:02.939
1, -212.13, -169.39, -294.07, -96.59, 0.000, 0.000, 0.000, 15:34:02.940
2, -221.84, -435.60, -421.71, -361.73, 0.000, 0.000, 0.000, 15:34:02.940
3, -98.72, -99.34, -388.87, -676.73, 0.000, 0.000, 0.000, 15:34:02.962
4, -218.91, -79.64, -308.44, -222.77, 0.000, 0.000, 0.000, 15:34:02.963
5, -264.19, -418.67, -379.60, -176.58, 0.000, 0.000, 0.000, 15:34:02.963
6, -77.10, -229.00, -409.47, -645.17, 0.000, 0.000, 0.000, 15:34:02.963
7, -211.17, -15.92, -337.79, -408.07, 0.000, 0.000, 0.000, 15:34:02.964
8, -236.86, -308.75, -334.74, -73.88, 0.000, 0.000, 0.000, 15:34:02.965
9, -128.44, -357.89, -410.51, -506.91, 0.000, 0.000, 0.000, 15:34:02.984
10, -157.98, -23.26, -364.80, -572.82, 0.000, 0.000, 0.000, 15:34:02.985
11, -214.77, -179.47, -296.19, -92.94, 0.000, 0.000, 0.000, 15:34:02.985
12, -187.86, -425.21, -397.51, -311.33, 0.000, 0.000, 0.000, 15:34:02.985
13, -118.18, -109.52, -396.92, -680.17, 0.000, 0.000, 0.000, 15:34:03.007
14, -200.73, -69.93, -299.53, -205.11, 0.000, 0.000, 0.000, 15:34:03.008
15, -206.48, -390.31, -360.66, -129.71, 0.000, 0.000, 0.000, 15:34:03.008
16, -121.32, -244.88, -433.20, -671.23, 0.000, 0.000, 0.000, 15:34:03.008
17, -181.38, -9.40, -329.17, -381.51, 0.000, 0.000, 0.000, 15:34:03.029
18, -199.29, -295.76, -309.26, -42.86, 0.000, 0.000, 0.000, 15:34:03.030
19, -146.76, -365.71, -416.76, -527.00, 0.000, 0.000, 0.000, 15:34:03.031
20, -150.01, -18.30, -363.91, -565.68, 0.000, 0.000, 0.000, 15:34:03.031
21, -222.57, -181.05, -303.72, -90.99, 0.000, 0.000, 0.000, 15:34:03.052
22, -156.64, -419.36, -396.33, -308.46, 0.000, 0.000, 0.000, 15:34:03.053
23, -90.62, -100.10, -407.18, -673.34, 0.000, 0.000, 0.000, 15:34:03.053
24, -222.15, -80.85, -313.62, -226.73, 0.000, 0.000, 0.000, 15:34:03.053
25, -233.32, -402.75, -384.90, -162.97, 0.000, 0.000, 0.000, 15:34:03.053
26, -96.77, -235.87, -425.26, -650.22, 0.000, 0.000, 0.000, 15:34:03.054
27, -163.35, -2.12, -338.89, -366.47, 0.000, 0.000, 0.000, 15:34:03.076
28, -228.95, -308.83, -338.63, -91.82, 0.000, 0.000, 0.000, 15:34:03.077
29, -139.01, -373.77, -433.44, -530.42, 0.000, 0.000, 0.000, 15:34:03.077
30, -141.38, -19.88, -371.36, -553.26, 0.000, 0.000, 0.000, 15:34:03.078
31, -248.16, -195.01, -333.79, -132.50, 0.000, 0.000, 0.000, 15:34:03.097
32, -190.06, -422.70, -425.22, -340.94, 0.000, 0.000, 0.000, 15:34:03.097
33, -107.11, -103.63, -404.70, -657.70, 0.000, 0.000, 0.000, 15:34:03.098
34, -212.46, -75.70, -329.59, -223.62, 0.000, 0.000, 0.000, 15:34:03.098
35, -216.52, -399.35, -382.94, -165.17, 0.000, 0.000, 0.000, 15:34:03.119
36, -98.42, -241.65, -433.74, -651.33, 0.000, 0.000, 0.000, 15:34:03.120
37, -177.97, -11.72, -333.78, -384.89, 0.000, 0.000, 0.000, 15:34:03.120
38, -238.70, -310.01, -349.48, -99.11, 0.000, 0.000, 0.000, 15:34:03.121
39, -129.87, -363.72, -425.94, -522.62, 0.000, 0.000, 0.000, 15:34:03.143
40, -137.92, -17.97, -355.85, -559.84, 0.000, 0.000, 0.000, 15:34:03.144
41, -237.18, -185.17, -327.22, -121.46, 0.000, 0.000, 0.000, 15:34:03.144
42, -183.19, -425.72, -407.81, -324.81, 0.000, 0.000, 0.000, 15:34:03.144
43, -105.35, -114.55, -401.23, -655.05, 0.000, 0.000, 0.000, 15:34:03.146
44, -213.28, -90.20, -317.08, -230.26, 0.000, 0.000, 0.000, 15:34:03.146
45, -220.14, -383.03, -368.12, -167.92, 0.000, 0.000, 0.000, 15:34:03.165
46, -103.97, -230.59, -423.64, -659.85, 0.000, 0.000, 0.000, 15:34:03.165
47, -178.12, -2.82, -339.70, -382.37, 0.000, 0.000, 0.000, 15:34:03.166
48, -235.15, -305.13, -352.41, -96.91, 0.000, 0.000, 0.000, 15:34:03.166
49, -131.32, -365.83, -427.06, -525.05, 0.000, 0.000, 0.000, 15:34:03.187
50, -135.95, -17.32, -373.28, -551.66, 0.000, 0.000, 0.000, 15:34:03.187
51, -227.04, -178.29, -319.68, -111.69, 0.000, 0.000, 0.000, 15:34:03.187
52, -180.83, -417.08, -400.62, -322.10, 0.000, 0.000, 0.000, 15:34:03.188
53, -104.74, -104.71, -392.02, -662.96, 0.000, 0.000, 0.000, 15:34:03.210
54, -210.88, -68.59, -314.81, -216.46, 0.000, 0.000, 0.000, 15:34:03.211
55, -208.14, -389.30, -374.14, -148.46, 0.000, 0.000, 0.000, 15:34:03.212
56, -79.42, -231.13, -418.08, -638.94, 0.000, 0.000, 0.000, 15:34:03.213
57, -156.65, -0.61, -319.16, -365.73, 0.000, 0.000, 0.000, 15:34:03.232
58, -228.43, -298.69, -331.70, -75.76, 0.000, 0.000, 0.000, 15:34:03.233
59, -129.20, -356.38, -427.09, -511.84, 0.000, 0.000, 0.000, 15:34:03.234
60, -113.59, -1.77, -366.18, -547.45, 0.000, 0.000, 0.000, 15:34:03.235
61, -225.57, -176.24, -312.64, -101.70, 0.000, 0.000, 0.000, 15:34:03.235
62, -155.35, -413.23, -401.52, -303.70, 0.000, 0.000, 0.000, 15:34:03.235
63, -107.10, -101.88, -391.19, -651.42, 0.000, 0.000, 0.000, 15:34:03.254
64, -205.01, -73.95, -311.65, -225.64, 0.000, 0.000, 0.000, 15:34:03.255
65, -197.66, -395.26, -366.26, -154.37, 0.000, 0.000, 0.000, 15:34:03.255
66, -96.59, -223.74, -422.65, -653.83, 0.000, 0.000, 0.000, 15:34:03.256
67, -179.41, -3.48, -328.64, -379.57, 0.000, 0.000, 0.000, 15:34:03.277
68, -220.95, -300.06, -334.02, -79.56, 0.000, 0.000, 0.000, 15:34:03.278
69, -127.37, -359.43, -423.39, -517.24, 0.000, 0.000, 0.000, 15:34:03.279
70, -136.93, -15.99, -366.84, -559.95, 0.000, 0.000, 0.000, 15:34:03.279
71, -222.29, -181.72, -321.97, -113.27, 0.000, 0.000, 0.000, 15:34:03.299
72, -173.28, -422.84, -408.07, -319.53, 0.000, 0.000, 0.000, 15:34:03.300
73, -98.36, -102.46, -403.22, -659.28, 0.000, 0.000, 0.000, 15:34:03.322
74, -205.46, -70.53, -314.59, -220.29, 0.000, 0.000, 0.000, 15:34:03.323
75, -213.16, -395.80, -366.64, -155.86, 0.000, 0.000, 0.000, 15:34:03.324
76, -98.12, -239.49, -425.00, -649.97, 0.000, 0.000, 0.000, 15:34:03.324
77, -179.89, -9.76, -337.82, -384.26, 0.000, 0.000, 0.000, 15:34:03.324
78, -222.92, -306.64, -332.22, -79.67, 0.000, 0.000, 0.000, 15:34:03.324
79, -134.26, -363.95, -427.87, -513.22, 0.000, 0.000, 0.000, 15:34:03.325
80, -129.10, -14.78, -364.89, -547.52, 0.000, 0.000, 0.000, 15:34:03.325
81, -224.60, -183.39, -320.23, -120.30, 0.000, 0.000, 0.000, 15:34:03.344
82, -173.31, -424.63, -411.08, -312.96, 0.000, 0.000, 0.000, 15:34:03.345
83, -100.65, -115.16, -399.15, -657.77, 0.000, 0.000, 0.000, 15:34:03.345
84, -216.11, -88.49, -331.31, -226.24, 0.000, 0.000, 0.000, 15:34:03.345
85, -206.57, -382.50, -370.03, -153.24, 0.000, 0.000, 0.000, 15:34:03.367
86, -88.63, -227.19, -427.12, -647.62, 0.000, 0.000, 0.000, 15:34:03.368
87, -186.94, -2.80, -339.29, -397.76, 0.000, 0.000, 0.000, 15:34:03.368
88, -215.89, -295.08, -335.04, -88.00, 0.000, 0.000, 0.000, 15:34:03.368
89, -130.24, -360.53, -430.40, -510.48, 0.000, 0.000, 0.000, 15:34:03.390
90, -132.93, -14.52, -356.74, -544.79, 0.000, 0.000, 0.000, 15:34:03.390
91, -225.74, -180.75, -313.89, -109.72, 0.000, 0.000, 0.000, 15:34:03.390
92, -180.91, -421.63, -410.69, -321.75, 0.000, 0.000, 0.000, 15:34:03.391
93, -100.38, -106.65, -392.43, -657.07, 0.000, 0.000, 0.000, 15:34:03.412
94, -200.91, -71.00, -311.85, -215.75, 0.000, 0.000, 0.000, 15:34:03.413
95, -221.05, -393.16, -384.14, -165.83, 0.000, 0.000, 0.000, 15:34:03.413
96, -90.58, -238.31, -424.11, -643.05, 0.000, 0.000, 0.000, 15:34:03.414
97, -180.15, -6.89, -342.71, -383.85, 0.000, 0.000, 0.000, 15:34:03.414
98, -225.29, -302.30, -338.93, -91.03, 0.000, 0.000, 0.000, 15:34:03.414
99, -141.96, -370.13, -431.38, -515.06, 0.000, 0.000, 0.000, 15:34:03.435
100, -149.38, -22.13, -379.57, -565.51, 0.000, 0.000, 0.000, 15:34:03.435
101, -215.51, -176.11, -312.49, -102.74, 0.000, 0.000, 0.000, 15:34:03.435
102, -201.02, -431.09, -425.74, -341.31, 0.000, 0.000, 0.000, 15:34:03.436
103, -91.35, -89.08, -392.58, -660.83, 0.000, 0.000, 0.000, 15:34:03.457
104, -207.83, -66.72, -312.52, -217.73, 0.000, 0.000, 0.000, 15:34:03.457
105, -214.37, -393.15, -380.51, -154.14, 0.000, 0.000, 0.000, 15:34:03.458
106, -98.59, -243.47, -430.13, -651.33, 0.000, 0.000, 0.000, 15:34:03.458
107, -180.31, -10.84, -340.19, -389.78, 0.000, 0.000, 0.000, 15:34:03.479
108, -211.26, -307.06, -335.60, -75.28, 0.000, 0.000, 0.000, 15:34:03.480
109, -143.05, -365.78, -438.97, -533.79, 0.000, 0.000, 0.000, 15:34:03.480
110, -153.66, -32.53, -391.18, -578.41, 0.000, 0.000, 0.000, 15:34:03.481
111, -213.05, -182.48, -321.47, -121.89, 0.000, 0.000, 0.000, 15:34:03.502
112, -160.03, -421.87, -402.06, -317.92, 0.000, 0.000, 0.000, 15:34:03.502
113, -122.29, -118.32, -427.87, -680.70, 0.000, 0.000, 0.000, 15:34:03.502
114, -199.76, -78.25, -326.54, -232.60, 0.000, 0.000, 0.000, 15:34:03.503
115, -195.11, -398.20, -366.44, -148.60, 0.000, 0.000, 0.000, 15:34:03.503
116, -122.62, -268.56, -442.81, -671.85, 0.000, 0.000, 0.000, 15:34:03.503
117, -147.26, 7.53, -323.89, -364.77, 0.000, 0.000, 0.000, 15:34:03.524
118, -233.72, -308.86, -360.01, -112.31, 0.000, 0.000, 0.000, 15:34:03.524
119, -143.22, -373.09, -449.60, -535.35, 0.000, 0.000, 0.000, 15:34:03.525
120, -99.28, -7.12, -355.98, -538.52, 0.000, 0.000, 0.000, 15:34:03.525
121, -229.45, -187.75, -316.80, -120.31, 0.000, 0.000, 0.000, 15:34:03.547
122, -183.03, -423.99, -406.51, -332.18, 0.000, 0.000, 0.000, 15:34:03.548
123, -77.57, -97.95, -376.13, -644.67, 0.000, 0.000, 0.000, 15:34:03.548
124, -218.00, -76.28, -323.50, -230.13, 0.000, 0.000, 0.000, 15:34:03.549
125, -217.80, -397.25, -371.42, -164.71, 0.000, 0.000, 0.000, 15:34:03.569
126, -83.03, -239.36, -425.98, -638.41, 0.000, 0.000, 0.000, 15:34:03.570
127, -178.56, -8.58, -349.38, -404.95, 0.000, 0.000, 0.000, 15:34:03.570
128, -245.21, -307.33, -350.40, -102.21, 0.000, 0.000, 0.000, 15:34:03.570
129, -139.16, -366.51, -443.94, -521.93, 0.000, 0.000, 0.000, 15:34:03.592
130, -126.11, -6.32, -367.11, -556.03, 0.000, 0.000, 0.000, 15:34:03.593
131, -246.19, -183.17, -333.40, -139.15, 0.000, 0.000, 0.000, 15:34:03.593
132, -194.71, -421.61, -421.53, -329.90, 0.000, 0.000, 0.000, 15:34:03.593
133, -84.53, -95.93, -385.69, -640.00, 0.000, 0.000, 0.000, 15:34:03.594
134, -227.17, -83.07, -318.85, -236.12, 0.000, 0.000, 0.000, 15:34:03.594
135, -227.50, -395.62, -377.20, -162.89, 0.000, 0.000, 0.000, 15:34:03.614
136, -64.18, -221.22, -416.06, -629.14, 0.000, 0.000, 0.000, 15:34:03.615
137, -192.07, -13.85, -340.75, -397.26, 0.000, 0.000, 0.000, 15:34:03.615
138, -244.83, -304.03, -348.12, -95.06, 0.000, 0.000, 0.000, 15:34:03.615
139, -98.11, -356.22, -412.51, -493.70, 0.000, 0.000, 0.000, 15:34:03.637
140, -195.48, -38.58, -405.67, -596.94, 0.000, 0.000, 0.000, 15:34:03.637
141, -180.39, -162.61, -296.62, -85.17, 0.000, 0.000, 0.000, 15:34:03.638
142, -236.47, -440.61, -437.13, -354.60, 0.000, 0.000, 0.000, 15:34:03.639
143, -83.97, -99.79, -392.71, -633.01, 0.000, 0.000, 0.000, 15:34:03.659
144, -229.57, -73.35, -323.15, -221.90, 0.000, 0.000, 0.000, 15:34:03.660
145, -236.67, -397.54, -381.99, -154.32, 0.000, 0.000, 0.000, 15:34:03.660
146, -78.12, -235.80, -418.39, -626.78, 0.000, 0.000, 0.000, 15:34:03.660
147, -219.69, -33.78, -355.02, -405.91, 0.000, 0.000, 0.000, 15:34:03.682
148, -163.24, -300.33, -320.86, -20.04, 0.000, 0.000, 0.000, 15:34:03.682
149, -166.69, -407.69, -473.33, -487.96, 0.000, 0.000, 0.000, 15:34:03.683
150, -49.90, -23.99, -372.08, -433.99, 0.000, 0.000, 0.000, 15:34:03.683
151, -213.17, -201.46, -363.83, -73.68, 0.000, 0.000, 0.000, 15:34:03.684
152, -118.50, -413.92, -440.52, -378.52, 0.000, 0.000, 0.000, 15:34:03.685
153, -49.00, -76.76, -405.74, -752.27, 0.000, 0.000, 0.000, 15:34:03.705
154, -201.12, -41.89, -328.30, -370.47, 0.000, 0.000, 0.000, 15:34:03.706
155, -174.84, -359.50, -331.44, -203.34, 0.000, 0.000, 0.000, 15:34:03.706
156, -131.98, -235.40, -406.01, -692.72, 0.000, 0.000, 0.000, 15:34:03.706
157, -149.64, 1.59, -291.53, -375.09, 0.000, 0.000, 0.000, 15:34:03.727
158, -265.04, -299.44, -328.73, -114.52, 0.000, 0.000, 0.000, 15:34:03.727
159, -120.88, -360.27, -403.22, -487.30, 0.000, 0.000, 0.000, 15:34:03.728
160, -141.25, -3.15, -347.47, -533.98, 0.000, 0.000, 0.000, 15:34:03.728
161, -246.27, -176.46, -306.61, -89.50, 0.000, 0.000, 0.000, 15:34:03.772
162, -168.81, -412.68, -395.48, -263.03, 0.000, 0.000, 0.000, 15:34:03.772
163, -121.27, -113.65, -405.37, -637.74, 0.000, 0.000, 0.000, 15:34:03.773
164, -209.72, -71.65, -323.62, -210.69, 0.000, 0.000, 0.000, 15:34:03.773
165, -212.31, -390.07, -370.19, -145.36, 0.000, 0.000, 0.000, 15:34:03.773
166, -121.03, -250.84, -435.18, -634.58, 0.000, 0.000, 0.000, 15:34:03.774
167, -182.62, -5.62, -361.42, -386.52, 0.000, 0.000, 0.000, 15:34:03.774
168, -237.49, -294.44, -351.18, -87.12, 0.000, 0.000, 0.000, 15:34:03.774
169, -124.85, -353.63, -428.65, -494.77, 0.000, 0.000, 0.000, 15:34:03.794
170, -131.89, -16.38, -368.22, -538.64, 0.000, 0.000, 0.000, 15:34:03.796
171, -238.96, -183.39, -326.44, -115.70, 0.000, 0.000, 0.000, 15:34:03.796
172, -187.16, -425.68, -414.24, -320.28, 0.000, 0.000, 0.000, 15:34:03.797
173, -100.49, -114.56, -409.00, -642.99, 0.000, 0.000, 0.000, 15:34:03.797
174, -204.92, -67.64, -332.79, -231.20, 0.000, 0.000, 0.000, 15:34:03.799
175, -212.60, -390.26, -382.60, -150.02, 0.000, 0.000, 0.000, 15:34:03.817
176, -97.22, -243.05, -439.39, -642.59, 0.000, 0.000, 0.000, 15:34:03.817
177, -165.64, 3.70, -342.21, -384.13, 0.000, 0.000, 0.000, 15:34:03.818
178, -222.33, -294.31, -354.79, -90.92, 0.000, 0.000, 0.000, 15:34:03.820
179, -136.30, -370.83, -441.09, -502.88, 0.000, 0.000, 0.000, 15:34:03.840
180, -138.52, -30.04, -366.96, -545.34, 0.000, 0.000, 0.000, 15:34:03.840
181, -218.68, -158.27, -320.61, -109.21, 0.000, 0.000, 0.000, 15:34:03.841
182, -167.91, -406.02, -412.16, -308.58, 0.000, 0.000, 0.000, 15:34:03.841
183, -101.82, -103.53, -410.98, -645.90, 0.000, 0.000, 0.000, 15:34:03.863
184, -195.48, -63.82, -326.66, -220.59, 0.000, 0.000, 0.000, 15:34:03.864
185, -211.64, -391.43, -374.87, -147.03, 0.000, 0.000, 0.000, 15:34:03.865
186, -91.68, -242.05, -429.22, -637.52, 0.000, 0.000, 0.000, 15:34:03.865
187, -163.95, -1.39, -332.01, -369.85, 0.000, 0.000, 0.000, 15:34:03.866
188, -219.85, -300.26, -349.15, -79.35, 0.000, 0.000, 0.000, 15:34:03.866
189, -123.18, -364.91, -445.31, -493.89, 0.000, 0.000, 0.000, 15:34:03.885
190, -120.14, -16.49, -374.31, -549.22, 0.000, 0.000, 0.000, 15:34:03.885
191, -217.80, -175.25, -323.68, -114.08, 0.000, 0.000, 0.000, 15:34:03.886
192, -166.74, -422.01, -419.12, -307.84, 0.000, 0.000, 0.000, 15:34:03.886
193, -91.76, -117.02, -415.32, -645.72, 0.000, 0.000, 0.000, 15:34:03.907
194, -199.13, -72.04, -330.38, -221.50, 0.000, 0.000, 0.000, 15:34:03.907
195, -202.66, -387.60, -378.96, -150.59, 0.000, 0.000, 0.000, 15:34:03.907
196, -90.06, -241.49, -441.69, -639.18, 0.000, 0.000, 0.000, 15:34:03.907
197, -169.17, -2.92, -358.91, -383.93, 0.000, 0.000, 0.000, 15:34:03.930
198, -221.69, -292.81, -354.70, -84.35, 0.000, 0.000, 0.000, 15:34:03.930
199, -125.89, -367.80, -454.07, -514.80, 0.000, 0.000, 0.000, 15:34:03.931
200, -100.14, -15.27, -383.18, -540.80, 0.000, 0.000, 0.000, 15:34:03.931
0, -225.97, -188.83, -352.90, -135.15, 0.000, 0.000, 0.000, 15:34:03.932
1, -173.30, -423.57, -425.22, -320.80, 0.000, 0.000, 0.000, 15:34:03.953
2, -75.21, -109.23, -416.68, -654.81, 0.000, 0.000, 0.000, 15:34:03.953
3, -217.04, -76.04, -350.25, -254.67, 0.000, 0.000, 0.000, 15:34:03.953
4, -184.51, -378.04, -379.93, -150.68, 0.000, 0.000, 0.000, 15:34:03.954
5, -102.28, -248.22, -459.87, -663.73, 0.000, 0.000, 0.000, 15:34:03.974
6, -157.61, 6.58, -346.21, -398.93, 0.000, 0.000, 0.000, 15:34:03.975
7, -218.63, -291.48, -347.39, -111.70, 0.000, 0.000, 0.000, 15:34:03.975
8, -151.78, -368.44, -438.63, -541.50, 0.000, 0.000, 0.000, 15:34:03.976
9, -86.83, 0.65, -341.35, -548.18, 0.000, 0.000, 0.000, 15:34:03.997
10, -272.72, -186.21, -338.67, -179.14, 0.000, 0.000, 0.000, 15:34:03.997
11, -132.96, -404.19, -385.17, -307.42, 0.000, 0.000, 0.000, 15:34:03.998
12, -138.28, -124.98, -426.56, -702.36, 0.000, 0.000, 0.000, 15:34:03.998
13, -190.22, -55.33, -291.24, -232.52, 0.000, 0.000, 0.000, 15:34:03.998
14, -230.07, -389.01, -363.21, -180.11, 0.000, 0.000, 0.000, 15:34:03.999
15, -106.56, -241.19, -414.24, -641.80, 0.000, 0.000, 0.000, 15:34:04.019
16, -173.04, -1.01, -323.44, -412.13, 0.000, 0.000, 0.000, 15:34:04.019
17, -253.81, -303.03, -330.46, -109.37, 0.000, 0.000, 0.000, 15:34:04.042
18, -127.61, -363.19, -405.14, -513.06, 0.000, 0.000, 0.000, 15:34:04.042
19, -172.69, -25.79, -376.83, -587.68, 0.000, 0.000, 0.000, 15:34:04.043
20, -199.40, -167.01, -300.08, -122.66, 0.000, 0.000, 0.000, 15:34:04.043
21, -229.53, -439.42, -422.34, -368.71, 0.000, 0.000, 0.000, 15:34:04.043
22, -70.12, -101.70, -376.74, -629.52, 0.000, 0.000, 0.000, 15:34:04.043
23, -250.99, -88.61, -328.80, -253.66, 0.000, 0.000, 0.000, 15:34:04.064
24, -196.54, -384.62, -349.66, -141.67, 0.000, 0.000, 0.000, 15:34:04.065
25, -118.49, -256.45, -415.91, -653.14, 0.000, 0.000, 0.000, 15:34:04.065
26, -161.70, -8.13, -322.78, -381.47, 0.000, 0.000, 0.000, 15:34:04.065
27, -235.42, -309.84, -340.27, -99.60, 0.000, 0.000, 0.000, 15:34:04.087
28, -160.60, -360.54, -419.65, -513.96, 0.000, 0.000, 0.000, 15:34:04.087
29, -90.91, -1.61, -337.90, -524.53, 0.000, 0.000, 0.000, 15:34:04.087
30, -294.19, -198.85, -339.50, -163.90, 0.000, 0.000, 0.000, 15:34:04.088
31, -129.20, -406.91, -382.36, -281.41, 0.000, 0.000, 0.000, 15:34:04.088
32, -157.21, -130.38, -421.45, -684.54, 0.000, 0.000, 0.000, 15:34:04.088
33, -167.57, -55.21, -290.22, -194.03, 0.000, 0.000, 0.000, 15:34:04.111
34, -245.72, -388.17, -359.56, -165.09, 0.000, 0.000, 0.000, 15:34:04.111
35, -72.00, -237.57, -392.58, -609.57, 0.000, 0.000, 0.000, 15:34:04.112
36, -184.35, -6.13, -339.53, -383.87, 0.000, 0.000, 0.000, 15:34:04.112
37, -238.17, -297.56, -334.98, -81.10, 0.000, 0.000, 0.000, 15:34:04.132
38, -127.65, -354.07, -414.14, -498.58, 0.000, 0.000, 0.000, 15:34:04.132
39, -138.18, -13.49, -358.70, -553.13, 0.000, 0.000, 0.000, 15:34:04.133
40, -226.29, -166.18, -321.18, -117.12, 0.000, 0.000, 0.000, 15:34:04.133
41, -181.17, -418.86, -399.96, -315.62, 0.000, 0.000, 0.000, 15:34:04.155
42, -105.80, -115.49, -393.30, -648.12, 0.000, 0.000, 0.000, 15:34:04.155
43, -208.61, -61.41, -315.74, -232.76, 0.000, 0.000, 0.000, 15:34:04.156
44, -223.56, -394.60, -377.80, -166.61, 0.000, 0.000, 0.000, 15:34:04.156
45, -104.00, -257.83, -431.93, -645.98, 0.000, 0.000, 0.000, 15:34:04.177
46, -173.72, -18.52, -335.11, -393.39, 0.000, 0.000, 0.000, 15:34:04.177
47, -231.59, -296.80, -349.94, -95.09, 0.000, 0.000, 0.000, 15:34:04.178
48, -143.22, -367.68, -450.84, -519.15, 0.000, 0.000, 0.000, 15:34:04.178
49, -122.18, -17.62, -370.00, -554.64, 0.000, 0.000, 0.000, 15:34:04.180
50, -245.48, -186.10, -338.11, -143.95, 0.000, 0.000, 0.000, 15:34:04.180
51, -168.43, -418.15, -409.43, -307.00, 0.000, 0.000, 0.000, 15:34:04.199
52, -122.95, -123.07, -417.23, -668.98, 0.000, 0.000, 0.000, 15:34:04.200
53, -198.04, -68.75, -318.66, -236.86, 0.000, 0.000, 0.000, 15:34:04.200
54, -227.89, -385.60, -369.97, -164.86, 0.000, 0.000, 0.000, 15:34:04.200
55, -121.91, -243.40, -430.41, -651.49, 0.000, 0.000, 0.000, 15:34:04.223
56, -129.90, 11.76, -317.84, -363.51, 0.000, 0.000, 0.000, 15:34:04.223
57, -263.97, -307.47, -356.19, -126.22, 0.000, 0.000, 0.000, 15:34:04.223
58, -145.52, -378.11, -446.76, -526.17, 0.000, 0.000, 0.000, 15:34:04.224
59, -74.85, -6.07, -340.08, -516.07, 0.000, 0.000, 0.000, 15:34:04.248
60, -325.23, -219.27, -378.56, -203.82, 0.000, 0.000, 0.000, 15:34:04.248
61, -120.59, -407.69, -378.76, -284.92, 0.000, 0.000, 0.000, 15:34:04.248
62, -65.65, -102.82, -374.53, -620.31, 0.000, 0.000, 0.000, 15:34:04.249
63, -274.91, -77.84, -342.46, -270.01, 0.000, 0.000, 0.000, 15:34:04.268
64, -190.85, -373.46, -353.41, -143.69, 0.000, 0.000, 0.000, 15:34:04.269
65, -86.11, -237.18, -412.36, -626.82, 0.000, 0.000, 0.000, 15:34:04.269
66, -147.01, 10.06, -307.78, -368.22, 0.000, 0.000, 0.000, 15:34:04.269
67, -259.22, -298.57, -358.15, -115.32, 0.000, 0.000, 0.000, 15:34:04.269
68, -152.33, -378.83, -453.58, -528.51, 0.000, 0.000, 0.000, 15:34:04.270
69, -96.68, -12.76, -350.61, -522.03, 0.000, 0.000, 0.000, 15:34:04.292
70, -302.04, -205.72, -371.15, -195.42, 0.000, 0.000, 0.000, 15:34:04.292
71, -112.18, -395.84, -371.22, -269.08, 0.000, 0.000, 0.000, 15:34:04.293
72, -201.13, -149.10, -461.81, -734.61, 0.000, 0.000, 0.000, 15:34:04.293
73, -133.39, -38.91, -287.11, -183.24, 0.000, 0.000, 0.000, 15:34:04.312
74, -275.10, -405.13, -398.00, -191.26, 0.000, 0.000, 0.000, 15:34:04.312
75, -44.58, -237.98, -401.92, -610.72, 0.000, 0.000, 0.000, 15:34:04.313
76, -216.47, -22.95, -372.74, -436.34, 0.000, 0.000, 0.000, 15:34:04.314
77, -227.44, -304.71, -341.92, -94.77, 0.000, 0.000, 0.000, 15:34:04.334
78, -111.60, -365.36, -419.48, -493.03, 0.000, 0.000, 0.000, 15:34:04.335
79, -165.14, -18.47, -382.36, -590.58, 0.000, 0.000, 0.000, 15:34:04.335
80, -150.99, -136.30, -286.54, -64.69, 0.000, 0.000, 0.000, 15:34:04.335
81, -265.43, -448.67, -454.69, -375.51, 0.000, 0.000, 0.000, 15:34:04.357
82, -17.45, -88.08, -364.15, -601.66, 0.000, 0.000, 0.000, 15:34:04.357
83, -266.77, -91.13, -358.33, -275.40, 0.000, 0.000, 0.000, 15:34:04.358
84, -178.63, -375.65, -349.36, -128.27, 0.000, 0.000, 0.000, 15:34:04.358
85, -72.42, -237.57, -396.89, -612.37, 0.000, 0.000, 0.000, 15:34:04.360
86, -224.12, -17.43, -362.67, -427.07, 0.000, 0.000, 0.000, 15:34:04.360
87, -159.71, -275.22, -305.76, -45.25, 0.000, 0.000, 0.000, 15:34:04.379
88, -214.09, -402.04, -467.25, -567.38, 0.000, 0.000, 0.000, 15:34:04.379
89, -66.84, 5.86, -336.00, -508.04, 0.000, 0.000, 0.000, 15:34:04.380
90, -262.54, -178.57, -342.24, -145.88, 0.000, 0.000, 0.000, 15:34:04.380
91, -168.49, -415.22, -397.17, -303.82, 0.000, 0.000, 0.000, 15:34:04.402
92, -70.73, -111.33, -388.01, -634.07, 0.000, 0.000, 0.000, 15:34:04.403
93, -264.23, -86.56, -355.52, -276.31, 0.000, 0.000, 0.000, 15:34:04.403
94, -133.54, -361.79, -329.49, -103.93, 0.000, 0.000, 0.000, 15:34:04.403
95, -189.10, -284.59, -476.30, -704.37, 0.000, 0.000, 0.000, 15:34:04.424
96, -89.57, 19.42, -298.52, -341.87, 0.000, 0.000, 0.000, 15:34:04.424
97, -296.33, -314.63, -370.67, -142.33, 0.000, 0.000, 0.000, 15:34:04.425
98, -89.60, -347.40, -400.08, -471.79, 0.000, 0.000, 0.000, 15:34:04.426
99, -159.23, -33.37, -387.46, -578.82, 0.000, 0.000, 0.000, 15:34:04.447
100, -227.89, -171.60, -319.74, -126.17, 0.000, 0.000, 0.000, 15:34:04.448
101, -165.84, -422.40, -400.10, -298.32, 0.000, 0.000, 0.000, 15:34:04.449
102, -133.83, -139.13, -430.46, -690.28, 0.000, 0.000, 0.000, 15:34:04.449
103, -166.85, -53.81, -294.35, -206.97, 0.000, 0.000, 0.000, 15:34:04.449
104, -275.81, -394.05, -404.76, -204.65, 0.000, 0.000, 0.000, 15:34:04.450
105, -43.30, -213.90, -397.29, -596.13, 0.000, 0.000, 0.000, 15:34:04.469
106, -235.32, -15.32, -371.84, -445.17, 0.000, 0.000, 0.000, 15:34:04.470
107, -189.62, -272.91, -308.12, -52.94, 0.000, 0.000, 0.000, 15:34:04.470
108, -181.66, -382.75, -451.99, -536.22, 0.000, 0.000, 0.000, 15:34:04.470
109, -79.19, -5.18, -342.51, -522.43, 0.000, 0.000, 0.000, 15:34:04.492
110, -261.51, -181.89, -327.94, -140.97, 0.000, 0.000, 0.000, 15:34:04.492
111, -142.10, -412.99, -391.97, -291.93, 0.000, 0.000, 0.000, 15:34:04.493
112, -137.04, -131.03, -439.51, -684.30, 0.000, 0.000, 0.000, 15:34:04.493
113, -160.14, -51.71, -301.97, -204.96, 0.000, 0.000, 0.000, 15:34:04.514
114, -265.04, -403.19, -396.75, -194.04, 0.000, 0.000, 0.000, 15:34:04.515
115, -66.94, -236.24, -416.03, -606.65, 0.000, 0.000, 0.000, 15:34:04.515
116, -183.49, -4.87, -346.92, -396.59, 0.000, 0.000, 0.000, 15:34:04.516
117, -233.11, -290.01, -334.34, -94.04, 0.000, 0.000, 0.000, 15:34:04.537
118, -121.42, -363.59, -414.48, -489.64, 0.000, 0.000, 0.000, 15:34:04.538
119, -131.36, -15.34, -360.61, -557.11, 0.000, 0.000, 0.000, 15:34:04.538
120, -223.50, -167.12, -322.85, -124.49, 0.000, 0.000, 0.000, 15:34:04.538
121, -170.18, -410.16, -404.24, -308.98, 0.000, 0.000, 0.000, 15:34:04.539
122, -99.38, -106.46, -400.28, -646.41, 0.000, 0.000, 0.000, 15:34:04.539
123, -205.40, -62.04, -322.56, -229.30, 0.000, 0.000, 0.000, 15:34:04.561
124, -214.30, -386.13, -364.85, -157.20, 0.000, 0.000, 0.000, 15:34:04.561
125, -97.52, -248.21, -425.72, -643.16, 0.000, 0.000, 0.000, 15:34:04.562
126, -170.48, 3.89, -343.48, -389.98, 0.000, 0.000, 0.000, 15:34:04.562
127, -224.12, -286.53, -351.31, -89.62, 0.000, 0.000, 0.000, 15:34:04.582
128, -133.56, -365.23, -427.73, -492.58, 0.000, 0.000, 0.000, 15:34:04.582
129, -124.59, -10.17, -373.16, -546.18, 0.000, 0.000, 0.000, 15:34:04.583
130, -230.48, -173.24, -328.85, -132.16, 0.000, 0.000, 0.000, 15:34:04.583
131, -183.87, -422.88, -403.84, -317.60, 0.000, 0.000, 0.000, 15:34:04.605
132, -102.90, -121.17, -412.49, -662.88, 0.000, 0.000, 0.000, 15:34:04.605
133, -209.32, -67.89, -316.92, -242.23, 0.000, 0.000, 0.000, 15:34:04.605
134, -207.64, -386.74, -382.18, -155.80, 0.000, 0.000, 0.000, 15:34:04.606
135, -100.16, -251.47, -429.56, -638.06, 0.000, 0.000, 0.000, 15:34:04.628
136, -188.68, -6.01, -337.32, -400.04, 0.000, 0.000, 0.000, 15:34:04.628
137, -237.78, -289.70, -329.87, -90.08, 0.000, 0.000, 0.000, 15:34:04.628
138, -130.75, -373.26, -420.20, -492.57, 0.000, 0.000, 0.000, 15:34:04.628
139, -123.57, -12.50, -374.91, -558.29, 0.000, 0.000, 0.000, 15:34:04.629
140, -217.59, -162.78, -302.06, -120.60, 0.000, 0.000, 0.000, 15:34:04.629
141, -182.43, -423.83, -385.45, -302.64, 0.000, 0.000, 0.000, 15:34:04.649
142, -99.35, -101.02, -397.26, -652.59, 0.000, 0.000, 0.000, 15:34:04.649
143, -209.21, -54.52, -305.77, -230.15, 0.000, 0.000, 0.000, 15:34:04.672
144, -209.54, -382.38, -348.75, -144.88, 0.000, 0.000, 0.000, 15:34:04.673
145, -88.77, -244.89, -409.14, -629.42, 0.000, 0.000, 0.000, 15:34:04.673
146, -166.84, 1.73, -323.32, -390.66, 0.000, 0.000, 0.000, 15:34:04.673
147, -230.34, -290.97, -327.63, -82.67, 0.000, 0.000, 0.000, 15:34:04.674
148, -143.56, -376.51, -425.06, -496.53, 0.000, 0.000, 0.000, 15:34:04.674
149, -132.42, -28.22, -367.56, -580.24, 0.000, 0.000, 0.000, 15:34:04.695
150, -226.04, -176.24, -326.31, -142.45, 0.000, 0.000, 0.000, 15:34:04.695
151, -177.22, -424.23, -404.35, -321.45, 0.000, 0.000, 0.000, 15:34:04.695
152, -107.67, -120.76, -413.31, -660.88, 0.000, 0.000, 0.000, 15:34:04.695
153, -210.70, -62.71, -340.50, -248.01, 0.000, 0.000, 0.000, 15:34:04.717
154, -216.54, -386.14, -360.55, -160.48, 0.000, 0.000, 0.000, 15:34:04.737
155, -105.19, -250.40, -433.47, -654.06, 0.000, 0.000, 0.000, 15:34:04.737
156, -186.16, -1.73, -353.67, -423.81, 0.000, 0.000, 0.000, 15:34:04.737
157, -244.30, -295.20, -340.95, -107.41, 0.000, 0.000, 0.000, 15:34:04.738
158, -139.10, -374.52, -433.42, -497.05, 0.000, 0.000, 0.000, 15:34:04.738
159, -127.07, -14.03, -374.89, -555.09, 0.000, 0.000, 0.000, 15:34:04.739
160, -224.98, -160.32, -318.62, -127.34, 0.000, 0.000, 0.000, 15:34:04.740
161, -150.05, -407.39, -386.16, -283.61, 0.000, 0.000, 0.000, 15:34:04.740
162, -98.97, -114.88, -401.91, -651.12, 0.000, 0.000, 0.000, 15:34:04.740
163, -202.82, -62.71, -318.10, -234.34, 0.000, 0.000, 0.000, 15:34:04.762
164, -227.57, -399.14, -370.37, -152.56, 0.000, 0.000, 0.000, 15:34:04.762
165, -92.05, -232.28, -412.45, -629.68, 0.000, 0.000, 0.000, 15:34:04.763
166, -153.12, 15.21, -320.89, -372.22, 0.000, 0.000, 0.000, 15:34:04.763
167, -233.62, -286.62, -326.96, -89.22, 0.000, 0.000, 0.000, 15:34:04.784
168, -137.37, -366.01, -414.78, -492.18, 0.000, 0.000, 0.000, 15:34:04.784
169, -128.95, -13.11, -360.14, -559.81, 0.000, 0.000, 0.000, 15:34:04.785
170, -222.42, -170.98, -322.31, -127.06, 0.000, 0.000, 0.000, 15:34:04.785
171, -178.64, -420.84, -397.64, -297.54, 0.000, 0.000, 0.000, 15:34:04.806
172, -105.93, -109.12, -415.15, -644.59, 0.000, 0.000, 0.000, 15:34:04.807
173, -210.55, -63.08, -323.42, -220.42, 0.000, 0.000, 0.000, 15:34:04.807
174, -222.13, -389.48, -377.12, -134.87, 0.000, 0.000, 0.000, 15:34:04.807
175, -118.55, -258.19, -431.41, -641.76, 0.000, 0.000, 0.000, 15:34:04.808
176, -154.27, -4.59, -347.41, -383.28, 0.000, 0.000, 0.000, 15:34:04.808
177, -235.13, -310.75, -354.60, -71.08, 0.000, 0.000, 0.000, 15:34:04.829
178, -110.98, -392.82, -448.82, -427.21, 0.000, 0.000, 0.000, 15:34:04.830
179, -99.19, -46.55, -412.86, -479.76, 0.000, 0.000, 0.000, 15:34:04.830
180, -189.03, -173.80, -370.94, -114.26, 0.000, 0.000, 0.000, 15:34:04.830
181, -147.35, -415.44, -444.47, -410.35, 0.000, 0.000, 0.000, 15:34:04.852
182, -54.52, -85.77, -419.19, -775.89, 0.000, 0.000, 0.000, 15:34:04.853
183, -194.22, -35.76, -319.76, -344.53, 0.000, 0.000, 0.000, 15:34:04.853
184, -232.33, -371.39, -346.91, -207.95, 0.000, 0.000, 0.000, 15:34:04.854
185, -73.72, -229.74, -387.92, -627.38, 0.000, 0.000, 0.000, 15:34:04.874
186, -239.64, -10.03, -338.38, -443.11, 0.000, 0.000, 0.000, 15:34:04.875
187, -213.01, -284.10, -307.46, -99.14, 0.000, 0.000, 0.000, 15:34:04.875
188, -203.13, -394.34, -439.19, -524.97, 0.000, 0.000, 0.000, 15:34:04.875
189, -99.57, -20.84, -343.84, -520.94, 0.000, 0.000, 0.000, 15:34:04.897
190, -291.17, -185.54, -324.13, -126.27, 0.000, 0.000, 0.000, 15:34:04.897
191, -150.12, -411.42, -373.67, -245.43, 0.000, 0.000, 0.000, 15:34:04.897
192, -141.17, -121.38, -427.48, -657.08, 0.000, 0.000, 0.000, 15:34:04.898
193, -183.86, -47.64, -316.79, -206.16, 0.000, 0.000, 0.000, 15:34:04.920
194, -248.58, -391.09, -389.61, -159.09, 0.000, 0.000, 0.000, 15:34:04.921
195, -68.77, -248.05, -416.65, -592.52, 0.000, 0.000, 0.000, 15:34:04.921
196, -192.20, -12.37, -362.77, -409.88, 0.000, 0.000, 0.000, 15:34:04.921
197, -207.69, -282.65, -340.24, -70.76, 0.000, 0.000, 0.000, 15:34:04.921
198, -161.02, -377.23, -449.47, -506.93, 0.000, 0.000, 0.000, 15:34:04.922
199, -103.93, -18.14, -376.74, -538.45, 0.000, 0.000, 0.000, 15:34:04.942
200, -255.18, -179.92, -356.41, -152.68, 0.000, 0.000, 0.000, 15:34:04.942
0, -160.08, -413.30, -398.66, -289.82, 0.000, 0.000, 0.000, 15:34:04.942
1, -113.60, -138.17, -424.18, -680.20, 0.000, 0.000, 0.000, 15:34:04.943
2, -184.78, -52.37, -326.47, -223.73, 0.000, 0.000, 0.000, 15:34:04.943
3, -229.08, -395.60, -390.76, -156.98, 0.000, 0.000, 0.000, 15:34:04.964
4, -69.96, -247.85, -423.41, -623.55, 0.000, 0.000, 0.000, 15:34:04.964
5, -179.21, -9.05, -369.30, -410.62, 0.000, 0.000, 0.000, 15:34:04.965
6, -220.54, -283.97, -342.51, -88.21, 0.000, 0.000, 0.000, 15:34:04.965
7, -140.39, -378.92, -448.94, -515.24, 0.000, 0.000, 0.000, 15:34:04.987
8, -117.63, -22.44, -381.05, -557.85, 0.000, 0.000, 0.000, 15:34:04.987
9, -213.18, -167.24, -322.93, -126.08, 0.000, 0.000, 0.000, 15:34:04.988
10, -177.77, -427.36, -420.49, -308.76, 0.000, 0.000, 0.000, 15:34:04.988
11, -76.67, -123.24, -416.50, -645.78, 0.000, 0.000, 0.000, 15:34:05.009
12, -219.60, -78.69, -344.84, -252.79, 0.000, 0.000, 0.000, 15:34:05.010
13, -186.89, -375.46, -356.86, -128.85, 0.000, 0.000, 0.000, 15:34:05.010
14, -120.93, -263.30, -461.91, -660.14, 0.000, 0.000, 0.000, 15:34:05.010
15, -143.42, 4.88, -346.70, -389.32, 0.000, 0.000, 0.000, 15:34:05.032
16, -241.96, -295.84, -357.87, -102.36, 0.000, 0.000, 0.000, 15:34:05.033
17, -139.41, -368.00, -445.88, -493.58, 0.000, 0.000, 0.000, 15:34:05.033
18, -105.61, -15.72, -367.22, -546.67, 0.000, 0.000, 0.000, 15:34:05.034
19, -233.36, -160.04, -337.13, -122.35, 0.000, 0.000, 0.000, 15:34:05.034
20, -184.08, -423.08, -418.95, -292.53, 0.000, 0.000, 0.000, 15:34:05.035
21, -89.23, -119.83, -416.91, -640.84, 0.000, 0.000, 0.000, 15:34:05.054
22, -182.72, -55.31, -320.60, -220.05, 0.000, 0.000, 0.000, 15:34:05.054
23, -208.57, -374.92, -374.16, -142.80, 0.000, 0.000, 0.000, 15:34:05.055
24, -101.55, -252.33, -445.79, -634.06, 0.000, 0.000, 0.000, 15:34:05.055
25, -160.53, 5.57, -356.67, -391.12, 0.000, 0.000, 0.000, 15:34:05.077
26, -216.94, -284.05, -344.11, -77.71, 0.000, 0.000, 0.000, 15:34:05.078
27, -107.28, -360.41, -427.34, -473.13, 0.000, 0.000, 0.000, 15:34:05.078
28, -124.52, -24.83, -388.63, -557.50, 0.000, 0.000, 0.000, 15:34:05.078
29, -215.25, -150.75, -326.64, -123.71, 0.000, 0.000, 0.000, 15:34:05.099
30, -151.47, -408.63, -393.56, -282.64, 0.000, 0.000, 0.000, 15:34:05.100
31, -92.60, -116.33, -418.64, -649.38, 0.000, 0.000, 0.000, 15:34:05.100
32, -190.74, -54.12, -322.51, -230.86, 0.000, 0.000, 0.000, 15:34:05.100
33, -197.14, -377.72, -383.15, -147.58, 0.000, 0.000, 0.000, 15:34:05.122
34, -87.59, -249.31, -437.39, -636.61, 0.000, 0.000, 0.000, 15:34:05.122
35, -154.82, 0.51, -349.82, -403.00, 0.000, 0.000, 0.000, 15:34:05.122
36, -217.55, -282.20, -338.53, -97.28, 0.000, 0.000, 0.000, 15:34:05.123
37, -128.72, -358.02, -430.22, -509.82, 0.000, 0.000, 0.000, 15:34:05.123
38, -113.48, -5.62, -369.74, -572.30, 0.000, 0.000, 0.000, 15:34:05.123
39, -223.08, -156.98, -320.87, -148.03, 0.000, 0.000, 0.000, 15:34:05.145
40, -175.97, -415.91, -404.24, -330.36, 0.000, 0.000, 0.000, 15:34:05.145
41, -108.86, -122.31, -414.08, -687.10, 0.000, 0.000, 0.000, 15:34:05.146
42, -214.80, -67.25, -328.73, -276.98, 0.000, 0.000, 0.000, 15:34:05.146
43, -214.78, -376.69, -352.07, -160.25, 0.000, 0.000, 0.000, 15:34:05.167
44, -123.30, -266.94, -428.67, -663.81, 0.000, 0.000, 0.000, 15:34:05.167
45, -176.17, -0.78, -335.28, -426.63, 0.000, 0.000, 0.000, 15:34:05.168
46, -233.44, -287.64, -325.21, -101.62, 0.000, 0.000, 0.000, 15:34:05.168
47, -163.60, -393.53, -439.14, -520.74, 0.000, 0.000, 0.000, 15:34:05.189
48, -111.97, -23.33, -352.85, -560.99, 0.000, 0.000, 0.000, 15:34:05.190
49, -258.72, -176.02, -332.33, -168.72, 0.000, 0.000, 0.000, 15:34:05.190
50, -186.15, -423.69, -391.19, -304.01, 0.000, 0.000, 0.000, 15:34:05.190
51, -103.65, -126.82, -403.49, -675.02, 0.000, 0.000, 0.000, 15:34:05.212
52, -269.08, -74.17, -340.26, -279.31, 0.000, 0.000, 0.000, 15:34:05.212
53, -158.73, -364.93, -329.50, -109.17, 0.000, 0.000, 0.000, 15:34:05.212
54, -179.37, -290.13, -459.96, -684.73, 0.000, 0.000, 0.000, 15:34:05.213
55, -124.79, 10.96, -307.52, -369.41, 0.000, 0.000, 0.000, 15:34:05.213
56, -271.69, -297.76, -340.36, -111.59, 0.000, 0.000, 0.000, 15:34:05.213
57, -114.93, -365.47, -403.11, -462.54, 0.000, 0.000, 0.000, 15:34:05.234
58, -154.56, -25.97, -373.26, -576.46, 0.000, 0.000, 0.000, 15:34:05.235
59, -207.82, -151.96, -302.55, -113.11, 0.000, 0.000, 0.000, 15:34:05.235
60, -186.46, -412.15, -395.29, -297.42, 0.000, 0.000, 0.000, 15:34:05.235
61, -104.51, -117.64, -404.48, -646.47, 0.000, 0.000, 0.000, 15:34:05.257
62, -200.02, -57.35, -314.46, -238.33, 0.000, 0.000, 0.000, 15:34:05.257
63, -224.23, -385.03, -363.67, -136.29, 0.000, 0.000, 0.000, 15:34:05.257
64, -101.99, -256.89, -429.08, -631.97, 0.000, 0.000, 0.000, 15:34:05.259
65, -166.11, -0.31, -343.04, -405.04, 0.000, 0.000, 0.000, 15:34:05.279
66, -237.63, -296.56, -331.03, -83.95, 0.000, 0.000, 0.000, 15:34:05.280
67, -130.83, -369.98, -417.95, -487.94, 0.000, 0.000, 0.000, 15:34:05.280
68, -134.06, -18.27, -374.67, -568.30, 0.000, 0.000, 0.000, 15:34:05.280
69, -226.41, -167.98, -321.25, -138.39, 0.000, 0.000, 0.000, 15:34:05.303
70, -187.65, -420.17, -409.52, -309.67, 0.000, 0.000, 0.000, 15:34:05.304
71, -106.98, -128.86, -410.70, -665.50, 0.000, 0.000, 0.000, 15:34:05.304
72, -212.33, -63.26, -334.76, -256.34, 0.000, 0.000, 0.000, 15:34:05.304
73, -226.48, -391.88, -379.43, -164.56, 0.000, 0.000, 0.000, 15:34:05.307
74, -104.42, -273.94, -435.79, -631.29, 0.000, 0.000, 0.000, 15:34:05.307
75, -181.55, -4.15, -342.26, -412.05, 0.000, 0.000, 0.000, 15:34:05.325
76, -229.90, -280.78, -334.43, -88.73, 0.000, 0.000, 0.000, 15:34:05.326
77, -134.56, -371.63, -425.87, -485.52, 0.000, 0.000, 0.000, 15:34:05.326
78, -145.47, -26.43, -387.16, -584.76, 0.000, 0.000, 0.000, 15:34:05.326
79, -231.70, -175.86, -333.01, -158.25, 0.000, 0.000, 0.000, 15:34:05.347
80, -186.68, -425.90, -416.31, -307.59, 0.000, 0.000, 0.000, 15:34:05.347
81, -117.78, -120.94, -421.37, -677.16, 0.000, 0.000, 0.000, 15:34:05.348
82, -210.62, -60.14, -328.81, -249.02, 0.000, 0.000, 0.000, 15:34:05.348
83, -216.44, -385.30, -361.15, -144.79, 0.000, 0.000, 0.000, 15:34:05.369
84, -97.73, -260.37, -422.84, -625.55, 0.000, 0.000, 0.000, 15:34:05.369
85, -178.68, 0.68, -351.71, -424.58, 0.000, 0.000, 0.000, 15:34:05.370
86, -243.72, -282.68, -340.41, -95.66, 0.000, 0.000, 0.000, 15:34:05.370
87, -144.01, -375.52, -432.08, -488.50, 0.000, 0.000, 0.000, 15:34:05.391
88, -130.75, -23.69, -377.87, -563.40, 0.000, 0.000, 0.000, 15:34:05.392
89, -214.95, -162.09, -312.46, -129.64, 0.000, 0.000, 0.000, 15:34:05.392
90, -186.12, -422.51, -404.93, -288.48, 0.000, 0.000, 0.000, 15:34:05.392
91, -110.20, -123.79, -414.53, -662.80, 0.000, 0.000, 0.000, 15:34:05.393
92, -199.66, -60.78, -325.63, -254.49, 0.000, 0.000, 0.000, 15:34:05.393
93, -192.89, -374.25, -356.27, -129.42, 0.000, 0.000, 0.000, 15:34:05.414
94, -89.71, -253.92, -430.26, -630.00, 0.000, 0.000, 0.000, 15:34:05.414
95, -182.64, -6.56, -347.50, -412.72, 0.000, 0.000, 0.000, 15:34:05.415
96, -233.24, -285.46, -341.14, -101.07, 0.000, 0.000, 0.000, 15:34:05.415
97, -129.43, -373.17, -426.08, -477.06, 0.000, 0.000, 0.000, 15:34:05.437
98, -101.83, -17.36, -369.87, -558.24, 0.000, 0.000, 0.000, 15:34:05.437
99, -228.98, -166.85, -322.32, -135.28, 0.000, 0.000, 0.000, 15:34:05.437
100, -194.35, -424.32, -406.63, -305.34, 0.000, 0.000, 0.000, 15:34:05.437
101, -102.98, -125.40, -405.28, -656.08, 0.000, 0.000, 0.000, 15:34:05.460
102, -200.90, -60.23, -311.59, -238.42, 0.000, 0.000, 0.000, 15:34:05.460
103, -198.43, -370.85, -360.57, -138.69, 0.000, 0.000, 0.000, 15:34:05.462
104, -104.09, -256.23, -429.35, -626.56, 0.000, 0.000, 0.000, 15:34:05.462
105, -179.42, -3.68, -357.00, -420.87, 0.000, 0.000, 0.000, 15:34:05.482
106, -236.43, -284.03, -336.42, -105.88, 0.000, 0.000, 0.000, 15:34:05.482
107, -137.48, -376.63, -427.67, -489.89, 0.000, 0.000, 0.000, 15:34:05.483
108, -111.60, -19.77, -369.05, -558.84, 0.000, 0.000, 0.000, 15:34:05.483
109, -219.37, -161.73, -313.29, -139.03, 0.000, 0.000, 0.000, 15:34:05.483
110, -191.60, -428.65, -407.21, -298.15, 0.000, 0.000, 0.000, 15:34:05.484
111, -109.15, -126.79, -411.39, -657.42, 0.000, 0.000, 0.000, 15:34:05.504
112, -210.96, -59.55, -330.04, -259.93, 0.000, 0.000, 0.000, 15:34:05.504
113, -213.29, -385.33, -369.75, -152.38, 0.000, 0.000, 0.000, 15:34:05.505
114, -90.18, -254.43, -423.79, -625.92, 0.000, 0.000, 0.000, 15:34:05.505
115, -162.65, 0.91, -343.77, -411.53, 0.000, 0.000, 0.000, 15:34:05.527
116, -244.20, -293.21, -347.57, -105.45, 0.000, 0.000, 0.000, 15:34:05.528
117, -158.84, -380.44, -437.90, -492.34, 0.000, 0.000, 0.000, 15:34:05.528
118, -136.47, -28.23, -389.13, -581.77, 0.000, 0.000, 0.000, 15:34:05.528
119, -219.94, -163.85, -321.44, -129.52, 0.000, 0.000, 0.000, 15:34:05.549
120, -170.54, -415.70, -407.41, -287.00, 0.000, 0.000, 0.000, 15:34:05.550
121, -88.99, -122.57, -409.47, -661.38, 0.000, 0.000, 0.000, 15:34:05.550
122, -216.67, -64.48, -336.80, -265.85, 0.000, 0.000, 0.000, 15:34:05.550
123, -235.52, -382.58, -375.99, -155.68, 0.000, 0.000, 0.000, 15:34:05.572
124, -104.10, -268.55, -431.95, -636.99, 0.000, 0.000, 0.000, 15:34:05.572
125, -162.32, -0.03, -353.51, -414.32, 0.000, 0.000, 0.000, 15:34:05.572
126, -209.98, -270.04, -322.28, -74.57, 0.000, 0.000, 0.000, 15:34:05.573
127, -137.70, -377.21, -432.74, -494.28, 0.000, 0.000, 0.000, 15:34:05.573
128, -141.29, -35.76, -387.00, -585.85, 0.000, 0.000, 0.000, 15:34:05.573
129, -226.58, -173.33, -321.43, -133.82, 0.000, 0.000, 0.000, 15:34:05.594
130, -172.40, -425.13, -401.20, -298.69, 0.000, 0.000, 0.000, 15:34:05.595
131, -78.29, -109.13, -403.14, -648.98, 0.000, 0.000, 0.000, 15:34:05.595
132, -210.98, -55.52, -342.48, -265.34, 0.000, 0.000, 0.000, 15:34:05.596
133, -238.24, -389.07, -376.65, -157.14, 0.000, 0.000, 0.000, 15:34:05.617
134, -109.64, -258.41, -429.24, -629.77, 0.000, 0.000, 0.000, 15:34:05.617
135, -144.71, 7.32, -335.64, -390.07, 0.000, 0.000, 0.000, 15:34:05.617
136, -238.21, -302.38, -345.70, -103.55, 0.000, 0.000, 0.000, 15:34:05.618
137, -157.67, -405.45, -449.57, -501.33, 0.000, 0.000, 0.000, 15:34:05.639
138, -117.57, -8.42, -381.59, -568.13, 0.000, 0.000, 0.000, 15:34:05.640
139, -232.07, -162.42, -333.90, -145.37, 0.000, 0.000, 0.000, 15:34:05.640
140, -180.03, -406.66, -400.44, -285.46, 0.000, 0.000, 0.000, 15:34:05.640
141, -93.62, -126.23, -416.40, -666.60, 0.000, 0.000, 0.000, 15:34:05.662
142, -195.23, -55.60, -330.70, -255.11, 0.000, 0.000, 0.000, 15:34:05.662
143, -209.56, -376.24, -368.26, -148.10, 0.000, 0.000, 0.000, 15:34:05.663
144, -121.86, -261.96, -435.39, -633.10, 0.000, 0.000, 0.000, 15:34:05.663
145, -167.19, 4.19, -338.42, -415.84, 0.000, 0.000, 0.000, 15:34:05.663
146, -221.84, -277.21, -321.72, -83.43, 0.000, 0.000, 0.000, 15:34:05.663
147, -161.29, -376.09, -422.69, -475.20, 0.000, 0.000, 0.000, 15:34:05.684
148, -144.31, -27.54, -391.54, -592.18, 0.000, 0.000, 0.000, 15:34:05.684
149, -224.40, -162.85, -332.52, -150.67, 0.000, 0.000, 0.000, 15:34:05.686
150, -178.79, -420.80, -408.78, -286.06, 0.000, 0.000, 0.000, 15:34:05.686
151, -94.89, -129.55, -410.55, -651.41, 0.000, 0.000, 0.000, 15:34:05.707
152, -198.00, -56.69, -331.50, -249.85, 0.000, 0.000, 0.000, 15:34:05.707
153, -229.81, -380.29, -382.84, -152.10, 0.000, 0.000, 0.000, 15:34:05.707
154, -108.60, -259.50, -450.12, -643.92, 0.000, 0.000, 0.000, 15:34:05.708
155, -182.74, -2.22, -348.09, -421.28, 0.000, 0.000, 0.000, 15:34:05.729
156, -219.48, -281.18, -333.19, -84.38, 0.000, 0.000, 0.000, 15:34:05.729
157, -137.56, -375.85, -430.97, -480.19, 0.000, 0.000, 0.000, 15:34:05.730
158, -141.89, -26.20, -387.35, -581.59, 0.000, 0.000, 0.000, 15:34:05.730
159, -240.74, -157.11, -316.50, -139.38, 0.000, 0.000, 0.000, 15:34:05.752
160, -197.28, -413.23, -383.06, -282.98, 0.000, 0.000, 0.000, 15:34:05.752
161, -75.62, -118.28, -399.19, -644.67, 0.000, 0.000, 0.000, 15:34:05.752
162, -176.71, -53.76, -329.43, -249.17, 0.000, 0.000, 0.000, 15:34:05.753
163, -196.50, -381.02, -366.33, -136.01, 0.000, 0.000, 0.000, 15:34:05.753
164, -84.84, -254.48, -419.95, -604.26, 0.000, 0.000, 0.000, 15:34:05.753
165, -151.03, 8.52, -340.64, -393.16, 0.000, 0.000, 0.000, 15:34:05.775
166, -214.59, -284.03, -337.74, -103.33, 0.000, 0.000, 0.000, 15:34:05.776
167, -138.09, -378.96, -429.22, -500.83, 0.000, 0.000, 0.000, 15:34:05.779
168, -113.93, -24.30, -385.20, -569.15, 0.000, 0.000, 0.000, 15:34:05.779
169, -214.57, -153.96, -317.89, -126.52, 0.000, 0.000, 0.000, 15:34:05.797
170, -171.65, -411.44, -390.23, -289.46, 0.000, 0.000, 0.000, 15:34:05.797
171, -117.17, -127.77, -423.56, -670.95, 0.000, 0.000, 0.000, 15:34:05.797
172, -192.88, -60.74, -346.49, -241.57, 0.000, 0.000, 0.000, 15:34:05.797
173, -203.33, -387.01, -378.17, -137.55, 0.000, 0.000, 0.000, 15:34:05.819
174, -104.80, -254.26, -440.14, -643.73, 0.000, 0.000, 0.000, 15:34:05.820
175, -184.46, 7.07, -344.65, -401.31, 0.000, 0.000, 0.000, 15:34:05.820
176, -309.76, -287.96, -344.82, -106.06, 0.000, 0.000, 0.000, 15:34:05.820
177, -157.61, -380.02, -434.32, -516.84, 0.000, 0.000, 0.000, 15:34:05.842
178, -65.79, -31.83, -381.12, -550.58, 0.000, 0.000, 0.000, 15:34:05.843
179, -194.56, -155.06, -309.43, -116.16, 0.000, 0.000, 0.000, 15:34:05.844
180, -132.96, -414.67, -385.99, -288.76, 0.000, 0.000, 0.000, 15:34:05.845
181, -50.83, -124.36, -414.88, -653.15, 0.000, 0.000, 0.000, 15:34:05.845
182, -196.71, -54.02, -333.40, -238.92, 0.000, 0.000, 0.000, 15:34:05.845
183, -211.50, -385.06, -377.09, -149.23, 0.000, 0.000, 0.000, 15:34:05.864
184, -103.97, -251.12, -436.63, -637.05, 0.000, 0.000, 0.000, 15:34:05.864
185, -128.83, 3.61, -341.51, -347.40, 0.000, 0.000, 0.000, 15:34:05.865
186, -226.63, -290.35, -349.08, -73.39, 0.000, 0.000, 0.000, 15:34:05.865
187, -127.38, -341.53, -476.90, -761.26, 0.000, 0.000, 0.000, 15:34:05.887
188, -137.70, -36.90, -301.68, -334.55, 0.000, 0.000, 0.000, 15:34:05.887
189, -294.85, -215.76, -317.87, 148.74, 0.000, 0.000, 0.000, 15:34:05.887
190, -216.20, -400.07, -543.09, -699.76, 0.000, 0.000, 0.000, 15:34:05.888
191, -85.72, -58.35, -393.27, -876.00, 0.000, 0.000, 0.000, 15:34:05.909
192, -210.66, -98.57, -200.15, -739.28, 0.000, 0.000, 0.000, 15:34:05.910
193, -262.02, -420.04, -467.77, -1231.98, 0.000, 0.000, 0.000, 15:34:05.910
194, 35.36, -139.42, -496.27, -2185.67, 0.000, 0.000, 0.000, 15:34:05.910
195, -171.75, -5.50, -163.55, -1923.96, 0.000, 0.000, 0.000, 15:34:05.932
196, -300.33, -378.51, -322.45, -1703.76, 0.000, 0.000, 0.000, 15:34:05.932
197, -75.09, -300.51, -602.07, -2092.58, 0.000, 0.000, 0.000, 15:34:05.933
198, -96.64, 47.92, -248.28, -1462.29, 0.000, 0.000, 0.000, 15:34:05.933
199, -332.86, -263.25, -219.18, -545.87, 0.000, 0.000, 0.000, 15:34:05.933
200, -203.74, -417.11, -582.02, -701.03, 0.000, 0.000, 0.000, 15:34:05.933
0, 11.66, 2.80, -402.07, -1024.75, 0.000, 0.000, 0.000, 15:34:05.954
1, -227.81, -125.60, -143.23, -548.11, 0.000, 0.000, 0.000, 15:34:05.977
2, -259.78, -448.42, -479.62, -1117.31, 0.000, 0.000, 0.000, 15:34:05.978
3, -17.21, -126.80, -578.81, -1347.25, 0.000, 0.000, 0.000, 15:34:05.978
4, -166.27, -12.69, -133.98, -868.65, 0.000, 0.000, 0.000, 15:34:05.978
5, -347.99, -407.36, -338.42, -685.76, 0.000, 0.000, 0.000, 15:34:05.983
6, -43.08, -301.30, -653.68, -1204.24, 0.000, 0.000, 0.000, 15:34:05.984
7, -14.97, 41.29, -222.57, -377.81, 0.000, 0.000, 0.000, 15:34:05.984
8, -319.52, -300.33, -216.52, -331.66, 0.000, 0.000, 0.000, 15:34:05.984
9, -123.41, -421.67, -652.20, -714.83, 0.000, 0.000, 0.000, 15:34:05.999
10, 54.62, 35.41, -450.32, -1189.18, 0.000, 0.000, 0.000, 15:34:06.000
11, -216.50, -127.50, -89.93, -530.20, 0.000, 0.000, 0.000, 15:34:06.000
12, -268.33, -446.39, -491.48, -1238.25, 0.000, 0.000, 0.000, 15:34:06.001
13, 78.50, -84.34, -595.23, -1599.72, 0.000, 0.000, 0.000, 15:34:06.023
14, -154.91, 16.45, -33.34, -820.75, 0.000, 0.000, 0.000, 15:34:06.023
15, -462.22, -437.03, -297.53, -596.47, 0.000, 0.000, 0.000, 15:34:06.023
16, -43.87, -260.85, -674.19, -1351.59, 0.000, 0.000, 0.000, 15:34:06.024
17, -55.61, 49.21, -203.83, -507.53, 0.000, 0.000, 0.000, 15:34:06.044
18, -338.37, -306.37, -109.50, -229.05, 0.000, 0.000, 0.000, 15:34:06.045
19, -222.22, -434.80, -692.33, -816.72, 0.000, 0.000, 0.000, 15:34:06.045
20, 116.23, 56.60, -421.77, -1166.29, 0.000, 0.000, 0.000, 15:34:06.045
21, -364.59, -189.15, -72.17, -320.60, 0.000, 0.000, 0.000, 15:34:06.067
22, -333.25, -469.87, -516.45, -1086.78, 0.000, 0.000, 0.000, 15:34:06.067
23, 14.97, -70.60, -682.00, -1648.50, 0.000, 0.000, 0.000, 15:34:06.067
24, -188.60, -13.08, -42.41, -694.06, 0.000, 0.000, 0.000, 15:34:06.068
25, -363.07, -441.96, -324.09, -517.15, 0.000, 0.000, 0.000, 15:34:06.069
26, -48.43, -262.68, -789.56, -1484.13, 0.000, 0.000, 0.000, 15:34:06.069
27, 27.79, 89.36, -177.78, -1412.26, 0.000, 0.000, 0.000, 15:34:06.089
28, -457.30, -351.04, -172.73, -1238.88, 0.000, 0.000, 0.000, 15:34:06.090
29, -181.24, -391.57, -685.85, -1844.99, 0.000, 0.000, 0.000, 15:34:06.090
30, 113.68, 65.85, -435.08, -2220.32, 0.000, 0.000, 0.000, 15:34:06.090
31, -301.22, -175.52, -34.28, -2210.08, 0.000, 0.000, 0.000, 15:34:06.114
32, -353.82, -470.06, -519.14, -3061.82, 0.000, 0.000, 0.000, 15:34:06.115
33, 82.61, -57.35, -676.58, -3632.82, 0.000, 0.000, 0.000, 15:34:06.115
34, -165.47, -27.83, -40.58, -3622.01, 0.000, 0.000, 0.000, 15:34:06.115
35, -395.16, -453.12, -329.18, -3459.61, 0.000, 0.000, 0.000, 15:34:06.134
36, -11.99, -247.21, -757.26, -4437.92, 0.000, 0.000, 0.000, 15:34:06.135
37, 7.95, 73.51, -172.64, -4382.08, 0.000, 0.000, 0.000, 15:34:06.135
38, -369.22, -334.38, -136.50, -4114.75, 0.000, 0.000, 0.000, 15:34:06.135
39, -218.02, -397.01, -720.16, -4816.54, 0.000, 0.000, 0.000, 15:34:06.157
40, 58.47, 73.04, -426.14, -5183.16, 0.000, 0.000, 0.000, 15:34:06.158
41, -320.05, -181.10, -18.09, -5120.04, 0.000, 0.000, 0.000, 15:34:06.158
42, -257.72, -467.68, -540.28, -6006.93, 0.000, 0.000, 0.000, 15:34:06.158
43, 97.19, -49.72, -652.95, -6583.96, 0.000, 0.000, 0.000, 15:34:06.160
44, -193.38, -21.55, -29.55, -6519.05, 0.000, 0.000, 0.000, 15:34:06.160
45, -433.24, -445.34, -338.03, -6391.37, 0.000, 0.000, 0.000, 15:34:06.179
46, -87.34, -228.12, -783.23, -6467.17, 0.000, 0.000, 0.000, 15:34:06.179
47, -29.52, 72.92, -186.42, -6334.14, 0.000, 0.000, 0.000, 15:34:06.180
48, -329.08, -338.75, -148.26, -6061.18, 0.000, 0.000, 0.000, 15:34:06.180
49, -137.03, -399.59, -736.11, -6782.20, 0.000, 0.000, 0.000, 15:34:06.201
50, 91.17, 70.19, -440.61, -7143.68, 0.000, 0.000, 0.000, 15:34:06.202
51, -393.61, -190.68, -17.34, -7065.32, 0.000, 0.000, 0.000, 15:34:06.202
52, -320.91, -478.94, -556.07, -7989.04, 0.000, 0.000, 0.000, 15:34:06.202
53, 142.76, -44.53, -718.44, -8571.32, 0.000, 0.000, 0.000, 15:34:06.224
54, -114.89, -32.58, -28.01, -8432.18, 0.000, 0.000, 0.000, 15:34:06.224
55, -397.35, -460.31, -363.29, -8356.29, 0.000, 0.000, 0.000, 15:34:06.225
56, -6.96, -227.17, -813.38, -8425.63, 0.000, 0.000, 0.000, 15:34:06.225
57, -92.38, 57.75, -198.94, -8324.90, 0.000, 0.000, 0.000, 15:34:06.247
58, -335.19, -325.26, -111.73, -7978.23, 0.000, 0.000, 0.000, 15:34:06.247
59, -148.62, -407.35, -750.16, -8769.93, 0.000, 0.000, 0.000, 15:34:06.247
60, 125.17, 77.56, -418.55, -9097.94, 0.000, 0.000, 0.000, 15:34:06.248
61, -321.16, -196.40, 12.11, -8972.85, 0.000, 0.000, 0.000, 15:34:06.249
62, -394.05, -474.81, -541.54, -8991.82, 0.000, 0.000, 0.000, 15:34:06.249
63, 99.83, -44.71, -686.19, -9601.43, 0.000, 0.000, 0.000, 15:34:06.269
64, -129.03, -19.04, 23.30, -9407.56, 0.000, 0.000, 0.000, 15:34:06.269
65, -412.23, -462.73, -349.76, -9340.28, 0.000, 0.000, 0.000, 15:34:06.270
66, 81.07, -215.71, -813.34, -9430.09, 0.000, 0.000, 0.000, 15:34:06.270
67, -97.14, 66.72, -167.21, -9302.89, 0.000, 0.000, 0.000, 15:34:06.293
68, -366.17, -326.98, -96.35, -8959.05, 0.000, 0.000, 0.000, 15:34:06.294
69, -183.71, -422.24, -776.41, -9836.64, 0.000, 0.000, 0.000, 15:34:06.294
70, 165.62, 90.57, -417.42, -10111.23, 0.000, 0.000, 0.000, 15:34:06.295
71, -337.94, -195.05, 39.21, -9963.93, 0.000, 0.000, 0.000, 15:34:06.314
72, -362.97, -481.92, -540.83, -9981.17, 0.000, 0.000, 0.000, 15:34:06.315
73, 116.93, -22.35, -644.06, -10586.48, 0.000, 0.000, 0.000, 15:34:06.315
74, -254.45, -29.06, 81.63, -10380.99, 0.000, 0.000, 0.000, 15:34:06.315
75, -401.34, -454.57, -290.34, -10294.96, 0.000, 0.000, 0.000, 15:34:06.338
76, 69.18, -223.00, -765.37, -10416.33, 0.000, 0.000, 0.000, 15:34:06.338
77, -59.50, 75.22, -97.16, -10244.61, 0.000, 0.000, 0.000, 15:34:06.338
78, -413.55, -350.99, -70.09, -9926.28, 0.000, 0.000, 0.000, 15:34:06.339
79, -231.17, -396.52, -731.88, -10780.07, 0.000, 0.000, 0.000, 15:34:06.339
80, 118.06, 72.89, -407.10, -11094.40, 0.000, 0.000, 0.000, 15:34:06.340
81, -350.89, -202.92, 67.44, -10909.88, 0.000, 0.000, 0.000, 15:34:06.360
82, -354.33, -483.19, -560.42, -10958.72, 0.000, 0.000, 0.000, 15:34:06.361
83, 147.71, -32.86, -717.81, -11582.57, 0.000, 0.000, 0.000, 15:34:06.361
84, -283.67, -34.79, 28.96, -11381.21, 0.000, 0.000, 0.000, 15:34:06.361
85, -511.87, -458.87, -313.92, -11297.05, 0.000, 0.000, 0.000, 15:34:06.382
86, 95.97, -220.46, -787.69, -11387.34, 0.000, 0.000, 0.000, 15:34:06.382
87, 17.83, 70.11, -96.70, -11173.01, 0.000, 0.000, 0.000, 15:34:06.382
88, -477.34, -362.07, -75.11, -10894.35, 0.000, 0.000, 0.000, 15:34:06.383
89, -226.24, -396.12, -753.22, -11779.25, 0.000, 0.000, 0.000, 15:34:06.404
90, 129.17, 78.70, -401.27, -12040.21, 0.000, 0.000, 0.000, 15:34:06.404
91, -313.40, -211.50, 65.96, -11859.04, 0.000, 0.000, 0.000, 15:34:06.405
92, -297.89, -481.54, -579.70, -11940.17, 0.000, 0.000, 0.000, 15:34:06.405
93, 119.14, -34.11, -732.84, -12585.44, 0.000, 0.000, 0.000, 15:34:06.427
94, -261.74, -42.29, 31.89, -12330.50, 0.000, 0.000, 0.000, 15:34:06.428
95, -481.80, -470.00, -344.07, -12281.16, 0.000, 0.000, 0.000, 15:34:06.428
96, 55.89, -226.71, -861.74, -12438.73, 0.000, 0.000, 0.000, 15:34:06.429
97, -50.08, 58.48, -161.82, -12181.84, 0.000, 0.000, 0.000, 15:34:06.429
98, -443.23, -363.25, -103.84, -11883.33, 0.000, 0.000, 0.000, 15:34:06.429
99, -121.19, -401.57, -814.32, -12785.22, 0.000, 0.000, 0.000, 15:34:06.449
100, 119.89, 78.75, -430.40, -13045.43, 0.000, 0.000, 0.000, 15:34:06.450
101, -481.29, -214.42, 33.42, -12868.25, 0.000, 0.000, 0.000, 15:34:06.472
102, -303.77, -476.44, -596.33, -12939.45, 0.000, 0.000, 0.000, 15:34:06.472
103, 236.30, -31.31, -713.22, -13538.81, 0.000, 0.000, 0.000, 15:34:06.472
104, -219.52, -50.70, 89.59, -13256.81, 0.000, 0.000, 0.000, 15:34:06.473
105, -438.87, -463.98, -329.12, -13234.76, 0.000, 0.000, 0.000, 15:34:06.473
106, -3.71, -217.95, -872.91, -13455.51, 0.000, 0.000, 0.000, 15:34:06.473
107, -77.66, 75.90, -95.26, -13134.40, 0.000, 0.000, 0.000, 15:34:06.496
108, -410.14, -374.74, -120.44, -12857.11, 0.000, 0.000, 0.000, 15:34:06.496
109, -78.77, -379.75, -813.12, -13773.29, 0.000, 0.000, 0.000, 15:34:06.497
110, 121.53, 74.88, -445.73, -14040.32, 0.000, 0.000, 0.000, 15:34:06.497
111, -414.95, -203.13, 40.46, -13839.32, 0.000, 0.000, 0.000, 15:34:06.521
112, -324.75, -482.00, -674.51, -13952.74, 0.000, 0.000, 0.000, 15:34:06.521
113, 184.28, -19.50, -781.99, -14551.86, 0.000, 0.000, 0.000, 15:34:06.521
114, -266.94, -52.40, 52.73, -14277.85, 0.000, 0.000, 0.000, 15:34:06.522
115, -468.51, -460.85, -326.49, -14232.14, 0.000, 0.000, 0.000, 15:34:06.522
116, 33.43, -217.19, -857.24, -14431.18, 0.000, 0.000, 0.000, 15:34:06.523
117, 33.28, 73.69, -73.76, -14081.39, 0.000, 0.000, 0.000, 15:34:06.540
118, -447.11, -363.13, -65.95, -13826.22, 0.000, 0.000, 0.000, 15:34:06.540
119, -207.97, -382.06, -792.11, -14751.10, 0.000, 0.000, 0.000, 15:34:06.540
120, 96.19, 85.73, -405.08, -15021.21, 0.000, 0.000, 0.000, 15:34:06.541
121, -294.69, -216.38, 72.26, -14792.84, 0.000, 0.000, 0.000, 15:34:06.562
122, -306.17, -476.45, -612.33, -14916.36, 0.000, 0.000, 0.000, 15:34:06.562
123, 196.57, -26.80, -741.67, -15531.74, 0.000, 0.000, 0.000, 15:34:06.562
124, -224.91, -51.26, 78.78, -15239.32, 0.000, 0.000, 0.000, 15:34:06.562
125, -464.59, -464.57, -338.46, -15192.76, 0.000, 0.000, 0.000, 15:34:06.584
126, 53.86, -205.84, -899.86, -15413.58, 0.000, 0.000, 0.000, 15:34:06.585
127, -75.47, 75.00, -111.93, -15113.52, 0.000, 0.000, 0.000, 15:34:06.585
128, -423.35, -355.28, -68.57, -14800.15, 0.000, 0.000, 0.000, 15:34:06.585
129, -72.99, -378.85, -766.78, -15673.81, 0.000, 0.000, 0.000, 15:34:06.607
130, 55.60, 85.34, -392.70, -15980.27, 0.000, 0.000, 0.000, 15:34:06.608
131, -400.84, -197.93, 75.56, -15759.17, 0.000, 0.000, 0.000, 15:34:06.608
132, -231.91, -466.30, -611.20, -15860.34, 0.000, 0.000, 0.000, 15:34:06.609
133, 183.29, -28.64, -746.50, -16519.90, 0.000, 0.000, 0.000, 15:34:06.609
134, -225.09, -34.48, 138.48, -16168.99, 0.000, 0.000, 0.000, 15:34:06.609
135, -520.55, -464.72, -327.17, -16176.22, 0.000, 0.000, 0.000, 15:34:06.629
136, 120.46, -203.46, -862.56, -16370.51, 0.000, 0.000, 0.000, 15:34:06.629
137, 32.19, 78.70, -70.70, -16055.25, 0.000, 0.000, 0.000, 15:34:06.630
138, -411.35, -369.15, -75.44, -15774.50, 0.000, 0.000, 0.000, 15:34:06.630
139, -62.19, -372.90, -805.09, -16691.93, 0.000, 0.000, 0.000, 15:34:06.652
140, 158.83, 77.89, -419.59, -16992.81, 0.000, 0.000, 0.000, 15:34:06.652
141, -438.50, -207.63, 89.06, -16737.66, 0.000, 0.000, 0.000, 15:34:06.652
142, -319.01, -464.57, -608.78, -16882.06, 0.000, 0.000, 0.000, 15:34:06.653
143, 235.48, -19.87, -744.46, -17491.88, 0.000, 0.000, 0.000, 15:34:06.674
144, -246.64, -44.61, 70.75, -17181.76, 0.000, 0.000, 0.000, 15:34:06.675
145, -427.61, -460.27, -362.48, -17166.84, 0.000, 0.000, 0.000, 15:34:06.675
146, 28.15, -205.69, -928.91, -17390.99, 0.000, 0.000, 0.000, 15:34:06.675
147, -50.87, 74.33, -84.30, -17069.08, 0.000, 0.000, 0.000, 15:34:06.696
148, -453.87, -360.65, -66.80, -16751.46, 0.000, 0.000, 0.000, 15:34:06.697
149, -103.51, -375.82, -853.62, -17687.36, 0.000, 0.000, 0.000, 15:34:06.697
150, 181.42, 73.83, -443.31, -17977.20, 0.000, 0.000, 0.000, 15:34:06.697
151, -335.18, -207.28, 93.34, -17708.83, 0.000, 0.000, 0.000, 15:34:06.698
152, -322.21, -489.35, -628.12, -17850.84, 0.000, 0.000, 0.000, 15:34:06.698
153, 140.11, -21.96, -748.58, -18502.17, 0.000, 0.000, 0.000, 15:34:06.719
154, -324.29, -53.10, 125.61, -18191.58, 0.000, 0.000, 0.000, 15:34:06.719
155, -345.51, -451.56, -319.26, -18098.97, 0.000, 0.000, 0.000, 15:34:06.720
156, 52.60, -231.28, -936.87, -18394.81, 0.000, 0.000, 0.000, 15:34:06.720
157, 70.31, 79.91, -59.26, -18004.70, 0.000, 0.000, 0.000, 15:34:06.744
158, -452.00, -388.53, -112.03, -17761.49, 0.000, 0.000, 0.000, 15:34:06.744
159, -98.37, -367.66, -848.26, -18656.54, 0.000, 0.000, 0.000, 15:34:06.745
160, 100.04, 67.67, -427.89, -18977.72, 0.000, 0.000, 0.000, 15:34:06.745
161, -374.04, -200.44, 115.70, -18675.60, 0.000, 0.000, 0.000, 15:34:06.764
162, -449.23, -491.58, -663.71, -18864.48, 0.000, 0.000, 0.000, 15:34:06.765
163, 305.64, -15.26, -747.81, -19456.26, 0.000, 0.000, 0.000, 15:34:06.765
164, -192.99, -62.70, 121.28, -19147.88, 0.000, 0.000, 0.000, 15:34:06.765
165, -400.84, -454.74, -316.92, -19070.12, 0.000, 0.000, 0.000, 15:34:06.787
166, 8.46, -220.92, -946.19, -19379.64, 0.000, 0.000, 0.000, 15:34:06.787
167, 6.26, 86.75, -92.46, -19020.66, 0.000, 0.000, 0.000, 15:34:06.787
168, -554.99, -370.78, -101.52, -18752.47, 0.000, 0.000, 0.000, 15:34:06.788
169, 8.21, -372.49, -829.44, -19623.88, 0.000, 0.000, 0.000, 15:34:06.788
170, 219.22, 86.29, -409.92, -19917.89, 0.000, 0.000, 0.000, 15:34:06.789
171, -392.88, -203.67, 110.14, -19669.88, 0.000, 0.000, 0.000, 15:34:06.809
172, -346.59, -471.65, -614.93, -19798.23, 0.000, 0.000, 0.000, 15:34:06.809
173, 199.74, -29.54, -770.71, -20467.63, 0.000, 0.000, 0.000, 15:34:06.810
174, -240.64, -37.74, 121.53, -20124.78, 0.000, 0.000, 0.000, 15:34:06.810
175, -443.39, -467.03, -351.58, -20103.84, 0.000, 0.000, 0.000, 15:34:06.832
176, 149.90, -208.24, -900.62, -20298.15, 0.000, 0.000, 0.000, 15:34:06.832
177, -63.73, 70.44, -82.16, -20020.49, 0.000, 0.000, 0.000, 15:34:06.832
178, -473.29, -356.76, -76.62, -19698.94, 0.000, 0.000, 0.000, 15:34:06.832
179, -96.44, -389.99, -875.30, -20661.02, 0.000, 0.000, 0.000, 15:34:06.854
180, 265.64, 88.12, -432.96, -20896.56, 0.000, 0.000, 0.000, 15:34:06.855
181, -354.59, -214.15, 91.96, -20663.44, 0.000, 0.000, 0.000, 15:34:06.855
182, -269.45, -473.53, -579.96, -20737.28, 0.000, 0.000, 0.000, 15:34:06.855
183, 220.08, -38.52, -722.63, -21415.55, 0.000, 0.000, 0.000, 15:34:06.877
184, -215.08, -40.70, 123.18, -21102.18, 0.000, 0.000, 0.000, 15:34:06.877
185, -538.74, -462.33, -358.31, -21084.32, 0.000, 0.000, 0.000, 15:34:06.878
186, 18.28, -213.28, -906.82, -21303.67, 0.000, 0.000, 0.000, 15:34:06.879
187, 27.08, 82.12, -86.98, -20992.45, 0.000, 0.000, 0.000, 15:34:06.879
188, -341.78, -357.75, -90.48, -20665.71, 0.000, 0.000, 0.000, 15:34:06.879
189, -82.70, -383.31, -839.17, -21590.46, 0.000, 0.000, 0.000, 15:34:06.899
190, 169.86, 77.29, -441.82, -21906.29, 0.000, 0.000, 0.000, 15:34:06.899
191, -428.39, -196.44, 75.26, -21650.21, 0.000, 0.000, 0.000, 15:34:06.900
192, -282.96, -476.49, -636.11, -21767.17, 0.000, 0.000, 0.000, 15:34:06.900
193, 321.07, -41.34, -759.92, -22398.83, 0.000, 0.000, 0.000, 15:34:06.921
194, -210.19, -41.07, 105.96, -22086.14, 0.000, 0.000, 0.000, 15:34:06.922
195, -552.37, -478.04, -395.69, -22091.76, 0.000, 0.000, 0.000, 15:34:06.944
196, -39.50, -211.72, -937.74, -22319.73, 0.000, 0.000, 0.000, 15:34:06.944
197, 42.03, 77.45, -87.99, -21962.35, 0.000, 0.000, 0.000, 15:34:06.945
198, -418.79, -374.89, -106.57, -21677.31, 0.000, 0.000, 0.000, 15:34:06.945
199, -68.13, -383.55, -848.78, -22558.87, 0.000, 0.000, 0.000, 15:34:06.945
200, 223.37, 72.74, -442.44, -22873.74, 0.000, 0.000, 0.000, 15:34:06.946
0, -302.83, -217.11, 75.57, 901.77, 0.000, 0.000, 0.000, 15:34:06.946
1, -217.72, -470.82, -577.47, 858.21, 0.000, 0.000, 0.000, 15:34:06.967
2, 250.57, -29.61, -741.46, 172.60, 0.000, 0.000, 0.000, 15:34:06.967
3, -277.91, -46.61, 91.42, 448.30, 0.000, 0.000, 0.000, 15:34:06.967
4, -556.18, -449.75, -344.59, 490.19, 0.000, 0.000, 0.000, 15:34:06.968
5, 100.41, -207.09, -916.03, 270.18, 0.000, 0.000, 0.000, 15:34:06.989
6, 134.25, 67.57, -94.73, 592.15, 0.000, 0.000, 0.000, 15:34:06.989
7, -393.78, -357.55, -93.46, 898.70, 0.000, 0.000, 0.000, 15:34:06.992
8, -152.10, -376.07, -868.35, -35.10, 0.000, 0.000, 0.000, 15:34:06.993
9, 111.71, 87.68, -447.63, -357.13, 0.000, 0.000, 0.000, 15:34:07.012
10, -299.09, -206.87, 69.97, -84.03, 0.000, 0.000, 0.000, 15:34:07.012
11, -205.49, -462.59, -616.81, -145.70, 0.000, 0.000, 0.000, 15:34:07.012
12, 220.78, -41.23, -773.82, -845.96, 0.000, 0.000, 0.000, 15:34:07.013
13, -297.57, -25.42, 83.44, -526.06, 0.000, 0.000, 0.000, 15:34:07.013
14, -403.47, -446.94, -364.87, -473.99, 0.000, 0.000, 0.000, 15:34:07.013
15, 101.45, -214.40, -939.00, -714.13, 0.000, 0.000, 0.000, 15:34:07.035
16, -140.68, 88.64, -104.10, -450.19, 0.000, 0.000, 0.000, 15:34:07.035
17, -475.72, -342.83, -85.14, -90.85, 0.000, 0.000, 0.000, 15:34:07.036
18, 7.14, -386.85, -840.99, -991.89, 0.000, 0.000, 0.000, 15:34:07.036
19, 202.72, 85.37, -408.93, -1276.55, 0.000, 0.000, 0.000, 15:34:07.057
20, -354.78, -200.31, 111.56, -1037.74, 0.000, 0.000, 0.000, 15:34:07.057
21, -260.15, -472.27, -580.99, -1114.16, 0.000, 0.000, 0.000, 15:34:07.057
22, 232.94, -37.03, -760.81, -1809.26, 0.000, 0.000, 0.000, 15:34:07.057
23, -163.21, -38.12, 108.17, -1504.69, 0.000, 0.000, 0.000, 15:34:07.079
24, -446.14, -466.27, -347.67, -1448.81, 0.000, 0.000, 0.000, 15:34:07.079
25, -56.53, -227.04, -933.03, -1718.72, 0.000, 0.000, 0.000, 15:34:07.103
26, -112.98, 59.15, -114.84, -1446.47, 0.000, 0.000, 0.000, 15:34:07.103
27, -312.10, -349.08, -83.70, -1025.54, 0.000, 0.000, 0.000, 15:34:07.104
28, 2.66, -402.82, -878.56, -1989.60, 0.000, 0.000, 0.000, 15:34:07.104
29, 193.43, 65.89, -459.81, -2312.05, 0.000, 0.000, 0.000, 15:34:07.104
30, -382.19, -201.24, 97.33, -2019.74, 0.000, 0.000, 0.000, 15:34:07.104
31, -296.41, -473.25, -645.54, -2112.82, 0.000, 0.000, 0.000, 15:34:07.105
32, 214.46, -57.09, -815.79, -2835.32, 0.000, 0.000, 0.000, 15:34:07.105
33, -336.04, -36.31, 126.03, -2483.27, 0.000, 0.000, 0.000, 15:34:07.124
34, -488.63, -455.47, -355.24, -2386.05, 0.000, 0.000, 0.000, 15:34:07.125
35, 189.08, -241.30, -963.17, -2569.10, 0.000, 0.000, 0.000, 15:34:07.125
36, 102.36, 57.63, -130.75, -2264.25, 0.000, 0.000, 0.000, 15:34:07.125
37, -465.14, -359.74, -118.61, -2038.29, 0.000, 0.000, 0.000, 15:34:07.147
38, -3.08, -371.15, -875.01, -2065.54, 0.000, 0.000, 0.000, 15:34:07.147
39, 263.79, 109.42, -419.75, -2404.06, 0.000, 0.000, 0.000, 15:34:07.148
40, -303.86, -185.97, 100.61, -2151.14, 0.000, 0.000, 0.000, 15:34:07.148
41, -225.88, -447.77, -575.82, -2157.11, 0.000, 0.000, 0.000, 15:34:07.169
42, 220.68, -21.37, -727.87, -2817.70, 0.000, 0.000, 0.000, 15:34:07.169
43, -219.35, -30.13, 127.61, -2528.49, 0.000, 0.000, 0.000, 15:34:07.169
44, -447.12, -446.19, -280.63, -2424.59, 0.000, 0.000, 0.000, 15:34:07.170
45, 116.11, -208.12, -874.57, -2620.58, 0.000, 0.000, 0.000, 15:34:07.192
46, -16.99, 79.29, -77.83, -2367.06, 0.000, 0.000, 0.000, 15:34:07.192
47, -512.30, -353.39, -70.48, -2016.59, 0.000, 0.000, 0.000, 15:34:07.192
48, -54.14, -386.77, -854.23, -2911.79, 0.000, 0.000, 0.000, 15:34:07.193
49, 37.92, 81.35, -434.87, -3278.79, 0.000, 0.000, 0.000, 15:34:07.193
50, -373.33, -204.56, 70.74, -2999.10, 0.000, 0.000, 0.000, 15:34:07.193
51, -308.67, -473.17, -672.92, -3106.07, 0.000, 0.000, 0.000, 15:34:07.214
52, 184.01, -30.45, -796.96, -3803.86, 0.000, 0.000, 0.000, 15:34:07.215
53, -156.88, -35.67, 129.80, -3442.70, 0.000, 0.000, 0.000, 15:34:07.215
54, -391.94, -465.32, -344.81, -3366.47, 0.000, 0.000, 0.000, 15:34:07.215
55, 90.14, -229.67, -916.54, -3631.00, 0.000, 0.000, 0.000, 15:34:07.237
56, 52.23, 71.99, -87.55, -3334.59, 0.000, 0.000, 0.000, 15:34:07.237
57, -460.84, -361.01, -101.18, -3036.55, 0.000, 0.000, 0.000, 15:34:07.237
58, -33.99, -404.07, -871.97, -3930.33, 0.000, 0.000, 0.000, 15:34:07.237
59, 211.30, 77.87, -461.30, -4263.42, 0.000, 0.000, 0.000, 15:34:07.259
60, -411.71, -201.99, 76.66, -4006.97, 0.000, 0.000, 0.000, 15:34:07.259
61, -341.17, -481.44, -642.42, -4092.66, 0.000, 0.000, 0.000, 15:34:07.260
62, 251.01, -34.44, -780.25, -4768.78, 0.000, 0.000, 0.000, 15:34:07.260
63, -132.31, -36.07, 100.92, -4460.43, 0.000, 0.000, 0.000, 15:34:07.283
64, -403.97, -468.18, -367.11, -4386.60, 0.000, 0.000, 0.000, 15:34:07.283
65, 89.35, -231.19, -941.43, -4622.21, 0.000, 0.000, 0.000, 15:34:07.284
66, 44.40, 83.58, -102.31, -4335.21, 0.000, 0.000, 0.000, 15:34:07.284
67, -619.06, -351.06, -101.32, -4017.88, 0.000, 0.000, 0.000, 15:34:07.284
68, -48.43, -386.53, -860.72, -4925.73, 0.000, 0.000, 0.000, 15:34:07.284
69, 99.24, 81.39, -476.47, -5255.16, 0.000, 0.000, 0.000, 15:34:07.304
70, -297.79, -195.59, 52.92, -5015.56, 0.000, 0.000, 0.000, 15:34:07.304
71, -260.69, -478.87, -604.22, -5035.99, 0.000, 0.000, 0.000, 15:34:07.305
72, 154.13, -34.01, -730.72, -5750.61, 0.000, 0.000, 0.000, 15:34:07.305
73, -17.42, -32.56, 168.56, -5372.84, 0.000, 0.000, 0.000, 15:34:07.327
74, -349.21, -465.29, -314.36, -5321.73, 0.000, 0.000, 0.000, 15:34:07.327
75, 177.49, -219.14, -908.86, -5547.11, 0.000, 0.000, 0.000, 15:34:07.327
76, -33.62, 78.80, -86.25, -5329.36, 0.000, 0.000, 0.000, 15:34:07.328
77, -494.16, -349.69, -78.28, -4975.74, 0.000, 0.000, 0.000, 15:34:07.349
78, -41.44, -391.24, -873.52, -5881.09, 0.000, 0.000, 0.000, 15:34:07.350
79, 226.05, 86.39, -464.22, -6220.70, 0.000, 0.000, 0.000, 15:34:07.351
80, -365.76, -189.63, 69.41, -5968.35, 0.000, 0.000, 0.000, 15:34:07.351
81, -219.26, -469.59, -648.40, -6016.18, 0.000, 0.000, 0.000, 15:34:07.372
82, 235.71, -37.23, -809.51, -6730.61, 0.000, 0.000, 0.000, 15:34:07.372
83, -301.34, -31.09, 90.51, -6447.89, 0.000, 0.000, 0.000, 15:34:07.372
84, -340.06, -452.37, -338.41, -6322.23, 0.000, 0.000, 0.000, 15:34:07.373
85, 156.18, -218.94, -943.35, -6555.26, 0.000, 0.000, 0.000, 15:34:07.373
86, 16.69, 83.93, -99.83, -6307.14, 0.000, 0.000, 0.000, 15:34:07.373
87, -431.05, -351.73, -90.96, -5955.99, 0.000, 0.000, 0.000, 15:34:07.394
88, -91.59, -377.14, -880.44, -6866.87, 0.000, 0.000, 0.000, 15:34:07.395
89, 224.05, 90.89, -487.92, -7225.41, 0.000, 0.000, 0.000, 15:34:07.395
90, -468.10, -192.75, 55.63, -6971.67, 0.000, 0.000, 0.000, 15:34:07.395
91, -238.26, -465.54, -625.81, -7004.14, 0.000, 0.000, 0.000, 15:34:07.417
92, 285.64, -25.90, -753.34, -7691.86, 0.000, 0.000, 0.000, 15:34:07.417
93, -177.53, -25.93, 126.68, -7399.74, 0.000, 0.000, 0.000, 15:34:07.417
94, -328.98, -450.84, -319.78, -7297.15, 0.000, 0.000, 0.000, 15:34:07.417
95, 180.35, -211.03, -922.82, -7534.74, 0.000, 0.000, 0.000, 15:34:07.439
96, -32.38, 82.48, -104.04, -7313.97, 0.000, 0.000, 0.000, 15:34:07.439
97, -579.03, -341.74, -63.82, -6985.27, 0.000, 0.000, 0.000, 15:34:07.440
98, -51.06, -376.18, -858.43, -7872.70, 0.000, 0.000, 0.000, 15:34:07.440
99, 257.02, 91.06, -459.96, -8238.12, 0.000, 0.000, 0.000, 15:34:07.464
100, -302.61, -191.64, 95.42, -7935.73, 0.000, 0.000, 0.000, 15:34:07.464
101, -273.78, -467.32, -628.76, -8009.92, 0.000, 0.000, 0.000, 15:34:07.464
102, 224.70, -29.01, -772.67, -8697.43, 0.000, 0.000, 0.000, 15:34:07.464
103, -308.13, -33.36, 104.82, -8425.89, 0.000, 0.000, 0.000, 15:34:07.465
104, -516.82, -454.18, -338.15, -8329.46, 0.000, 0.000, 0.000, 15:34:07.465
105, 161.97, -211.29, -935.35, -8532.25, 0.000, 0.000, 0.000, 15:34:07.484
106, 38.96, 69.43, -125.16, -8316.01, 0.000, 0.000, 0.000, 15:34:07.484
107, -469.91, -346.41, -77.11, -7930.26, 0.000, 0.000, 0.000, 15:34:07.485
108, -50.35, -413.81, -852.86, -8845.02, 0.000, 0.000, 0.000, 15:34:07.485
109, 157.14, 75.36, -402.47, -9176.67, 0.000, 0.000, 0.000, 15:34:07.506
110, -454.96, -199.79, 136.28, -8896.76, 0.000, 0.000, 0.000, 15:34:07.507
111, -284.76, -490.34, -614.42, -8977.31, 0.000, 0.000, 0.000, 15:34:07.507
112, 323.87, -29.48, -760.75, -9646.52, 0.000, 0.000, 0.000, 15:34:07.507
113, -301.56, -56.66, 95.83, -9398.88, 0.000, 0.000, 0.000, 15:34:07.529
114, -426.59, -466.50, -343.33, -9291.62, 0.000, 0.000, 0.000, 15:34:07.530
115, 55.86, -217.03, -914.78, -9508.35, 0.000, 0.000, 0.000, 15:34:07.530
116, -15.45, 53.93, -122.55, -9300.40, 0.000, 0.000, 0.000, 15:34:07.531
117, -399.22, -330.26, -78.38, -8879.09, 0.000, 0.000, 0.000, 15:34:07.552
118, -240.03, -404.00, -863.13, -9831.18, 0.000, 0.000, 0.000, 15:34:07.553
119, 220.19, 62.66, -468.99, -10193.55, 0.000, 0.000, 0.000, 15:34:07.553
120, -290.71, -181.42, 115.57, -9851.42, 0.000, 0.000, 0.000, 15:34:07.553
121, -408.86, -508.93, -637.44, -9988.69, 0.000, 0.000, 0.000, 15:34:07.553
122, 351.26, -19.93, -759.23, -10602.19, 0.000, 0.000, 0.000, 15:34:07.554
123, -328.38, -55.98, 77.44, -10389.68, 0.000, 0.000, 0.000, 15:34:07.574
124, -325.90, -445.30, -319.40, -10241.36, 0.000, 0.000, 0.000, 15:34:07.574
125, 71.06, -236.41, -937.19, -10490.84, 0.000, 0.000, 0.000, 15:34:07.575
126, 66.52, 83.32, -95.12, -10235.12, 0.000, 0.000, 0.000, 15:34:07.575
127, -466.07, -371.23, -89.99, -9898.25, 0.000, 0.000, 0.000, 15:34:07.597
128, -77.57, -377.88, -828.19, -10750.18, 0.000, 0.000, 0.000, 15:34:07.597
129, 126.80, 66.85, -455.92, -11167.86, 0.000, 0.000, 0.000, 15:34:07.597
130, -512.81, -178.86, 92.32, -10881.50, 0.000, 0.000, 0.000, 15:34:07.598
131, -201.51, -493.52, -633.46, -10943.54, 0.000, 0.000, 0.000, 15:34:07.619
132, 334.49, -25.09, -756.92, -11596.55, 0.000, 0.000, 0.000, 15:34:07.620
133, -272.97, -55.50, 106.74, -11363.67, 0.000, 0.000, 0.000, 15:34:07.620
134, -589.46, -442.18, -297.75, -11224.82, 0.000, 0.000, 0.000, 15:34:07.620
135, 133.72, -228.48, -918.49, -11462.91, 0.000, 0.000, 0.000, 15:34:07.642
136, 18.34, 87.03, -89.78, -11232.46, 0.000, 0.000, 0.000, 15:34:07.642
137, -331.60, -355.04, -69.54, -10852.71, 0.000, 0.000, 0.000, 15:34:07.643
138, -106.08, -396.80, -824.04, -11753.65, 0.000, 0.000, 0.000, 15:34:07.643
139, -19.62, 82.19, -436.45, -12164.87, 0.000, 0.000, 0.000, 15:34:07.643
140, -332.71, -203.18, 97.17, -11857.59, 0.000, 0.000, 0.000, 15:34:07.643
141, -245.12, -468.65, -642.34, -11875.40, 0.000, 0.000, 0.000, 15:34:07.664
142, 77.14, -47.92, -819.52, -12644.80, 0.000, 0.000, 0.000, 15:34:07.664
143, -149.60, -14.09, 98.62, -12334.24, 0.000, 0.000, 0.000, 15:34:07.664
144, -460.23, -463.21, -383.08, -12223.33, 0.000, 0.000, 0.000, 15:34:07.665
145, 28.73, -215.46, -928.44, -12446.38, 0.000, 0.000, 0.000, 15:34:07.709
146, 55.68, 73.94, -99.85, -12209.68, 0.000, 0.000, 0.000, 15:34:07.709
147, -532.58, -355.08, -90.26, -11842.18, 0.000, 0.000, 0.000, 15:34:07.710
148, -236.46, -381.27, -848.51, -12741.62, 0.000, 0.000, 0.000, 15:34:07.710
149, 370.18, 73.36, -445.03, -13099.64, 0.000, 0.000, 0.000, 15:34:07.710
150, -203.72, -192.75, 96.06, -12810.44, 0.000, 0.000, 0.000, 15:34:07.711
151, -547.75, -476.53, -635.25, -12899.55, 0.000, 0.000, 0.000, 15:34:07.711
152, 195.79, -40.36, -800.28, -13622.08, 0.000, 0.000, 0.000, 15:34:07.711
153, -314.32, -21.05, 85.70, -13322.35, 0.000, 0.000, 0.000, 15:34:07.732
154, -486.07, -459.62, -375.98, -13222.25, 0.000, 0.000, 0.000, 15:34:07.732
155, 11.23, -221.77, -946.76, -13433.23, 0.000, 0.000, 0.000, 15:34:07.733
156, -21.16, 87.81, -106.77, -13183.77, 0.000, 0.000, 0.000, 15:34:07.733
157, -267.52, -350.65, -362.81, -12835.65, 0.000, 0.000, 0.000, 15:34:07.733
158, 92.47, -389.05, -752.45, -13749.05, 0.000, 0.000, 0.000, 15:34:07.733
159, 286.51, 99.42, -978.28, -14239.82, 0.000, 0.000, 0.000, 15:34:07.754
160, -394.92, -172.64, -879.44, -14017.98, 0.000, 0.000, 0.000, 15:34:07.756
161, -236.00, -436.11, -1738.07, -14076.01, 0.000, 0.000, 0.000, 15:34:07.756
162, 460.39, -1.85, -2078.21, -14777.33, 0.000, 0.000, 0.000, 15:34:07.756
163, -135.20, 9.56, -1542.64, -14539.26, 0.000, 0.000, 0.000, 15:34:07.777
164, -290.30, -412.68, -1802.42, -14410.91, 0.000, 0.000, 0.000, 15:34:07.777
165, 376.32, -204.27, -2116.98, -14555.16, 0.000, 0.000, 0.000, 15:34:07.777
166, 177.63, 93.19, -1976.68, -14352.66, 0.000, 0.000, 0.000, 15:34:07.777
167, -366.13, -349.09, -1762.78, -13953.51, 0.000, 0.000, 0.000, 15:34:07.799
168, -111.32, -400.34, -2276.28, -14820.01, 0.000, 0.000, 0.000, 15:34:07.800
169, 203.93, 60.12, -1727.63, -15223.99, 0.000, 0.000, 0.000, 15:34:07.800
170, 84.31, -223.53, -1177.33, -14857.66, 0.000, 0.000, 0.000, 15:34:07.800
171, 85.57, -524.95, -1559.70, -14869.58, 0.000, 0.000, 0.000, 15:34:07.822
172, 294.23, -98.23, -1393.25, -15583.10, 0.000, 0.000, 0.000, 15:34:07.822
173, -80.72, -82.55, -566.27, -15351.48, 0.000, 0.000, 0.000, 15:34:07.844
174, -496.98, -513.05, -782.91, -15210.71, 0.000, 0.000, 0.000, 15:34:07.845
175, 372.32, -285.08, -793.33, -15349.37, 0.000, 0.000, 0.000, 15:34:07.867
176, 326.90, 7.18, -129.68, -15111.00, 0.000, 0.000, 0.000, 15:34:07.867
177, -480.52, -422.99, -94.09, -14765.27, 0.000, 0.000, 0.000, 15:34:07.867
178, -232.45, -458.16, -885.17, -15665.61, 0.000, 0.000, 0.000, 15:34:07.868
179, 372.68, 13.76, -543.55, -16054.85, 0.000, 0.000, 0.000, 15:34:07.868
180, -180.49, -265.40, -7.70, -15791.04, 0.000, 0.000, 0.000, 15:34:07.869
181, -11.81, -539.40, -462.40, -16752.73, 0.000, 0.000, 0.000, 15:34:07.869
182, 344.69, -114.25, -151.06, -17438.13, 0.000, 0.000, 0.000, 15:34:07.869
183, -173.61, -120.58, -40.73, -17190.32, 0.000, 0.000, 0.000, 15:34:07.889
184, -415.84, -523.95, -48.67, -16976.10, 0.000, 0.000, 0.000, 15:34:07.890
185, 41.95, -325.41, -168.23, -17201.54, 0.000, 0.000, 0.000, 15:34:07.890
186, -40.03, 6.83, 4.20, -16925.76, 0.000, 0.000, 0.000, 15:34:07.891
187, -508.77, -454.40, 39.34, -16567.15, 0.000, 0.000, 0.000, 15:34:07.891
188, 22.39, -467.20, -814.15, -17366.14, 0.000, 0.000, 0.000, 15:34:07.891
189, 136.56, -10.99, -640.13, -17886.52, 0.000, 0.000, 0.000, 15:34:07.891
190, -329.94, -233.57, -252.75, -17564.04, 0.000, 0.000, 0.000, 15:34:07.891
191, -421.80, -530.02, -1159.94, -17667.13, 0.000, 0.000, 0.000, 15:34:07.912
192, 127.52, -61.82, -1451.05, -18395.47, 0.000, 0.000, 0.000, 15:34:07.912
193, -485.28, -56.58, -743.16, -18167.07, 0.000, 0.000, 0.000, 15:34:07.912
194, -660.37, -454.15, -1259.21, -18007.74, 0.000, 0.000, 0.000, 15:34:07.912
195, 121.57, -238.37, -1956.21, -18224.84, 0.000, 0.000, 0.000, 15:34:07.934
196, -118.53, 82.91, -1258.73, -18077.34, 0.000, 0.000, 0.000, 15:34:07.934
197, -434.90, -340.72, -1320.80, -17656.29, 0.000, 0.000, 0.000, 15:34:07.935
198, -29.07, -385.38, -2134.47, -18501.64, 0.000, 0.000, 0.000, 15:34:07.935
199, 90.85, 95.78, -1813.83, -18961.58, 0.000, 0.000, 0.000, 15:34:07.957
200, -514.35, -174.99, -1351.27, -18701.27, 0.000, 0.000, 0.000, 15:34:07.958
0, -370.08, -448.55, -149.43, -62.85, 0.000, 0.000, 0.000, 15:34:07.958
1, 159.86, -32.86, -382.80, -843.04, 0.000, 0.000, 0.000, 15:34:07.959
2, -223.90, 13.37, 386.97, -556.45, 0.000, 0.000, 0.000, 15:34:07.959
3, -569.52, -441.83, -288.68, -468.55, 0.000, 0.000, 0.000, 15:34:07.979
4, 26.11, -180.05, -892.47, -644.99, 0.000, 0.000, 0.000, 15:34:07.979
5, -143.95, 107.83, -230.81, -533.29, 0.000, 0.000, 0.000, 15:34:07.980
6, -375.21, -296.72, -287.42, -69.41, 0.000, 0.000, 0.000, 15:34:07.980
7, -129.86, -371.21, -1077.77, -970.83, 0.000, 0.000, 0.000, 15:34:08.002
8, 31.39, 130.92, -641.42, -1408.20, 0.000, 0.000, 0.000, 15:34:08.002
9, -337.66, -158.95, -161.17, -1094.63, 0.000, 0.000, 0.000, 15:34:08.002
10, -214.40, -436.14, -279.38, -1111.20, 0.000, 0.000, 0.000, 15:34:08.003
11, 140.41, -0.53, -1064.16, -1976.09, 0.000, 0.000, 0.000, 15:34:08.024
12, -261.47, 32.85, -471.55, -1748.11, 0.000, 0.000, 0.000, 15:34:08.025
13, -192.83, -392.99, -1070.45, -1523.01, 0.000, 0.000, 0.000, 15:34:08.025
14, 111.38, -185.68, -1665.09, -1797.22, 0.000, 0.000, 0.000, 15:34:08.025
15, 97.00, 134.26, -992.72, -1641.39, 0.000, 0.000, 0.000, 15:34:08.047
16, -336.02, -303.55, -1044.92, -1241.71, 0.000, 0.000, 0.000, 15:34:08.047
17, 92.17, -362.69, -1716.31, -2073.10, 0.000, 0.000, 0.000, 15:34:08.047
18, 362.41, 102.20, -1316.49, -2533.18, 0.000, 0.000, 0.000, 15:34:08.048
19, -268.41, -160.33, -838.84, -2236.87, 0.000, 0.000, 0.000, 15:34:08.048
20, -236.68, -464.90, -1451.89, -2264.76, 0.000, 0.000, 0.000, 15:34:08.048
21, 378.12, -27.94, -1328.04, -2968.44, 0.000, 0.000, 0.000, 15:34:08.069
22, -6.54, -29.30, -654.62, -2698.49, 0.000, 0.000, 0.000, 15:34:08.069
23, -210.72, -456.90, -1193.13, -2558.89, 0.000, 0.000, 0.000, 15:34:08.070
24, 283.29, -251.87, -1552.82, -2759.76, 0.000, 0.000, 0.000, 15:34:08.070
25, -12.26, 73.28, -587.50, -2592.66, 0.000, 0.000, 0.000, 15:34:08.092
26, -626.17, -363.30, -518.49, -2209.65, 0.000, 0.000, 0.000, 15:34:08.092
27, -547.27, -423.80, -1108.90, -2948.23, 0.000, 0.000, 0.000, 15:34:08.094
28, -569.44, 38.03, -509.25, -3423.27, 0.000, 0.000, 0.000, 15:34:08.094
29, -1103.59, -241.65, -6.97, -3125.89, 0.000, 0.000, 0.000, 15:34:08.114
30, -1042.44, -518.39, -568.84, -4061.01, 0.000, 0.000, 0.000, 15:34:08.114
31, -628.66, -112.59, -512.71, -4850.39, 0.000, 0.000, 0.000, 15:34:08.115
32, -1034.11, -70.22, 402.13, -4554.44, 0.000, 0.000, 0.000, 15:34:08.115
33, -1280.06, -528.34, -22.98, -4418.20, 0.000, 0.000, 0.000, 15:34:08.136
34, -687.23, -286.01, -104.67, -4561.00, 0.000, 0.000, 0.000, 15:34:08.137
35, -844.11, -2.66, 8.80, -4405.48, 0.000, 0.000, 0.000, 15:34:08.137
36, -1308.39, -405.23, 90.78, -3939.35, 0.000, 0.000, 0.000, 15:34:08.137
37, -1019.54, -486.48, -266.16, -4800.75, 0.000, 0.000, 0.000, 15:34:08.138
38, -651.21, -2.14, -266.14, -5156.99, 0.000, 0.000, 0.000, 15:34:08.138
39, -1318.89, -297.28, 77.99, -4898.24, 0.000, 0.000, 0.000, 15:34:08.160
40, -1265.12, -558.57, -277.12, -5843.89, 0.000, 0.000, 0.000, 15:34:08.160
41, -830.40, -158.60, 539.89, -6467.07, 0.000, 0.000, 0.000, 15:34:08.161
42, -1136.22, -132.11, 1489.00, -6123.35, 0.000, 0.000, 0.000, 15:34:08.161
43, -1395.01, -564.38, 814.35, -5993.21, 0.000, 0.000, 0.000, 15:34:08.182
44, -851.61, -306.96, -57.25, -6350.16, 0.000, 0.000, 0.000, 15:34:08.182
45, -964.19, 31.16, 563.39, -6327.56, 0.000, 0.000, 0.000, 15:34:08.182
46, -1501.87, -379.16, 613.99, -5930.04, 0.000, 0.000, 0.000, 15:34:08.183
47, -1243.57, -417.20, 341.66, -6695.02, 0.000, 0.000, 0.000, 15:34:08.204
48, -914.21, 60.91, 308.87, -7349.07, 0.000, 0.000, 0.000, 15:34:08.205
49, -1524.09, -160.71, 1012.38, -7061.47, 0.000, 0.000, 0.000, 15:34:08.205
50, -1275.65, -478.07, 1329.44, -7893.59, 0.000, 0.000, 0.000, 15:34:08.205
51, -726.50, -12.98, 360.81, -8733.22, 0.000, 0.000, 0.000, 15:34:08.227
52, -1285.03, -14.48, 736.04, -8542.93, 0.000, 0.000, 0.000, 15:34:08.227
53, -1462.65, -419.93, 1338.52, -8141.70, 0.000, 0.000, 0.000, 15:34:08.227
54, -1018.01, -226.58, 1295.22, -8814.52, 0.000, 0.000, 0.000, 15:34:08.228
55, -889.25, 194.21, 970.03, -8025.35, 0.000, 0.000, 0.000, 15:34:08.228
56, -1290.68, -227.31, 843.66, -7780.69, 0.000, 0.000, 0.000, 15:34:08.228
57, -815.23, -245.91, 890.67, -8497.46, 0.000, 0.000, 0.000, 15:34:08.249
58, -595.98, 181.06, 1631.41, -8733.08, 0.000, 0.000, 0.000, 15:34:08.249
59, -1000.67, -109.89, 1844.26, -8285.11, 0.000, 0.000, 0.000, 15:34:08.250
60, -872.70, -451.30, 2387.02, -9130.04, 0.000, 0.000, 0.000, 15:34:08.250
61, -419.20, -70.72, 2204.18, -9896.38, 0.000, 0.000, 0.000, 15:34:08.271
62, -816.41, -32.11, 2270.63, -9615.58, 0.000, 0.000, 0.000, 15:34:08.272
63, -1213.05, -509.61, 1502.63, -9537.10, 0.000, 0.000, 0.000, 15:34:08.272
64, -480.63, -263.90, 1533.28, -9627.54, 0.000, 0.000, 0.000, 15:34:08.272
65, -659.33, -1.54, 2345.16, -9548.73, 0.000, 0.000, 0.000, 15:34:08.294
66, -1119.40, -401.85, 2140.44, -9096.21, 0.000, 0.000, 0.000, 15:34:08.294
67, -708.12, -494.87, 1682.01, -9947.33, 0.000, 0.000, 0.000, 15:34:08.295
68, -390.15, -17.01, 2529.15, -10342.75, 0.000, 0.000, 0.000, 15:34:08.295
69, -1004.34, -288.01, 2959.79, -10059.69, 0.000, 0.000, 0.000, 15:34:08.316
70, -958.53, -584.05, 2346.25, -11035.56, 0.000, 0.000, 0.000, 15:34:08.317
71, -438.15, -146.48, 2879.27, -11712.93, 0.000, 0.000, 0.000, 15:34:08.317
72, -984.58, -174.56, 3810.23, -11512.69, 0.000, 0.000, 0.000, 15:34:08.318
73, -1064.07, -565.56, 3541.51, -11237.63, 0.000, 0.000, 0.000, 15:34:08.318
74, -570.33, -374.79, 3564.08, -11447.16, 0.000, 0.000, 0.000, 15:34:08.318
75, -745.32, -61.28, 3578.74, -11301.44, 0.000, 0.000, 0.000, 15:34:08.340
76, -1142.94, -462.01, 3371.81, -10840.52, 0.000, 0.000, 0.000, 15:34:08.340
77, -852.65, -552.12, 2775.30, -11714.89, 0.000, 0.000, 0.000, 15:34:08.340
78, -625.18, -51.84, 3544.65, -12124.05, 0.000, 0.000, 0.000, 15:34:08.341
79, -1089.99, -315.94, 3685.85, -11869.11, 0.000, 0.000, 0.000, 15:34:08.361
80, -1042.50, -604.02, 2944.19, -11871.86, 0.000, 0.000, 0.000, 15:34:08.362
81, -550.32, -159.30, 3285.47, -12567.64, 0.000, 0.000, 0.000, 15:34:08.363
82, -1064.21, -152.01, 3923.75, -12376.06, 0.000, 0.000, 0.000, 15:34:08.363
83, -1248.71, -566.78, 3332.51, -12168.42, 0.000, 0.000, 0.000, 15:34:08.384
84, -728.48, -342.30, 3178.55, -12385.77, 0.000, 0.000, 0.000, 15:34:08.385
85, -851.26, -37.16, 4008.10, -12268.29, 0.000, 0.000, 0.000, 15:34:08.385
86, -1228.94, -444.87, 3716.94, -11814.80, 0.000, 0.000, 0.000, 15:34:08.385
87, -962.76, -508.70, 3225.56, -12660.72, 0.000, 0.000, 0.000, 15:34:08.407
88, -730.26, -30.96, 3968.44, -13105.96, 0.000, 0.000, 0.000, 15:34:08.408
89, -1174.06, -278.63, 4174.40, -12788.00, 0.000, 0.000, 0.000, 15:34:08.408
90, -1256.61, -580.38, 3581.58, -12807.00, 0.000, 0.000, 0.000, 15:34:08.408
91, -627.36, -139.71, 4018.54, -13520.37, 0.000, 0.000, 0.000, 15:34:08.409
92, -1135.41, -125.54, 4561.15, -13301.53, 0.000, 0.000, 0.000, 15:34:08.409
93, -1451.14, -533.16, 3931.35, -13116.31, 0.000, 0.000, 0.000, 15:34:08.429
94, -725.87, -310.26, 3702.24, -13312.13, 0.000, 0.000, 0.000, 15:34:08.429
95, -1056.14, -2.34, 4505.58, -13228.11, 0.000, 0.000, 0.000, 15:34:08.430
96, -1291.65, -395.36, 4085.38, -12751.83, 0.000, 0.000, 0.000, 15:34:08.430
97, -1021.47, -492.31, 3498.24, -13647.22, 0.000, 0.000, 0.000, 15:34:08.453
98, -686.22, 21.63, 4082.04, -14057.92, 0.000, 0.000, 0.000, 15:34:08.453
99, -1397.21, -264.87, 3941.57, -13880.96, 0.000, 0.000, 0.000, 15:34:08.454
100, -1172.58, -505.66, 3109.73, -14803.32, 0.000, 0.000, 0.000, 15:34:08.454
101, -756.64, -99.88, 3344.51, -15595.81, 0.000, 0.000, 0.000, 15:34:08.474
102, -1188.64, -43.17, 3889.30, -15342.60, 0.000, 0.000, 0.000, 15:34:08.474
103, -1385.90, -482.12, 3174.94, -15193.21, 0.000, 0.000, 0.000, 15:34:08.475
104, -849.56, -256.73, 3085.94, -15357.95, 0.000, 0.000, 0.000, 15:34:08.475
105, -979.05, 46.49, 3913.12, -15243.56, 0.000, 0.000, 0.000, 15:34:08.497
106, -1446.60, -371.28, 3488.72, -14816.52, 0.000, 0.000, 0.000, 15:34:08.497
107, -982.98, -426.86, 2978.53, -15650.93, 0.000, 0.000, 0.000, 15:34:08.497
108, -795.61, 40.63, 3705.89, -16118.20, 0.000, 0.000, 0.000, 15:34:08.498
109, -1330.65, -214.78, 3724.44, -15835.48, 0.000, 0.000, 0.000, 15:34:08.498
110, -1263.29, -505.15, 2899.89, -15838.49, 0.000, 0.000, 0.000, 15:34:08.498
111, -690.85, -74.59, 3208.59, -16559.95, 0.000, 0.000, 0.000, 15:34:08.519
112, -1129.07, -42.35, 3790.57, -16333.25, 0.000, 0.000, 0.000, 15:34:08.520
113, -1412.35, -478.03, 3157.92, -16142.29, 0.000, 0.000, 0.000, 15:34:08.520
114, -876.47, -257.73, 3074.99, -16331.45, 0.000, 0.000, 0.000, 15:34:08.520
115, -932.26, 51.49, 3727.96, -16219.84, 0.000, 0.000, 0.000, 15:34:08.541
116, -1477.17, -367.98, 3227.94, -15812.33, 0.000, 0.000, 0.000, 15:34:08.542
117, -1191.82, -429.09, 2717.34, -16657.43, 0.000, 0.000, 0.000, 15:34:08.542
118, -699.20, 54.31, 3398.65, -17098.26, 0.000, 0.000, 0.000, 15:34:08.542
119, -1231.09, -216.00, 3490.37, -16806.76, 0.000, 0.000, 0.000, 15:34:08.564
120, -1199.96, -510.29, 2819.37, -17771.56, 0.000, 0.000, 0.000, 15:34:08.565
121, -695.61, -80.24, 3297.61, -18489.86, 0.000, 0.000, 0.000, 15:34:08.587
122, -1243.30, -67.08, 3840.12, -18288.54, 0.000, 0.000, 0.000, 15:34:08.587
123, -1401.62, -472.50, 3141.25, -18091.82, 0.000, 0.000, 0.000, 15:34:08.587
124, -761.54, -281.58, 3034.68, -18284.20, 0.000, 0.000, 0.000, 15:34:08.588
125, -902.06, 52.91, 3836.87, -18155.17, 0.000, 0.000, 0.000, 15:34:08.588
126, -1428.21, -390.87, 3325.04, -17772.21, 0.000, 0.000, 0.000, 15:34:08.588
127, -1072.51, -424.75, 2921.50, -18551.32, 0.000, 0.000, 0.000, 15:34:08.588
128, -813.59, 36.80, 3602.59, -19058.00, 0.000, 0.000, 0.000, 15:34:08.589
129, -1319.34, -207.09, 3491.68, -18766.21, 0.000, 0.000, 0.000, 15:34:08.609
130, -1283.59, -502.32, 2678.22, -18772.51, 0.000, 0.000, 0.000, 15:34:08.610
131, -672.28, -82.95, 3010.18, -19508.69, 0.000, 0.000, 0.000, 15:34:08.610
132, -1071.48, -40.75, 3509.59, -19282.16, 0.000, 0.000, 0.000, 15:34:08.610
133, -1448.43, -486.56, 2841.01, -19138.09, 0.000, 0.000, 0.000, 15:34:08.632
134, -868.12, -251.75, 2946.93, -19272.40, 0.000, 0.000, 0.000, 15:34:08.632
135, -1012.89, 52.80, 3669.26, -19175.49, 0.000, 0.000, 0.000, 15:34:08.633
136, -1210.37, -365.95, 3186.65, -18699.77, 0.000, 0.000, 0.000, 15:34:08.633
137, -976.55, -437.43, 2796.86, -19530.83, 0.000, 0.000, 0.000, 15:34:08.654
138, -739.17, 56.29, 3540.74, -20018.61, 0.000, 0.000, 0.000, 15:34:08.655
139, -1315.44, -205.05, 3469.84, -19770.48, 0.000, 0.000, 0.000, 15:34:08.655
140, -1296.03, -494.53, 2825.75, -20710.29, 0.000, 0.000, 0.000, 15:34:08.656
141, -674.60, -79.37, 3275.41, -21435.50, 0.000, 0.000, 0.000, 15:34:08.677
142, -1086.71, -49.70, 3713.37, -21210.29, 0.000, 0.000, 0.000, 15:34:08.678
143, -1412.64, -488.10, 2980.02, -21069.78, 0.000, 0.000, 0.000, 15:34:08.678
144, -862.98, -271.45, 3001.54, -21240.57, 0.000, 0.000, 0.000, 15:34:08.678
145, -850.75, 41.53, 3692.93, -21137.60, 0.000, 0.000, 0.000, 15:34:08.679
146, -1369.06, -366.45, 3211.06, -20708.97, 0.000, 0.000, 0.000, 15:34:08.679
147, -1050.68, -437.27, 2874.54, -21516.27, 0.000, 0.000, 0.000, 15:34:08.704
148, -758.15, 32.96, 3748.89, -21975.14, 0.000, 0.000, 0.000, 15:34:08.704
149, -1367.68, -225.20, 3752.64, -21718.93, 0.000, 0.000, 0.000, 15:34:08.704
150, -1403.33, -506.17, 3190.73, -22655.06, 0.000, 0.000, 0.000, 15:34:08.704
151, -768.09, -89.40, 3637.48, -23378.50, 0.000, 0.000, 0.000, 15:34:08.723
152, -1028.89, -53.51, 3993.32, -23155.09, 0.000, 0.000, 0.000, 15:34:08.723
153, -1343.40, -490.49, 3256.19, -22973.47, 0.000, 0.000, 0.000, 15:34:08.747
154, -791.64, -255.61, 3268.81, -23145.35, 0.000, 0.000, 0.000, 15:34:08.747
155, -988.10, 28.46, 3973.17, -23103.76, 0.000, 0.000, 0.000, 15:34:08.748
156, -1428.29, -355.36, 3477.35, -22622.14, 0.000, 0.000, 0.000, 15:34:08.748
157, -1196.40, -441.07, 3074.96, -23462.54, 0.000, 0.000, 0.000, 15:34:08.748
158, -625.02, 51.55, 3837.42, -23887.13, 0.000, 0.000, 0.000, 15:34:08.749
159, -1324.46, -217.82, 3679.42, -23666.83, 0.000, 0.000, 0.000, 15:34:08.749
160, -1298.40, -495.35, 3069.16, -24607.49, 0.000, 0.000, 0.000, 15:34:08.749
161, -727.34, -75.54, 3445.72, -25344.20, 0.000, 0.000, 0.000, 15:34:08.774
162, -1251.48, -45.51, 3868.24, -25176.34, 0.000, 0.000, 0.000, 15:34:08.775
163, -1271.85, -458.97, 3124.80, -24915.19, 0.000, 0.000, 0.000, 15:34:08.775
164, -870.84, -264.61, 3209.35, -25123.38, 0.000, 0.000, 0.000, 15:34:08.775
165, -985.20, 57.35, 3952.74, -25046.00, 0.000, 0.000, 0.000, 15:34:08.796
166, -1442.72, -358.90, 3431.63, -24618.02, 0.000, 0.000, 0.000, 15:34:08.796
167, -1057.70, -426.46, 3083.25, -25406.77, 0.000, 0.000, 0.000, 15:34:08.796
168, -739.76, 41.11, 3823.94, -25892.28, 0.000, 0.000, 0.000, 15:34:08.797
169, -1442.66, -204.16, 3760.65, -25642.32, 0.000, 0.000, 0.000, 15:34:08.812
170, -1386.04, -501.65, 3108.58, -26588.33, 0.000, 0.000, 0.000, 15:34:08.812
171, -666.94, -70.99, 3688.13, -27291.27, 0.000, 0.000, 0.000, 15:34:08.813
172, -1092.07, -45.41, 4073.16, -27057.98, 0.000, 0.000, 0.000, 15:34:08.813
173, -1531.66, -480.00, 3386.95, -26914.48, 0.000, 0.000, 0.000, 15:34:08.834
174, -697.70, -245.24, 3354.28, -27036.82, 0.000, 0.000, 0.000, 15:34:08.835
175, -900.55, 59.79, 4118.60, -26991.84, 0.000, 0.000, 0.000, 15:34:08.835
176, -1546.71, -356.22, 3646.99, -26559.56, 0.000, 0.000, 0.000, 15:34:08.835
177, -1204.51, -429.19, 3355.50, -27349.95, 0.000, 0.000, 0.000, 15:34:08.857
178, -759.27, 35.89, 4033.83, -27851.90, 0.000, 0.000, 0.000, 15:34:08.857
179, -1275.78, -205.67, 4017.95, -27549.80, 0.000, 0.000, 0.000, 15:34:08.858
180, -1349.57, -496.23, 3395.85, -28492.36, 0.000, 0.000, 0.000, 15:34:08.858
181, -764.39, -63.80, 4016.56, -29236.67, 0.000, 0.000, 0.000, 15:34:08.858
182, -1142.39, -32.68, 4505.74, -29008.55, 0.000, 0.000, 0.000, 15:34:08.858
183, -1478.90, -482.08, 3762.01, -28807.33, 0.000, 0.000, 0.000, 15:34:08.880
184, -984.02, -262.03, 3822.94, -28992.06, 0.000, 0.000, 0.000, 15:34:08.880
185, -974.22, 32.86, 4695.41, -28942.34, 0.000, 0.000, 0.000, 15:34:08.880
186, -1501.20, -341.91, 4412.60, -28415.15, 0.000, 0.000, 0.000, 15:34:08.881
187, -1320.71, -441.91, 4216.33, -29271.15, 0.000, 0.000, 0.000, 15:34:08.902
188, -659.70, 45.91, 5169.59, -29676.43, 0.000, 0.000, 0.000, 15:34:08.902
189, -1429.28, -240.04, 5562.13, -29406.65, 0.000, 0.000, 0.000, 15:34:08.902
190, -1567.42, -511.71, 5212.02, -30272.77, 0.000, 0.000, 0.000, 15:34:08.903
191, -812.34, -100.30, 5501.86, -31062.63, 0.000, 0.000, 0.000, 15:34:08.924
192, -1204.97, -33.69, 5810.48, -30809.90, 0.000, 0.000, 0.000, 15:34:08.924
193, -1589.48, -476.79, 4989.94, -30651.25, 0.000, 0.000, 0.000, 15:34:08.925
194, -1125.32, -235.28, 4855.37, -30840.84, 0.000, 0.000, 0.000, 15:34:08.925
195, -1172.11, 73.10, 5561.31, -30831.08, 0.000, 0.000, 0.000, 15:34:08.947
196, -1456.21, -316.61, 5006.62, -30307.56, 0.000, 0.000, 0.000, 15:34:08.947
197, -1293.47, -404.57, 4299.34, -31189.67, 0.000, 0.000, 0.000, 15:34:08.947
198, -904.12, 98.11, 4732.20, -31732.33, 0.000, 0.000, 0.000, 15:34:08.948
199, -1561.96, -145.23, 4706.24, -31439.08, 0.000, 0.000, 0.000, 15:34:08.948
200, -1564.08, -452.11, 3735.74, -32388.00, 0.000, 0.000, 0.000, 15:34:08.948
0, 161.27, -2.24, -117.63, -1846.67, 0.000, 0.000, 0.000, 15:34:08.970
1, -327.94, 33.68, 27.33, -1688.56, 0.000, 0.000, 0.000, 15:34:08.970
2, -454.52, -381.46, -66.31, -1348.91, 0.000, 0.000, 0.000, 15:34:08.971
3, -156.87, -197.97, -383.55, -1722.21, 0.000, 0.000, 0.000, 15:34:08.992
4, 28.82, 173.66, 188.95, -1658.95, 0.000, 0.000, 0.000, 15:34:08.992
5, -567.40, -276.43, -291.47, -1080.04, 0.000, 0.000, 0.000, 15:34:08.993
6, -204.55, -366.00, -720.06, -1924.89, 0.000, 0.000, 0.000, 15:34:08.993
7, 181.60, 134.98, 235.85, -2545.14, 0.000, 0.000, 0.000, 15:34:08.993
8, -376.90, -123.74, 524.04, -2085.96, 0.000, 0.000, 0.000, 15:34:08.993
9, -314.22, -447.79, 529.58, -2903.49, 0.000, 0.000, 0.000, 15:34:09.014
10, 178.12, -83.75, 1279.49, -3531.81, 0.000, 0.000, 0.000, 15:34:09.015
11, -422.82, -38.63, 2182.76, -3097.39, 0.000, 0.000, 0.000, 15:34:09.015
12, -637.95, -556.82, 1883.59, -2737.48, 0.000, 0.000, 0.000, 15:34:09.015
13, -0.67, -321.43, 1194.54, -3032.92, 0.000, 0.000, 0.000, 15:34:09.037
14, -407.21, 26.24, 1465.61, -2224.37, 0.000, 0.000, 0.000, 15:34:09.037
15, -727.06, -357.74, 1049.48, -1564.87, 0.000, 0.000, 0.000, 15:34:09.037
16, -520.45, -455.14, 955.81, -2466.53, 0.000, 0.000, 0.000, 15:34:09.038
17, -278.28, 115.47, 1008.76, -3200.76, 0.000, 0.000, 0.000, 15:34:09.059
18, -532.91, -145.12, 1051.49, -2781.65, 0.000, 0.000, 0.000, 15:34:09.060
19, -618.28, -435.20, 115.07, -3631.68, 0.000, 0.000, 0.000, 15:34:09.060
20, -129.16, -4.38, -283.81, -3716.88, 0.000, 0.000, 0.000, 15:34:09.060
21, -502.62, 102.83, 227.96, -3461.16, 0.000, 0.000, 0.000, 15:34:09.082
22, -918.33, -375.23, -424.50, -3131.56, 0.000, 0.000, 0.000, 15:34:09.082
23, -276.71, -134.74, -1022.14, -3408.95, 0.000, 0.000, 0.000, 15:34:09.083
24, -459.28, 213.01, -525.40, -2496.79, 0.000, 0.000, 0.000, 15:34:09.083
25, -553.47, -190.30, -734.79, -1812.39, 0.000, 0.000, 0.000, 15:34:09.084
26, -409.23, -322.00, -1551.51, -2709.63, 0.000, 0.000, 0.000, 15:34:09.084
27, -125.25, 223.91, -1293.59, -3419.97, 0.000, 0.000, 0.000, 15:34:09.105
28, -732.92, -43.15, -1042.97, -3031.45, 0.000, 0.000, 0.000, 15:34:09.106
29, -589.16, -343.67, -1720.93, -3812.95, 0.000, 0.000, 0.000, 15:34:09.106
30, -120.23, 61.91, -1883.41, -3862.29, 0.000, 0.000, 0.000, 15:34:09.106
31, -282.18, 153.26, -1219.40, -3560.37, 0.000, 0.000, 0.000, 15:34:09.127
32, -557.19, -339.15, -1770.27, -3174.54, 0.000, 0.000, 0.000, 15:34:09.127
33, -276.09, -126.90, -2294.14, -3549.55, 0.000, 0.000, 0.000, 15:34:09.127
34, -153.06, 237.62, -1622.21, -2608.71, 0.000, 0.000, 0.000, 15:34:09.127
35, -795.42, -208.00, -1731.28, -1951.98, 0.000, 0.000, 0.000, 15:34:09.149
36, -390.86, -299.25, -2411.84, -2766.04, 0.000, 0.000, 0.000, 15:34:09.150
37, -25.37, 178.25, -2078.79, -3540.42, 0.000, 0.000, 0.000, 15:34:09.150
38, -351.17, -34.97, -1624.58, -2986.19, 0.000, 0.000, 0.000, 15:34:09.151
39, -701.76, -391.52, -2328.22, -3884.81, 0.000, 0.000, 0.000, 15:34:09.172
40, 107.46, 53.49, -2449.70, -4847.51, 0.000, 0.000, 0.000, 15:34:09.172
41, -308.79, 113.65, -1746.08, -4601.99, 0.000, 0.000, 0.000, 15:34:09.173
42, -420.96, -361.68, -2207.78, -4200.74, 0.000, 0.000, 0.000, 15:34:09.173
43, -22.91, -144.96, -2654.11, -4481.99, 0.000, 0.000, 0.000, 15:34:09.174
44, -70.51, 197.03, -1987.42, -3601.23, 0.000, 0.000, 0.000, 15:34:09.175
45, -754.55, -232.30, -1999.13, -2915.87, 0.000, 0.000, 0.000, 15:34:09.194
46, -501.21, -339.58, -2665.82, -3773.04, 0.000, 0.000, 0.000, 15:34:09.194
47, 368.94, 145.73, -2298.18, -4435.56, 0.000, 0.000, 0.000, 15:34:09.195
48, -259.12, -87.77, -1899.40, -3903.53, 0.000, 0.000, 0.000, 15:34:09.195
49, -692.78, -438.47, -2578.79, -4808.97, 0.000, 0.000, 0.000, 15:34:09.217
50, -630.73, 28.20, -2633.74, -5726.01, 0.000, 0.000, 0.000, 15:34:09.217
51, -1121.79, 92.30, -1947.14, -5669.82, 0.000, 0.000, 0.000, 15:34:09.217
52, -1453.47, -364.05, -2360.68, -5323.67, 0.000, 0.000, 0.000, 15:34:09.217
53, -913.16, -161.03, -2771.55, -5611.80, 0.000, 0.000, 0.000, 15:34:09.239
54, -1117.14, 191.83, -2067.80, -4701.97, 0.000, 0.000, 0.000, 15:34:09.240
55, -1476.48, -226.05, -2078.13, -3963.15, 0.000, 0.000, 0.000, 15:34:09.240
56, -1220.65, -367.69, -2724.80, -4746.78, 0.000, 0.000, 0.000, 15:34:09.240
57, -901.75, 164.43, -2338.26, -5480.06, 0.000, 0.000, 0.000, 15:34:09.262
58, -1277.59, -99.80, -1927.27, -4996.85, 0.000, 0.000, 0.000, 15:34:09.262
59, -1396.24, -436.71, -2583.86, -5798.54, 0.000, 0.000, 0.000, 15:34:09.262
60, -950.07, 10.03, -2678.29, -5824.67, 0.000, 0.000, 0.000, 15:34:09.262
61, -1182.67, 58.78, -1941.54, -5595.49, 0.000, 0.000, 0.000, 15:34:09.263
62, -1333.66, -405.87, -2357.98, -5121.86, 0.000, 0.000, 0.000, 15:34:09.263
63, -1144.43, -227.26, -2834.94, -5522.11, 0.000, 0.000, 0.000, 15:34:09.285
64, -1007.77, 170.26, -2104.69, -4589.54, 0.000, 0.000, 0.000, 15:34:09.286
65, -1544.89, -276.16, -2171.83, -3920.08, 0.000, 0.000, 0.000, 15:34:09.286
66, -1194.27, -390.64, -2841.34, -4714.48, 0.000, 0.000, 0.000, 15:34:09.286
67, -798.23, 126.98, -2430.77, -5499.58, 0.000, 0.000, 0.000, 15:34:09.307
68, -1071.10, -106.14, -1947.81, -4966.12, 0.000, 0.000, 0.000, 15:34:09.307
69, -1373.55, -452.21, -2600.29, -5780.14, 0.000, 0.000, 0.000, 15:34:09.308
70, -727.23, 10.10, -2713.18, -5832.25, 0.000, 0.000, 0.000, 15:34:09.308
71, -1201.55, 78.00, -1961.84, -5633.45, 0.000, 0.000, 0.000, 15:34:09.329
72, -1535.89, -436.89, -2373.56, -5178.69, 0.000, 0.000, 0.000, 15:34:09.329
73, -922.90, -249.92, -2830.43, -5510.33, 0.000, 0.000, 0.000, 15:34:09.330
74, -757.37, 132.21, -2096.56, -4576.19, 0.000, 0.000, 0.000, 15:34:09.330
75, -1665.03, -303.94, -2136.60, -3913.47, 0.000, 0.000, 0.000, 15:34:09.352
76, -1041.35, -379.51, -2777.52, -4696.84, 0.000, 0.000, 0.000, 15:34:09.353
77, -581.96, 124.77, -2435.16, -5492.73, 0.000, 0.000, 0.000, 15:34:09.353
78, -1326.07, -128.74, -1982.77, -5014.03, 0.000, 0.000, 0.000, 15:34:09.353
79, -1324.08, -476.15, -2606.84, -5802.75, 0.000, 0.000, 0.000, 15:34:09.353
80, -693.69, -48.75, -2716.63, -5833.96, 0.000, 0.000, 0.000, 15:34:09.353
81, -1232.22, 52.47, -1958.97, -5636.11, 0.000, 0.000, 0.000, 15:34:09.374
82, -1633.22, -433.35, -2369.52, -5185.03, 0.000, 0.000, 0.000, 15:34:09.374
83, -901.00, -269.25, -2839.38, -5468.36, 0.000, 0.000, 0.000, 15:34:09.374
84, -1060.97, 137.63, -2120.14, -4684.30, 0.000, 0.000, 0.000, 15:34:09.375
85, -1185.05, -323.32, -2152.40, -3858.01, 0.000, 0.000, 0.000, 15:34:09.396
86, -1113.79, -425.56, -2832.34, -4702.30, 0.000, 0.000, 0.000, 15:34:09.397
87, -588.11, 140.80, -2423.35, -5507.46, 0.000, 0.000, 0.000, 15:34:09.397
88, -1307.82, -138.22, -1929.95, -4883.05, 0.000, 0.000, 0.000, 15:34:09.397
89, -1354.28, -524.73, -2603.49, -5675.28, 0.000, 0.000, 0.000, 15:34:09.419
90, -660.99, 4.84, -2736.21, -6213.49, 0.000, 0.000, 0.000, 15:34:09.419
91, -1143.39, 87.47, -1874.29, -5592.13, 0.000, 0.000, 0.000, 15:34:09.420
92, -1706.00, -453.77, -2367.17, -4814.58, 0.000, 0.000, 0.000, 15:34:09.420
93, -1629.50, -227.52, -2914.87, -5734.38, 0.000, 0.000, 0.000, 15:34:09.441
94, -1726.90, 182.66, -2083.17, -4845.59, 0.000, 0.000, 0.000, 15:34:09.442
95, -2395.76, -375.55, -2094.75, -4453.77, 0.000, 0.000, 0.000, 15:34:09.443
96, -2139.17, -452.13, -2865.86, -4690.75, 0.000, 0.000, 0.000, 15:34:09.443
97, -1658.94, 179.21, -2378.58, -4990.32, 0.000, 0.000, 0.000, 15:34:09.443
98, -2281.98, -139.13, -1772.20, -4678.58, 0.000, 0.000, 0.000, 15:34:09.443
99, -2358.18, -591.23, -2543.63, -5508.21, 0.000, 0.000, 0.000, 15:34:09.464
100, -1665.61, -27.59, -2674.23, -6332.60, 0.000, 0.000, 0.000, 15:34:09.464
101, -2040.04, 145.22, -1794.44, -5562.12, 0.000, 0.000, 0.000, 15:34:09.465
102, -2469.50, -457.02, -2290.91, -4734.22, 0.000, 0.000, 0.000, 15:34:09.465
103, -1867.55, -295.21, -2852.29, -4844.86, 0.000, 0.000, 0.000, 15:34:09.487
104, -1784.89, 186.59, -1997.21, -3879.47, 0.000, 0.000, 0.000, 15:34:09.487
105, -2424.36, -346.60, -2014.87, -3382.85, 0.000, 0.000, 0.000, 15:34:09.488
106, -2142.48, -452.94, -2805.08, -3757.32, 0.000, 0.000, 0.000, 15:34:09.488
107, -1631.31, 234.47, -2370.80, -4081.91, 0.000, 0.000, 0.000, 15:34:09.509
108, -2272.02, -102.07, -1802.22, -3640.04, 0.000, 0.000, 0.000, 15:34:09.510
109, -2373.32, -574.51, -2609.33, -4562.90, 0.000, 0.000, 0.000, 15:34:09.510
110, -1674.93, 44.69, -2720.29, -5493.14, 0.000, 0.000, 0.000, 15:34:09.510
111, -2054.06, 94.07, -1803.63, -4575.56, 0.000, 0.000, 0.000, 15:34:09.531
112, -2475.51, -515.32, -2287.85, -3679.18, 0.000, 0.000, 0.000, 15:34:09.532
113, -1908.31, -224.72, -2898.32, -3959.79, 0.000, 0.000, 0.000, 15:34:09.533
114, -1787.12, 215.00, -1991.72, -3947.39, 0.000, 0.000, 0.000, 15:34:09.533
115, -2468.77, -304.98, -2015.60, -3337.69, 0.000, 0.000, 0.000, 15:34:09.533
116, -2194.66, -509.75, -2824.68, -3751.61, 0.000, 0.000, 0.000, 15:34:09.533
117, -1623.47, 235.38, -2363.84, -4169.73, 0.000, 0.000, 0.000, 15:34:09.554
118, -2301.45, -112.72, -1801.57, -3602.45, 0.000, 0.000, 0.000, 15:34:09.554
119, -2404.66, -583.65, -2605.47, -4478.78, 0.000, 0.000, 0.000, 15:34:09.555
120, -1674.97, 0.16, -2733.71, -4568.42, 0.000, 0.000, 0.000, 15:34:09.555
121, -2068.00, 71.21, -1787.84, -4545.81, 0.000, 0.000, 0.000, 15:34:09.577
122, -2521.61, -557.39, -2322.54, -3608.01, 0.000, 0.000, 0.000, 15:34:09.577
123, -1920.98, -251.46, -2922.32, -3982.99, 0.000, 0.000, 0.000, 15:34:09.577
124, -1796.46, 238.38, -2048.04, -3036.59, 0.000, 0.000, 0.000, 15:34:09.577
125, -2468.47, -356.08, -2008.28, -2276.93, 0.000, 0.000, 0.000, 15:34:09.599
126, -2199.57, -478.69, -2842.86, -2773.28, 0.000, 0.000, 0.000, 15:34:09.599
127, -1613.71, 311.77, -2389.13, -3267.20, 0.000, 0.000, 0.000, 15:34:09.600
128, -2290.20, -158.48, -1804.70, -2577.53, 0.000, 0.000, 0.000, 15:34:09.600
129, -2415.49, -613.62, -2621.72, -3414.53, 0.000, 0.000, 0.000, 15:34:09.622
130, -1708.09, -52.44, -2782.01, -3638.64, 0.000, 0.000, 0.000, 15:34:09.622
131, -2058.63, 84.93, -1841.06, -3559.82, 0.000, 0.000, 0.000, 15:34:09.644
132, -2476.53, -548.15, -2345.63, -3536.07, 0.000, 0.000, 0.000, 15:34:09.644
133, -1942.21, -289.58, -2961.03, -4047.62, 0.000, 0.000, 0.000, 15:34:09.645
134, -1734.53, 308.77, -2034.76, -4023.00, 0.000, 0.000, 0.000, 15:34:09.645
135, -2471.82, -404.23, -2054.85, -3204.77, 0.000, 0.000, 0.000, 15:34:09.646
136, -2191.33, -500.54, -2880.66, -3702.34, 0.000, 0.000, 0.000, 15:34:09.646
137, -1645.97, 226.03, -2443.89, -4356.24, 0.000, 0.000, 0.000, 15:34:09.646
138, -2262.60, -91.35, -1816.97, -3523.65, 0.000, 0.000, 0.000, 15:34:09.646
139, -2475.18, -603.49, -2662.09, -4424.07, 0.000, 0.000, 0.000, 15:34:09.666
140, -1684.63, 66.08, -2771.20, -4720.02, 0.000, 0.000, 0.000, 15:34:09.667
141, -1948.70, 192.87, -1833.66, -4559.38, 0.000, 0.000, 0.000, 15:34:09.667
142, -2527.35, -599.71, -2316.99, -4404.56, 0.000, 0.000, 0.000, 15:34:09.667
143, -1946.45, -284.21, -2947.87, -5010.18, 0.000, 0.000, 0.000, 15:34:09.689
144, -1682.56, 287.02, -2039.72, -4087.39, 0.000, 0.000, 0.000, 15:34:09.689
145, -2403.96, -437.66, -2020.77, -4079.79, 0.000, 0.000, 0.000, 15:34:09.690
146, -2267.72, -637.77, -2907.97, -4632.41, 0.000, 0.000, 0.000, 15:34:09.690
147, -1593.88, 342.06, -2439.25, -5438.56, 0.000, 0.000, 0.000, 15:34:09.713
148, -2290.63, -47.47, -1803.18, -4631.58, 0.000, 0.000, 0.000, 15:34:09.713
149, -2445.66, -699.39, -2604.18, -5132.52, 0.000, 0.000, 0.000, 15:34:09.713
150, -1684.01, 18.45, -2817.37, -5685.84, 0.000, 0.000, 0.000, 15:34:09.713
151, -1996.08, 224.67, -2783.93, -4754.70, 0.000, 0.000, 0.000, 15:34:09.714
152, -2482.54, -645.85, -3258.56, -4271.98, 0.000, 0.000, 0.000, 15:34:09.714
153, -2030.25, -395.90, -3984.70, -4931.59, 0.000, 0.000, 0.000, 15:34:09.734
154, -1717.73, 390.98, -3037.42, -4288.61, 0.000, 0.000, 0.000, 15:34:09.734
155, -2481.87, -437.14, -2999.83, -4133.80, 0.000, 0.000, 0.000, 15:34:09.735
156, -2171.95, -590.94, -3815.23, -4442.55, 0.000, 0.000, 0.000, 15:34:09.735
157, -1603.75, 272.25, -3439.89, -4532.88, 0.000, 0.000, 0.000, 15:34:09.757
158, -2204.31, -98.57, -2756.91, -3557.59, 0.000, 0.000, 0.000, 15:34:09.757
159, -2488.50, -779.11, -3595.73, -4124.48, 0.000, 0.000, 0.000, 15:34:09.757
160, -1723.93, -20.31, -3806.39, -4787.18, 0.000, 0.000, 0.000, 15:34:09.758
161, -2011.00, 181.98, -3736.75, -4759.86, 0.000, 0.000, 0.000, 15:34:09.779
162, -2554.04, -649.13, -4210.69, -4274.80, 0.000, 0.000, 0.000, 15:34:09.779
163, -2008.79, -372.05, -4892.49, -4925.21, 0.000, 0.000, 0.000, 15:34:09.802
164, -1721.21, 303.73, -3990.64, -4297.83, 0.000, 0.000, 0.000, 15:34:09.802
165, -2427.11, -400.33, -3938.89, -4025.46, 0.000, 0.000, 0.000, 15:34:09.802
166, -2307.98, -642.92, -4820.70, -4482.50, 0.000, 0.000, 0.000, 15:34:09.803
167, -1641.48, 219.85, -4399.55, -4549.86, 0.000, 0.000, 0.000, 15:34:09.803
168, -2262.31, -135.50, -3751.69, -4548.57, 0.000, 0.000, 0.000, 15:34:09.803
169, -2462.72, -750.54, -4560.88, -5073.60, 0.000, 0.000, 0.000, 15:34:09.824
170, -1727.03, -22.40, -4776.92, -5815.32, 0.000, 0.000, 0.000, 15:34:09.824
171, -1949.95, 171.83, -4733.79, -5702.40, 0.000, 0.000, 0.000, 15:34:09.824
172, -2529.57, -669.22, -5236.35, -5239.76, 0.000, 0.000, 0.000, 15:34:09.825
173, -1986.42, -369.65, -5890.41, -5908.44, 0.000, 0.000, 0.000, 15:34:09.825
174, -1775.34, 347.37, -5003.77, -5369.74, 0.000, 0.000, 0.000, 15:34:09.825
175, -2497.22, -424.24, -4922.71, -5001.59, 0.000, 0.000, 0.000, 15:34:09.847
176, -2279.40, -651.10, -5803.44, -5460.22, 0.000, 0.000, 0.000, 15:34:09.847
177, -1575.55, 267.02, -5392.40, -5581.61, 0.000, 0.000, 0.000, 15:34:09.847
178, -2243.33, -141.37, -4743.80, -5497.72, 0.000, 0.000, 0.000, 15:34:09.848
179, -2474.00, -791.69, -5545.24, -6041.38, 0.000, 0.000, 0.000, 15:34:09.892
180, -1713.30, 3.90, -5747.84, -6797.00, 0.000, 0.000, 0.000, 15:34:09.892
181, -2011.20, 211.33, -4767.49, -6723.87, 0.000, 0.000, 0.000, 15:34:09.893
182, -2509.87, -670.62, -5240.19, -6147.25, 0.000, 0.000, 0.000, 15:34:09.893
183, -2030.10, -401.68, -5927.24, -6923.14, 0.000, 0.000, 0.000, 15:34:09.893
184, -1715.79, 358.81, -4995.48, -6332.58, 0.000, 0.000, 0.000, 15:34:09.894
185, -2457.01, -436.62, -4962.00, -5990.08, 0.000, 0.000, 0.000, 15:34:09.894
186, -2258.41, -605.22, -5785.84, -6405.77, 0.000, 0.000, 0.000, 15:34:09.894
187, -1665.41, 240.88, -5408.18, -6628.90, 0.000, 0.000, 0.000, 15:34:09.914
188, -2217.09, -116.74, -4737.85, -6443.35, 0.000, 0.000, 0.000, 15:34:09.914
189, -2520.81, -786.32, -5584.03, -7043.37, 0.000, 0.000, 0.000, 15:34:09.937
190, -1705.64, 37.67, -5755.35, -7799.37, 0.000, 0.000, 0.000, 15:34:09.937
191, -1999.98, 174.97, -5752.90, -7705.21, 0.000, 0.000, 0.000, 15:34:09.938
192, -2519.85, -643.71, -6205.97, -7114.48, 0.000, 0.000, 0.000, 15:34:09.938
193, -2047.27, -376.54, -6903.52, -7962.53, 0.000, 0.000, 0.000, 15:34:09.938
194, -1688.06, 354.97, -5956.95, -7300.82, 0.000, 0.000, 0.000, 15:34:09.939
195, -2451.34, -454.34, -5950.57, -6946.66, 0.000, 0.000, 0.000, 15:34:09.939
196, -2269.95, -640.38, -6779.01, -7392.81, 0.000, 0.000, 0.000, 15:34:09.939
197, -1704.94, 241.70, -6406.68, -7637.57, 0.000, 0.000, 0.000, 15:34:09.959
198, -2183.80, -63.35, -5690.29, -7416.38, 0.000, 0.000, 0.000, 15:34:09.959
199, -2484.22, -785.52, -6551.22, -7976.74, 0.000, 0.000, 0.000, 15:34:09.960
200, -1727.12, 6.73, -6744.21, -8779.73, 0.000, 0.000, 0.000, 15:34:09.960
