%OpenBCI Raw EEG Data
%
%Sample Rate = 200.0 Hz
%First Column = SampleIndex
%Last Column = Timestamp 
%Other Columns = EEG data in microvolts followed by Accel Data (in G) interleaved with Aux Data
0, 395.82, 5.45, 12.41, 15.64, 0.000, 0.000, 0.000, 15:38:06.407
1, -101.43, 12.74, 5.74, 7.75, 0.000, 0.000, 0.000, 15:38:06.411
2, -440.43, 3.63, 15.93, 18.15, 0.000, 0.000, 0.000, 15:38:06.412
3, 295.06, 6.59, 13.84, 12.03, 0.000, 0.000, 0.000, 15:38:06.413
4, 187.97, 7.61, 5.22, 9.95, 0.000, 0.000, 0.000, 15:38:06.413
5, -506.14, 12.62, 9.94, 7.80, 0.000, 0.000, 0.000, 15:38:06.428
6, 56.37, 5.33, 13.65, 17.40, 0.000, 0.000, 0.000, 15:38:06.429
7, 376.43, 5.69, 14.54, 11.10, 0.000, 0.000, 0.000, 15:38:06.430
8, -391.86, 7.21, 3.65, 5.52, 0.000, 0.000, 0.000, 15:38:06.430
9, -206.78, 6.72, 12.08, 16.80, 0.000, 0.000, 0.000, 15:38:06.431
10, 407.09, 5.43, 11.83, 14.44, 0.000, 0.000, 0.000, 15:38:06.431
11, -112.86, 14.98, 6.18, 7.89, 0.000, 0.000, 0.000, 15:38:06.450
12, -430.26, 12.80, 13.19, 10.31, 0.000, 0.000, 0.000, 15:38:06.451
13, 286.35, 4.95, 14.72, 15.59, 0.000, 0.000, 0.000, 15:38:06.452
14, 191.29, 11.71, 8.88, 8.72, 0.000, 0.000, 0.000, 15:38:06.453
15, -505.49, 9.76, 11.87, 11.04, 0.000, 0.000, 0.000, 15:38:06.481
16, 67.87, 6.09, 17.92, 18.09, 0.000, 0.000, 0.000, 15:38:06.482
17, 376.53, 7.06, 10.48, 16.79, 0.000, 0.000, 0.000, 15:38:06.482
18, -379.62, 11.65, 6.31, 6.21, 0.000, 0.000, 0.000, 15:38:06.483
19, -218.32, 1.74, 16.82, 18.95, 0.000, 0.000, 0.000, 15:38:06.483
20, 388.52, 6.77, 10.84, 13.94, 0.000, 0.000, 0.000, 15:38:06.483
21, -102.95, 14.88, 4.13, 3.17, 0.000, 0.000, 0.000, 15:38:06.500
22, -427.89, 0.99, 15.77, 13.02, 0.000, 0.000, 0.000, 15:38:06.501
23, 284.65, 6.73, 14.45, 13.95, 0.000, 0.000, 0.000, 15:38:06.505
24, 196.19, 5.55, 5.49, 9.70, 0.000, 0.000, 0.000, 15:38:06.505
25, -523.69, 11.70, 6.74, 14.23, 0.000, 0.000, 0.000, 15:38:06.522
26, 69.13, 3.83, 15.28, 16.05, 0.000, 0.000, 0.000, 15:38:06.522
27, 373.50, 10.81, 12.68, 11.44, 0.000, 0.000, 0.000, 15:38:06.522
28, -378.20, 9.72, 6.08, 6.48, 0.000, 0.000, 0.000, 15:38:06.523
29, -217.32, 5.14, 13.21, 13.75, 0.000, 0.000, 0.000, 15:38:06.542
30, 404.97, 9.61, 13.52, 16.32, 0.000, 0.000, 0.000, 15:38:06.543
31, -115.37, 6.84, 4.89, 8.40, 0.000, 0.000, 0.000, 15:38:06.543
32, -438.30, 8.17, 12.19, 15.51, 0.000, 0.000, 0.000, 15:38:06.544
33, 286.36, 2.92, 16.98, 10.74, 0.000, 0.000, 0.000, 15:38:06.563
34, 190.54, 8.07, 10.62, 7.92, 0.000, 0.000, 0.000, 15:38:06.563
35, -508.13, 9.42, 8.51, 8.43, 0.000, 0.000, 0.000, 15:38:06.564
36, 61.15, 8.25, 13.59, 16.92, 0.000, 0.000, 0.000, 15:38:06.564
37, 365.26, 10.46, 7.30, 11.63, 0.000, 0.000, 0.000, 15:38:06.566
38, -380.76, 13.75, 4.32, 7.21, 0.000, 0.000, 0.000, 15:38:06.566
39, -214.15, 6.80, 15.93, 14.87, 0.000, 0.000, 0.000, 15:38:06.586
40, 400.29, 2.74, 14.15, 13.80, 0.000, 0.000, 0.000, 15:38:06.587
41, -105.40, 16.11, 2.98, 8.52, 0.000, 0.000, 0.000, 15:38:06.587
42, -437.50, 7.14, 8.57, 11.60, 0.000, 0.000, 0.000, 15:38:06.588
43, 285.04, 6.56, 11.92, 11.23, 0.000, 0.000, 0.000, 15:38:06.608
44, 183.39, 6.97, 9.72, 9.00, 0.000, 0.000, 0.000, 15:38:06.608
45, -501.54, 9.41, 10.60, 14.50, 0.000, 0.000, 0.000, 15:38:06.610
46, 59.02, 3.53, 16.15, 15.03, 0.000, 0.000, 0.000, 15:38:06.610
47, 381.40, 10.72, 13.13, 12.24, 0.000, 0.000, 0.000, 15:38:06.630
48, -389.72, 15.04, 4.46, 5.13, 0.000, 0.000, 0.000, 15:38:06.630
49, -203.81, -0.22, 16.01, 15.63, 0.000, 0.000, 0.000, 15:38:06.631
50, 392.32, 2.99, 16.69, 15.11, 0.000, 0.000, 0.000, 15:38:06.631
51, -113.75, 19.69, 1.91, 6.99, 0.000, 0.000, 0.000, 15:38:06.655
52, -443.31, 6.44, 10.53, 13.90, 0.000, 0.000, 0.000, 15:38:06.655
53, 295.89, 5.73, 15.20, 13.60, 0.000, 0.000, 0.000, 15:38:06.655
54, 187.68, 13.10, 7.89, 7.56, 0.000, 0.000, 0.000, 15:38:06.656
55, -506.77, 10.96, 11.07, 10.36, 0.000, 0.000, 0.000, 15:38:06.656
56, 72.19, 5.23, 15.07, 15.08, 0.000, 0.000, 0.000, 15:38:06.656
57, 365.25, 11.65, 8.79, 13.12, 0.000, 0.000, 0.000, 15:38:06.675
58, -388.06, 7.26, 5.75, 8.02, 0.000, 0.000, 0.000, 15:38:06.676
59, -211.24, 6.95, 15.94, 16.71, 0.000, 0.000, 0.000, 15:38:06.676
60, 405.55, 7.21, 13.16, 12.63, 0.000, 0.000, 0.000, 15:38:06.677
61, -118.55, 13.58, 1.95, 9.17, 0.000, 0.000, 0.000, 15:38:06.698
62, -423.85, 7.23, 14.20, 15.14, 0.000, 0.000, 0.000, 15:38:06.698
63, 287.84, 2.67, 14.29, 11.46, 0.000, 0.000, 0.000, 15:38:06.698
64, 200.06, 6.63, 11.12, 10.65, 0.000, 0.000, 0.000, 15:38:06.699
65, -512.08, 9.65, 8.59, 12.36, 0.000, 0.000, 0.000, 15:38:06.720
66, 71.70, 9.27, 17.38, 16.60, 0.000, 0.000, 0.000, 15:38:06.721
67, 359.25, 3.37, 8.13, 12.61, 0.000, 0.000, 0.000, 15:38:06.721
68, -384.06, 12.64, 7.06, 8.62, 0.000, 0.000, 0.000, 15:38:06.721
69, -202.29, 4.86, 14.65, 14.42, 0.000, 0.000, 0.000, 15:38:06.743
70, 398.77, 5.53, 14.79, 12.56, 0.000, 0.000, 0.000, 15:38:06.743
71, -111.35, 12.34, 4.08, 7.77, 0.000, 0.000, 0.000, 15:38:06.744
72, -439.53, 7.78, 14.46, 13.69, 0.000, 0.000, 0.000, 15:38:06.744
73, 281.26, 2.72, 12.99, 14.35, 0.000, 0.000, 0.000, 15:38:06.745
74, 187.57, 10.11, 7.66, 10.27, 0.000, 0.000, 0.000, 15:38:06.745
75, -488.79, 14.63, 10.18, 10.04, 0.000, 0.000, 0.000, 15:38:06.765
76, 73.17, -0.18, 14.02, 15.45, 0.000, 0.000, 0.000, 15:38:06.765
77, 382.73, 7.93, 9.91, 9.31, 0.000, 0.000, 0.000, 15:38:06.766
78, -380.00, 10.28, 8.52, 9.83, 0.000, 0.000, 0.000, 15:38:06.766
79, -196.41, 3.52, 13.33, 13.45, 0.000, 0.000, 0.000, 15:38:06.787
80, 403.90, 5.30, 15.70, 14.99, 0.000, 0.000, 0.000, 15:38:06.788
81, -108.76, 16.96, 2.37, 7.23, 0.000, 0.000, 0.000, 15:38:06.788
82, -438.76, 5.02, 11.20, 11.28, 0.000, 0.000, 0.000, 15:38:06.789
83, 291.82, 7.28, 14.63, 15.37, 0.000, 0.000, 0.000, 15:38:06.811
84, 197.12, 14.65, 5.66, 9.69, 0.000, 0.000, 0.000, 15:38:06.811
85, -500.31, 4.83, 8.27, 10.65, 0.000, 0.000, 0.000, 15:38:06.811
86, 61.36, 7.45, 13.97, 14.96, 0.000, 0.000, 0.000, 15:38:06.812
87, 368.98, 7.58, 12.39, 13.87, 0.000, 0.000, 0.000, 15:38:06.832
88, -383.47, 16.35, 5.08, 7.94, 0.000, 0.000, 0.000, 15:38:06.833
89, -210.00, 4.85, 16.21, 15.51, 0.000, 0.000, 0.000, 15:38:06.833
90, 389.21, 6.99, 13.80, 14.83, 0.000, 0.000, 0.000, 15:38:06.834
91, -111.64, 13.09, 5.03, 2.03, 0.000, 0.000, 0.000, 15:38:06.834
92, -443.33, 5.76, 11.42, 13.97, 0.000, 0.000, 0.000, 15:38:06.834
93, 287.23, 5.63, 14.33, 16.15, 0.000, 0.000, 0.000, 15:38:06.855
94, 186.55, 11.88, 8.48, 10.00, 0.000, 0.000, 0.000, 15:38:06.856
95, -502.04, 11.92, 8.19, 6.56, 0.000, 0.000, 0.000, 15:38:06.856
96, 70.00, 0.99, 14.59, 16.31, 0.000, 0.000, 0.000, 15:38:06.856
97, 370.20, 10.78, 11.68, 12.52, 0.000, 0.000, 0.000, 15:38:06.878
98, -382.46, 9.10, 5.62, 4.85, 0.000, 0.000, 0.000, 15:38:06.878
99, -212.94, 2.40, 13.73, 14.16, 0.000, 0.000, 0.000, 15:38:06.878
100, 397.36, 7.12, 14.66, 14.08, 0.000, 0.000, 0.000, 15:38:06.879
101, -103.61, 16.84, 6.00, 4.35, 0.000, 0.000, 0.000, 15:38:06.900
102, -430.83, 11.70, 14.35, 16.01, 0.000, 0.000, 0.000, 15:38:06.900
103, 282.63, 2.06, 12.35, 16.34, 0.000, 0.000, 0.000, 15:38:06.901
104, 186.41, 16.11, 10.50, 8.39, 0.000, 0.000, 0.000, 15:38:06.901
105, -505.55, 9.97, 11.95, 9.74, 0.000, 0.000, 0.000, 15:38:06.922
106, 65.49, 3.38, 15.32, 17.45, 0.000, 0.000, 0.000, 15:38:06.923
107, 381.65, 7.07, 10.76, 10.88, 0.000, 0.000, 0.000, 15:38:06.924
108, -364.22, 11.72, 4.18, 3.84, 0.000, 0.000, 0.000, 15:38:06.924
109, -188.93, 3.97, 15.62, 14.98, 0.000, 0.000, 0.000, 15:38:06.924
110, 428.17, 3.79, 12.25, 12.98, 0.000, 0.000, 0.000, 15:38:06.925
111, -73.76, 13.72, 6.37, 8.63, 0.000, 0.000, 0.000, 15:38:06.945
112, -405.18, 2.49, 11.17, 11.21, 0.000, 0.000, 0.000, 15:38:06.945
113, 295.25, 5.16, 13.46, 16.61, 0.000, 0.000, 0.000, 15:38:06.946
114, 179.52, 10.56, 8.92, 8.66, 0.000, 0.000, 0.000, 15:38:06.946
115, -527.15, 8.56, 11.40, 10.26, 0.000, 0.000, 0.000, 15:38:06.968
116, 37.06, 5.37, 19.27, 19.96, 0.000, 0.000, 0.000, 15:38:06.968
117, 346.23, 12.70, 8.95, 12.63, 0.000, 0.000, 0.000, 15:38:06.969
118, -408.23, 13.18, 7.34, 5.19, 0.000, 0.000, 0.000, 15:38:06.969
119, -232.77, 4.28, 15.06, 16.97, 0.000, 0.000, 0.000, 15:38:06.990
120, 381.47, 5.84, 10.93, 11.99, 0.000, 0.000, 0.000, 15:38:06.994
121, -112.93, 8.79, 3.10, 5.74, 0.000, 0.000, 0.000, 15:38:06.994
122, -430.32, 8.29, 13.32, 15.41, 0.000, 0.000, 0.000, 15:38:06.996
123, 288.91, 6.54, 16.41, 12.63, 0.000, 0.000, 0.000, 15:38:07.012
124, 199.85, 11.89, 5.35, 10.71, 0.000, 0.000, 0.000, 15:38:07.014
125, -503.84, 9.22, 8.11, 8.93, 0.000, 0.000, 0.000, 15:38:07.015
126, 73.26, 5.85, 14.51, 11.99, 0.000, 0.000, 0.000, 15:38:07.015
127, 375.33, 10.17, 11.45, 12.93, 0.000, 0.000, 0.000, 15:38:07.018
128, -376.86, 9.77, 6.69, 9.66, 0.000, 0.000, 0.000, 15:38:07.018
129, -208.51, 7.76, 16.62, 17.25, 0.000, 0.000, 0.000, 15:38:07.035
130, 399.83, 1.49, 14.23, 14.94, 0.000, 0.000, 0.000, 15:38:07.036
131, -102.33, 12.94, 3.48, 8.03, 0.000, 0.000, 0.000, 15:38:07.036
132, -436.35, 9.16, 15.91, 13.96, 0.000, 0.000, 0.000, 15:38:07.037
133, 290.09, 5.89, 14.53, 14.19, 0.000, 0.000, 0.000, 15:38:07.058
134, 201.12, 8.61, 4.26, 6.20, 0.000, 0.000, 0.000, 15:38:07.059
135, -489.23, 11.04, 7.28, 9.48, 0.000, 0.000, 0.000, 15:38:07.059
136, 69.76, 2.47, 15.63, 14.59, 0.000, 0.000, 0.000, 15:38:07.059
137, 374.88, 8.97, 10.44, 10.86, 0.000, 0.000, 0.000, 15:38:07.080
138, -376.73, 19.05, 5.69, 5.28, 0.000, 0.000, 0.000, 15:38:07.081
139, -209.81, -0.12, 16.64, 17.85, 0.000, 0.000, 0.000, 15:38:07.081
140, 399.66, 7.38, 18.49, 14.81, 0.000, 0.000, 0.000, 15:38:07.081
141, -106.31, 15.56, 1.86, 8.19, 0.000, 0.000, 0.000, 15:38:07.102
142, -421.76, 12.37, 15.83, 12.54, 0.000, 0.000, 0.000, 15:38:07.103
143, 288.11, 3.78, 14.20, 14.49, 0.000, 0.000, 0.000, 15:38:07.103
144, 191.73, 13.42, 7.74, 8.21, 0.000, 0.000, 0.000, 15:38:07.104
145, -499.52, 8.79, 11.96, 12.49, 0.000, 0.000, 0.000, 15:38:07.104
146, 70.20, 6.36, 10.89, 17.69, 0.000, 0.000, 0.000, 15:38:07.104
147, 376.21, 9.06, 5.71, 11.06, 0.000, 0.000, 0.000, 15:38:07.129
148, -372.64, 8.89, 7.45, 4.98, 0.000, 0.000, 0.000, 15:38:07.130
149, -209.00, 4.53, 18.42, 14.79, 0.000, 0.000, 0.000, 15:38:07.130
150, 405.35, 9.40, 12.27, 14.59, 0.000, 0.000, 0.000, 15:38:07.130
151, -104.13, 14.54, 7.23, 7.10, 0.000, 0.000, 0.000, 15:38:07.148
152, -437.12, 3.29, 17.60, 10.90, 0.000, 0.000, 0.000, 15:38:07.148
153, 300.50, 2.96, 11.67, 19.21, 0.000, 0.000, 0.000, 15:38:07.149
154, 193.94, 11.57, 6.61, 13.37, 0.000, 0.000, 0.000, 15:38:07.149
155, -498.46, 8.83, 7.46, 2.86, 0.000, 0.000, 0.000, 15:38:07.170
156, 65.55, 8.28, 17.85, 17.24, 0.000, 0.000, 0.000, 15:38:07.171
157, 374.64, 4.56, 10.02, 12.82, 0.000, 0.000, 0.000, 15:38:07.171
158, -372.20, 15.02, 8.65, 7.87, 0.000, 0.000, 0.000, 15:38:07.171
159, -204.69, 2.96, 15.29, 15.75, 0.000, 0.000, 0.000, 15:38:07.193
160, 411.93, 9.92, 11.28, 14.58, 0.000, 0.000, 0.000, 15:38:07.194
161, -96.80, 15.54, 5.33, 8.36, 0.000, 0.000, 0.000, 15:38:07.194
162, -428.25, 6.50, 13.25, 12.15, 0.000, 0.000, 0.000, 15:38:07.194
163, 292.95, 4.76, 14.57, 15.87, 0.000, 0.000, 0.000, 15:38:07.195
164, 199.70, 10.49, 6.58, 8.69, 0.000, 0.000, 0.000, 15:38:07.195
165, -502.93, 11.35, 9.68, 10.86, 0.000, 0.000, 0.000, 15:38:07.215
166, 69.67, 1.98, 19.59, 16.89, 0.000, 0.000, 0.000, 15:38:07.216
167, 358.91, 7.40, 12.62, 12.19, 0.000, 0.000, 0.000, 15:38:07.216
168, -368.87, 12.79, 10.13, 7.78, 0.000, 0.000, 0.000, 15:38:07.217
169, -217.24, 5.47, 15.64, 19.60, 0.000, 0.000, 0.000, 15:38:07.238
170, 398.51, 4.47, 10.12, 12.80, 0.000, 0.000, 0.000, 15:38:07.238
171, -112.02, 16.77, 5.01, 4.01, 0.000, 0.000, 0.000, 15:38:07.238
172, -439.91, 6.99, 13.87, 16.70, 0.000, 0.000, 0.000, 15:38:07.239
173, 274.14, 6.83, 12.53, 13.72, 0.000, 0.000, 0.000, 15:38:07.260
174, 183.80, 16.74, 8.70, 8.18, 0.000, 0.000, 0.000, 15:38:07.261
175, -519.14, 5.98, 12.27, 7.40, 0.000, 0.000, 0.000, 15:38:07.261
176, 48.68, 2.05, 17.04, 13.24, 0.000, 0.000, 0.000, 15:38:07.261
177, 383.13, 8.04, 8.89, 17.01, 0.000, 0.000, 0.000, 15:38:07.283
178, -387.54, 13.04, 6.27, 7.65, 0.000, 0.000, 0.000, 15:38:07.283
179, -217.79, 4.54, 14.20, 14.50, 0.000, 0.000, 0.000, 15:38:07.283
180, 385.14, 5.97, 12.42, 16.12, 0.000, 0.000, 0.000, 15:38:07.284
181, -111.12, 13.56, 3.46, 6.20, 0.000, 0.000, 0.000, 15:38:07.284
182, -440.71, 5.00, 16.02, 14.06, 0.000, 0.000, 0.000, 15:38:07.285
183, 265.65, 7.33, 10.44, 18.29, 0.000, 0.000, 0.000, 15:38:07.305
184, 191.94, 6.93, 4.35, 5.23, 0.000, 0.000, 0.000, 15:38:07.306
185, -516.03, 6.79, 8.32, 7.83, 0.000, 0.000, 0.000, 15:38:07.306
186, 65.51, 3.08, 15.64, 17.77, 0.000, 0.000, 0.000, 15:38:07.306
187, 365.41, 8.69, 12.04, 10.65, 0.000, 0.000, 0.000, 15:38:07.328
188, -386.28, 14.13, 7.18, 9.02, 0.000, 0.000, 0.000, 15:38:07.328
189, -228.48, 3.52, 17.96, 15.57, 0.000, 0.000, 0.000, 15:38:07.328
190, 397.69, 6.00, 13.38, 15.12, 0.000, 0.000, 0.000, 15:38:07.329
191, -107.33, 12.77, 1.36, 5.16, 0.000, 0.000, 0.000, 15:38:07.350
192, -433.25, 11.29, 12.79, 15.30, 0.000, 0.000, 0.000, 15:38:07.351
193, 279.46, 1.80, 13.93, 12.32, 0.000, 0.000, 0.000, 15:38:07.351
194, 202.67, 11.00, 11.96, 8.32, 0.000, 0.000, 0.000, 15:38:07.352
195, -500.19, 11.13, 7.66, 12.15, 0.000, 0.000, 0.000, 15:38:07.374
196, 56.00, 4.94, 17.21, 17.99, 0.000, 0.000, 0.000, 15:38:07.375
197, 381.26, 9.05, 12.38, 13.76, 0.000, 0.000, 0.000, 15:38:07.375
198, -378.34, 13.13, 4.31, 6.97, 0.000, 0.000, 0.000, 15:38:07.375
199, -220.24, 7.09, 14.84, 17.81, 0.000, 0.000, 0.000, 15:38:07.376
200, 393.52, 8.99, 15.21, 14.78, 0.000, 0.000, 0.000, 15:38:07.376
0, -111.86, 15.40, 2.68, 6.13, 0.000, 0.000, 0.000, 15:38:07.395
1, -440.22, 6.71, 12.02, 15.53, 0.000, 0.000, 0.000, 15:38:07.396
2, 281.92, 3.28, 13.47, 16.54, 0.000, 0.000, 0.000, 15:38:07.397
3, 186.92, 8.77, 8.04, 6.94, 0.000, 0.000, 0.000, 15:38:07.418
4, -502.49, 12.62, 12.34, 9.51, 0.000, 0.000, 0.000, 15:38:07.418
5, 58.79, 0.19, 17.91, 14.28, 0.000, 0.000, 0.000, 15:38:07.419
6, 372.39, 10.93, 8.53, 8.44, 0.000, 0.000, 0.000, 15:38:07.419
7, -385.02, 12.83, 4.83, 6.90, 0.000, 0.000, 0.000, 15:38:07.419
8, -208.17, 2.74, 17.38, 16.43, 0.000, 0.000, 0.000, 15:38:07.420
9, 403.58, 10.81, 16.07, 14.45, 0.000, 0.000, 0.000, 15:38:07.440
10, -104.67, 11.80, 3.18, 9.10, 0.000, 0.000, 0.000, 15:38:07.441
11, -436.25, 8.91, 14.38, 14.38, 0.000, 0.000, 0.000, 15:38:07.441
12, 280.15, 1.82, 12.09, 13.74, 0.000, 0.000, 0.000, 15:38:07.442
13, 184.90, 10.31, 9.86, 10.04, 0.000, 0.000, 0.000, 15:38:07.462
14, -492.81, 8.78, 8.46, 11.81, 0.000, 0.000, 0.000, 15:38:07.463
15, 62.45, 5.42, 17.02, 16.72, 0.000, 0.000, 0.000, 15:38:07.463
16, 381.59, 10.82, 13.27, 11.26, 0.000, 0.000, 0.000, 15:38:07.463
17, -377.71, 11.96, 5.00, 4.76, 0.000, 0.000, 0.000, 15:38:07.485
18, -214.55, 7.49, 11.96, 11.56, 0.000, 0.000, 0.000, 15:38:07.485
19, 390.24, -1.49, 11.97, 13.13, 0.000, 0.000, 0.000, 15:38:07.486
20, -106.16, 15.42, 6.02, 6.88, 0.000, 0.000, 0.000, 15:38:07.486
21, -440.62, 5.04, 15.70, 14.62, 0.000, 0.000, 0.000, 15:38:07.508
22, 288.39, 6.01, 16.85, 16.52, 0.000, 0.000, 0.000, 15:38:07.508
23, 186.65, 8.82, 8.43, 12.81, 0.000, 0.000, 0.000, 15:38:07.508
24, -503.91, 9.53, 7.72, 11.22, 0.000, 0.000, 0.000, 15:38:07.509
25, 73.56, 5.54, 13.40, 14.92, 0.000, 0.000, 0.000, 15:38:07.509
26, 368.23, 7.26, 9.57, 10.50, 0.000, 0.000, 0.000, 15:38:07.510
27, -377.12, 17.24, 7.36, 4.30, 0.000, 0.000, 0.000, 15:38:07.530
28, -223.93, 2.38, 15.08, 13.49, 0.000, 0.000, 0.000, 15:38:07.530
29, 394.16, 4.75, 12.96, 15.21, 0.000, 0.000, 0.000, 15:38:07.531
30, -106.14, 13.98, 3.28, 5.28, 0.000, 0.000, 0.000, 15:38:07.531
31, -434.32, 6.38, 14.44, 12.16, 0.000, 0.000, 0.000, 15:38:07.555
32, 276.15, 5.48, 10.36, 16.90, 0.000, 0.000, 0.000, 15:38:07.556
33, 197.16, 9.88, 7.02, 7.93, 0.000, 0.000, 0.000, 15:38:07.556
34, -506.74, 7.70, 11.22, 9.10, 0.000, 0.000, 0.000, 15:38:07.556
35, 57.62, 7.22, 14.87, 16.64, 0.000, 0.000, 0.000, 15:38:07.575
36, 366.28, 14.28, 11.28, 11.54, 0.000, 0.000, 0.000, 15:38:07.576
37, -384.33, 9.99, 7.84, 8.53, 0.000, 0.000, 0.000, 15:38:07.576
38, -213.00, 1.55, 16.76, 14.77, 0.000, 0.000, 0.000, 15:38:07.576
39, 411.07, 4.15, 11.32, 13.59, 0.000, 0.000, 0.000, 15:38:07.598
40, -103.77, 17.25, 5.27, 2.66, 0.000, 0.000, 0.000, 15:38:07.598
41, -439.57, 8.72, 10.60, 11.27, 0.000, 0.000, 0.000, 15:38:07.598
42, 285.67, 4.77, 15.50, 14.75, 0.000, 0.000, 0.000, 15:38:07.599
43, 199.52, 15.31, 10.70, 14.23, 0.000, 0.000, 0.000, 15:38:07.599
44, -504.12, 12.01, 8.34, 13.15, 0.000, 0.000, 0.000, 15:38:07.599
45, 58.02, 5.82, 14.01, 14.62, 0.000, 0.000, 0.000, 15:38:07.620
46, 364.43, 4.78, 11.71, 11.54, 0.000, 0.000, 0.000, 15:38:07.621
47, -375.49, 15.32, 6.23, 8.41, 0.000, 0.000, 0.000, 15:38:07.621
48, -211.20, 7.74, 14.71, 15.61, 0.000, 0.000, 0.000, 15:38:07.621
49, 397.50, 7.39, 11.04, 13.97, 0.000, 0.000, 0.000, 15:38:07.644
50, -99.36, 9.82, 4.36, 9.67, 0.000, 0.000, 0.000, 15:38:07.644
51, -436.71, 6.94, 13.94, 13.31, 0.000, 0.000, 0.000, 15:38:07.644
52, 282.84, 5.19, 14.25, 11.09, 0.000, 0.000, 0.000, 15:38:07.645
53, 194.62, 14.33, 6.11, 8.75, 0.000, 0.000, 0.000, 15:38:07.665
54, -510.74, 16.21, 9.35, 11.54, 0.000, 0.000, 0.000, 15:38:07.665
55, 62.33, -2.32, 18.51, 18.01, 0.000, 0.000, 0.000, 15:38:07.667
56, 379.99, 7.66, 10.98, 10.02, 0.000, 0.000, 0.000, 15:38:07.668
57, -377.74, 12.01, 5.33, 6.14, 0.000, 0.000, 0.000, 15:38:07.688
58, -220.41, 4.22, 15.35, 11.57, 0.000, 0.000, 0.000, 15:38:07.688
59, 401.73, 2.33, 14.68, 16.06, 0.000, 0.000, 0.000, 15:38:07.689
60, -95.20, 10.69, 6.60, 6.36, 0.000, 0.000, 0.000, 15:38:07.690
61, -429.33, 2.78, 13.79, 13.36, 0.000, 0.000, 0.000, 15:38:07.690
62, 278.81, 4.91, 14.07, 12.66, 0.000, 0.000, 0.000, 15:38:07.691
63, 188.90, 16.51, 6.89, 12.21, 0.000, 0.000, 0.000, 15:38:07.710
64, -500.52, 6.29, 7.91, 12.99, 0.000, 0.000, 0.000, 15:38:07.711
65, 53.45, 7.86, 16.43, 15.80, 0.000, 0.000, 0.000, 15:38:07.711
66, 373.22, 6.97, 8.21, 9.02, 0.000, 0.000, 0.000, 15:38:07.712
67, -374.98, 12.78, 7.76, 5.13, 0.000, 0.000, 0.000, 15:38:07.733
68, -213.71, 3.98, 16.34, 15.01, 0.000, 0.000, 0.000, 15:38:07.733
69, 387.32, 4.99, 16.02, 14.17, 0.000, 0.000, 0.000, 15:38:07.734
70, -102.85, 12.78, 4.24, 7.70, 0.000, 0.000, 0.000, 15:38:07.734
71, -433.74, 6.64, 11.52, 15.57, 0.000, 0.000, 0.000, 15:38:07.755
72, 280.38, 9.75, 13.32, 17.96, 0.000, 0.000, 0.000, 15:38:07.756
73, 202.12, 7.09, 6.17, 9.27, 0.000, 0.000, 0.000, 15:38:07.778
74, -500.79, 10.40, 8.43, 8.73, 0.000, 0.000, 0.000, 15:38:07.778
75, 51.50, 4.48, 15.55, 15.60, 0.000, 0.000, 0.000, 15:38:07.778
76, 376.77, 6.83, 10.92, 13.61, 0.000, 0.000, 0.000, 15:38:07.779
77, -371.00, 11.20, 2.08, 5.19, 0.000, 0.000, 0.000, 15:38:07.779
78, -212.00, 6.66, 16.62, 15.81, 0.000, 0.000, 0.000, 15:38:07.779
79, 403.50, 6.03, 16.53, 14.46, 0.000, 0.000, 0.000, 15:38:07.800
80, -105.11, 13.54, 6.74, 5.74, 0.000, 0.000, 0.000, 15:38:07.801
81, -435.22, 6.46, 14.09, 15.80, 0.000, 0.000, 0.000, 15:38:07.801
82, 287.40, 7.24, 14.36, 16.23, 0.000, 0.000, 0.000, 15:38:07.802
83, 210.37, 9.82, 6.34, 10.01, 0.000, 0.000, 0.000, 15:38:07.802
84, -501.87, 11.96, 11.66, 6.84, 0.000, 0.000, 0.000, 15:38:07.802
85, 68.19, 4.62, 15.01, 14.34, 0.000, 0.000, 0.000, 15:38:07.823
86, 363.05, 7.15, 13.39, 14.33, 0.000, 0.000, 0.000, 15:38:07.823
87, -374.10, 11.61, 5.67, 9.58, 0.000, 0.000, 0.000, 15:38:07.824
88, -220.53, 4.16, 15.04, 15.88, 0.000, 0.000, 0.000, 15:38:07.824
89, 412.36, 3.17, 16.88, 13.42, 0.000, 0.000, 0.000, 15:38:07.845
90, -103.09, 20.44, 3.89, 5.75, 0.000, 0.000, 0.000, 15:38:07.845
91, -433.36, 0.77, 11.90, 16.08, 0.000, 0.000, 0.000, 15:38:07.846
92, 272.53, 6.05, 15.92, 14.38, 0.000, 0.000, 0.000, 15:38:07.846
93, 206.79, 12.61, 5.49, 11.91, 0.000, 0.000, 0.000, 15:38:07.868
94, -511.46, 8.60, 9.88, 8.44, 0.000, 0.000, 0.000, 15:38:07.868
95, 57.67, 2.08, 13.53, 18.13, 0.000, 0.000, 0.000, 15:38:07.868
96, 370.29, 5.63, 7.86, 12.14, 0.000, 0.000, 0.000, 15:38:07.869
97, -374.88, 9.79, 5.15, 6.38, 0.000, 0.000, 0.000, 15:38:07.869
98, -223.81, 6.53, 17.19, 20.13, 0.000, 0.000, 0.000, 15:38:07.869
99, 393.30, 10.44, 11.12, 12.01, 0.000, 0.000, 0.000, 15:38:07.890
100, -106.71, 12.35, 0.02, 7.73, 0.000, 0.000, 0.000, 15:38:07.891
101, -443.75, 8.84, 12.32, 11.24, 0.000, 0.000, 0.000, 15:38:07.891
102, 292.50, 5.36, 14.28, 17.86, 0.000, 0.000, 0.000, 15:38:07.891
103, 191.88, 14.20, 7.30, 13.13, 0.000, 0.000, 0.000, 15:38:07.913
104, -511.55, 13.20, 7.53, 10.28, 0.000, 0.000, 0.000, 15:38:07.914
105, 68.80, 6.90, 18.17, 16.05, 0.000, 0.000, 0.000, 15:38:07.914
106, 372.15, 5.99, 10.65, 12.21, 0.000, 0.000, 0.000, 15:38:07.914
107, -372.94, 13.24, 7.81, 6.04, 0.000, 0.000, 0.000, 15:38:07.935
108, -221.23, 8.49, 13.61, 15.22, 0.000, 0.000, 0.000, 15:38:07.936
109, 391.95, 3.46, 13.97, 16.85, 0.000, 0.000, 0.000, 15:38:07.936
110, -107.45, 14.68, 5.31, 5.54, 0.000, 0.000, 0.000, 15:38:07.936
111, -438.31, 6.11, 13.31, 11.37, 0.000, 0.000, 0.000, 15:38:07.958
112, 277.01, 5.25, 14.48, 11.99, 0.000, 0.000, 0.000, 15:38:07.958
113, 220.34, 12.23, 6.79, 9.52, 0.000, 0.000, 0.000, 15:38:07.980
114, -492.08, 9.50, 12.55, 8.38, 0.000, 0.000, 0.000, 15:38:07.980
115, 83.57, 3.14, 15.82, 14.56, 0.000, 0.000, 0.000, 15:38:07.981
116, 397.48, 6.02, 11.21, 11.50, 0.000, 0.000, 0.000, 15:38:07.981
117, -339.64, 9.56, 7.43, 10.79, 0.000, 0.000, 0.000, 15:38:07.982
118, -193.57, 7.21, 16.25, 15.65, 0.000, 0.000, 0.000, 15:38:07.982
119, 398.40, 6.37, 13.99, 13.39, 0.000, 0.000, 0.000, 15:38:08.002
120, -116.04, 12.52, 5.71, 7.63, 0.000, 0.000, 0.000, 15:38:08.003
121, -464.21, 7.44, 8.71, 15.14, 0.000, 0.000, 0.000, 15:38:08.003
122, 254.29, 6.28, 15.12, 16.75, 0.000, 0.000, 0.000, 15:38:08.003
123, 167.38, 10.28, 8.11, 9.26, 0.000, 0.000, 0.000, 15:38:08.004
124, -524.25, 12.47, 11.62, 8.90, 0.000, 0.000, 0.000, 15:38:08.004
125, 27.95, 1.81, 15.10, 13.52, 0.000, 0.000, 0.000, 15:38:08.025
126, 371.59, 11.48, 8.68, 11.94, 0.000, 0.000, 0.000, 15:38:08.026
127, -376.95, 11.52, 8.31, 5.56, 0.000, 0.000, 0.000, 15:38:08.026
128, -219.40, 6.99, 15.24, 16.73, 0.000, 0.000, 0.000, 15:38:08.027
129, 404.06, 6.83, 14.35, 14.32, 0.000, 0.000, 0.000, 15:38:08.047
130, -93.65, 14.39, 4.84, 5.77, 0.000, 0.000, 0.000, 15:38:08.048
131, -430.97, 3.67, 13.60, 14.60, 0.000, 0.000, 0.000, 15:38:08.048
132, 293.02, 6.32, 13.73, 15.65, 0.000, 0.000, 0.000, 15:38:08.049
133, 203.10, 12.92, 7.69, 6.92, 0.000, 0.000, 0.000, 15:38:08.049
134, -496.37, 9.36, 10.84, 10.09, 0.000, 0.000, 0.000, 15:38:08.049
135, 57.57, 4.70, 17.92, 14.24, 0.000, 0.000, 0.000, 15:38:08.070
136, 382.42, 7.19, 11.95, 10.83, 0.000, 0.000, 0.000, 15:38:08.070
137, -374.66, 12.12, 4.91, 10.20, 0.000, 0.000, 0.000, 15:38:08.071
138, -215.61, 4.46, 15.17, 14.84, 0.000, 0.000, 0.000, 15:38:08.071
139, 401.78, 7.39, 11.09, 14.25, 0.000, 0.000, 0.000, 15:38:08.093
140, -97.29, 13.17, 4.88, 6.81, 0.000, 0.000, 0.000, 15:38:08.093
141, -437.46, 11.52, 14.08, 14.14, 0.000, 0.000, 0.000, 15:38:08.093
142, 274.20, 6.67, 13.61, 16.72, 0.000, 0.000, 0.000, 15:38:08.094
143, 196.42, 11.84, 8.63, 7.21, 0.000, 0.000, 0.000, 15:38:08.115
144, -494.13, 16.95, 8.28, 12.71, 0.000, 0.000, 0.000, 15:38:08.116
145, 70.17, -0.17, 12.85, 14.40, 0.000, 0.000, 0.000, 15:38:08.116
146, 376.83, 7.32, 10.89, 9.72, 0.000, 0.000, 0.000, 15:38:08.117
147, -366.17, 11.83, 7.31, 5.63, 0.000, 0.000, 0.000, 15:38:08.138
148, -215.12, 2.71, 14.18, 14.75, 0.000, 0.000, 0.000, 15:38:08.138
149, 395.62, 6.41, 13.10, 14.85, 0.000, 0.000, 0.000, 15:38:08.139
150, -97.04, 16.07, 3.33, 6.10, 0.000, 0.000, 0.000, 15:38:08.139
151, -441.93, 3.23, 14.19, 14.79, 0.000, 0.000, 0.000, 15:38:08.139
152, 292.62, 6.35, 12.04, 14.79, 0.000, 0.000, 0.000, 15:38:08.140
153, 194.86, 12.51, 10.41, 7.99, 0.000, 0.000, 0.000, 15:38:08.160
154, -496.21, 12.15, 8.86, 13.87, 0.000, 0.000, 0.000, 15:38:08.160
155, 65.49, 1.31, 15.30, 12.12, 0.000, 0.000, 0.000, 15:38:08.161
156, 376.83, 6.77, 9.98, 11.14, 0.000, 0.000, 0.000, 15:38:08.161
157, -368.25, 14.42, 8.08, 7.28, 0.000, 0.000, 0.000, 15:38:08.183
158, -207.49, 2.64, 18.56, 17.29, 0.000, 0.000, 0.000, 15:38:08.183
159, 390.76, 7.53, 15.04, 12.45, 0.000, 0.000, 0.000, 15:38:08.185
160, -84.72, 14.52, 1.67, 7.57, 0.000, 0.000, 0.000, 15:38:08.185
161, -433.40, 7.26, 15.11, 11.67, 0.000, 0.000, 0.000, 15:38:08.205
162, 295.09, 9.55, 15.34, 15.66, 0.000, 0.000, 0.000, 15:38:08.206
163, 205.06, 5.36, 8.67, 11.51, 0.000, 0.000, 0.000, 15:38:08.206
164, -492.63, 12.74, 11.05, 13.44, 0.000, 0.000, 0.000, 15:38:08.206
165, 60.10, 2.31, 15.12, 17.97, 0.000, 0.000, 0.000, 15:38:08.228
166, 385.05, 6.40, 8.54, 10.74, 0.000, 0.000, 0.000, 15:38:08.228
167, -370.84, 10.65, 5.16, 8.91, 0.000, 0.000, 0.000, 15:38:08.228
168, -199.90, 5.90, 16.91, 19.18, 0.000, 0.000, 0.000, 15:38:08.229
169, 391.67, 4.99, 16.69, 15.72, 0.000, 0.000, 0.000, 15:38:08.229
170, -98.83, 11.98, 5.50, 5.24, 0.000, 0.000, 0.000, 15:38:08.229
171, -442.00, 13.90, 12.05, 14.76, 0.000, 0.000, 0.000, 15:38:08.250
172, 291.03, 1.38, 14.45, 16.62, 0.000, 0.000, 0.000, 15:38:08.251
173, 203.99, 11.40, 6.63, 6.79, 0.000, 0.000, 0.000, 15:38:08.251
174, -502.06, 12.31, 8.62, 8.94, 0.000, 0.000, 0.000, 15:38:08.251
175, 66.15, 4.64, 13.70, 15.33, 0.000, 0.000, 0.000, 15:38:08.273
176, 371.16, 7.64, 10.17, 10.56, 0.000, 0.000, 0.000, 15:38:08.273
177, -372.24, 16.89, 4.57, 4.90, 0.000, 0.000, 0.000, 15:38:08.273
178, -227.89, 3.89, 14.45, 12.61, 0.000, 0.000, 0.000, 15:38:08.275
179, 395.19, 4.64, 12.47, 14.30, 0.000, 0.000, 0.000, 15:38:08.296
180, -99.26, 19.55, 6.29, 5.91, 0.000, 0.000, 0.000, 15:38:08.296
181, -446.14, 1.84, 14.12, 17.19, 0.000, 0.000, 0.000, 15:38:08.297
182, 277.57, 5.29, 19.08, 14.38, 0.000, 0.000, 0.000, 15:38:08.297
183, 188.05, 12.02, 10.48, 9.22, 0.000, 0.000, 0.000, 15:38:08.317
184, -517.02, 12.21, 7.59, 10.80, 0.000, 0.000, 0.000, 15:38:08.318
185, 48.99, 2.92, 15.72, 18.19, 0.000, 0.000, 0.000, 15:38:08.318
186, 362.17, 5.46, 10.17, 11.05, 0.000, 0.000, 0.000, 15:38:08.319
187, -373.89, 12.45, 3.84, 6.08, 0.000, 0.000, 0.000, 15:38:08.320
188, -225.96, 2.22, 12.55, 12.84, 0.000, 0.000, 0.000, 15:38:08.320
189, 387.76, 10.44, 11.39, 14.74, 0.000, 0.000, 0.000, 15:38:08.340
190, -110.53, 7.03, 4.05, 5.13, 0.000, 0.000, 0.000, 15:38:08.341
191, -439.13, 6.98, 14.76, 11.98, 0.000, 0.000, 0.000, 15:38:08.341
192, 281.58, 4.47, 14.00, 13.55, 0.000, 0.000, 0.000, 15:38:08.341
193, 189.03, 11.05, 9.15, 8.09, 0.000, 0.000, 0.000, 15:38:08.363
194, -507.41, 11.62, 8.08, 10.61, 0.000, 0.000, 0.000, 15:38:08.363
195, 53.83, 3.12, 11.57, 17.12, 0.000, 0.000, 0.000, 15:38:08.364
196, 364.93, 6.89, 9.70, 11.24, 0.000, 0.000, 0.000, 15:38:08.364
197, -361.84, 10.48, 3.24, 10.82, 0.000, 0.000, 0.000, 15:38:08.385
198, -213.33, 10.55, 17.83, 16.14, 0.000, 0.000, 0.000, 15:38:08.386
199, 389.07, 1.57, 8.34, 13.71, 0.000, 0.000, 0.000, 15:38:08.386
200, -94.00, 15.69, 6.65, 11.59, 0.000, 0.000, 0.000, 15:38:08.386
0, -440.44, 8.50, 12.08, 16.42, 0.000, 0.000, 0.000, 15:38:08.387
1, 271.92, 9.22, 14.92, 13.86, 0.000, 0.000, 0.000, 15:38:08.408
2, 198.72, 9.60, 12.46, 12.14, 0.000, 0.000, 0.000, 15:38:08.408
3, -505.95, 7.33, 9.56, 11.48, 0.000, 0.000, 0.000, 15:38:08.408
4, 52.13, 1.58, 17.77, 16.47, 0.000, 0.000, 0.000, 15:38:08.409
5, 372.68, 10.80, 9.01, 12.30, 0.000, 0.000, 0.000, 15:38:08.430
6, -368.90, 18.18, 3.74, 6.01, 0.000, 0.000, 0.000, 15:38:08.431
7, -223.03, -2.51, 13.40, 17.37, 0.000, 0.000, 0.000, 15:38:08.431
8, 390.51, 8.08, 12.87, 13.18, 0.000, 0.000, 0.000, 15:38:08.432
9, -100.22, 15.37, 7.73, 5.53, 0.000, 0.000, 0.000, 15:38:08.453
10, -437.80, 5.23, 13.63, 11.02, 0.000, 0.000, 0.000, 15:38:08.453
11, 278.25, 5.81, 17.37, 15.68, 0.000, 0.000, 0.000, 15:38:08.454
12, 197.66, 10.09, 8.24, 11.91, 0.000, 0.000, 0.000, 15:38:08.454
13, -509.68, 13.29, 10.97, 8.34, 0.000, 0.000, 0.000, 15:38:08.454
14, 59.31, -0.06, 15.56, 16.39, 0.000, 0.000, 0.000, 15:38:08.455
15, 375.73, 8.76, 15.29, 9.87, 0.000, 0.000, 0.000, 15:38:08.475
16, -368.83, 8.70, 4.92, 7.02, 0.000, 0.000, 0.000, 15:38:08.476
17, -227.43, 9.62, 17.57, 13.41, 0.000, 0.000, 0.000, 15:38:08.476
18, 390.47, 7.41, 13.29, 12.12, 0.000, 0.000, 0.000, 15:38:08.476
19, -91.78, 13.59, 5.66, 5.10, 0.000, 0.000, 0.000, 15:38:08.498
20, -437.89, 2.60, 10.25, 12.17, 0.000, 0.000, 0.000, 15:38:08.498
21, 276.49, 3.33, 13.04, 17.03, 0.000, 0.000, 0.000, 15:38:08.498
22, 197.58, 10.70, 8.01, 10.34, 0.000, 0.000, 0.000, 15:38:08.498
23, -514.53, 12.07, 8.10, 8.21, 0.000, 0.000, 0.000, 15:38:08.520
24, 65.80, 7.14, 9.79, 10.93, 0.000, 0.000, 0.000, 15:38:08.520
25, 379.62, 6.66, 7.22, 9.73, 0.000, 0.000, 0.000, 15:38:08.542
26, -366.14, 17.46, 5.66, 5.59, 0.000, 0.000, 0.000, 15:38:08.543
27, -228.97, 3.67, 17.31, 14.71, 0.000, 0.000, 0.000, 15:38:08.543
28, 392.09, 7.13, 15.81, 12.80, 0.000, 0.000, 0.000, 15:38:08.544
29, -104.22, 11.22, 5.79, 9.89, 0.000, 0.000, 0.000, 15:38:08.544
30, -441.33, 4.83, 13.49, 14.50, 0.000, 0.000, 0.000, 15:38:08.544
31, 278.81, 4.23, 12.30, 14.70, 0.000, 0.000, 0.000, 15:38:08.545
32, 195.89, 11.51, 9.46, 6.82, 0.000, 0.000, 0.000, 15:38:08.545
33, -498.83, 10.45, 11.22, 14.83, 0.000, 0.000, 0.000, 15:38:08.565
34, 51.13, 5.92, 12.09, 19.40, 0.000, 0.000, 0.000, 15:38:08.566
35, 371.13, 9.77, 9.90, 17.00, 0.000, 0.000, 0.000, 15:38:08.566
36, -365.73, 15.52, 5.79, 6.03, 0.000, 0.000, 0.000, 15:38:08.566
37, -232.66, 3.38, 11.83, 10.55, 0.000, 0.000, 0.000, 15:38:08.587
38, 406.43, 5.66, 13.61, 15.41, 0.000, 0.000, 0.000, 15:38:08.588
39, -96.72, 14.86, 5.24, 8.30, 0.000, 0.000, 0.000, 15:38:08.588
40, -439.66, 8.89, 10.57, 14.05, 0.000, 0.000, 0.000, 15:38:08.588
41, 286.11, 8.18, 16.06, 15.44, 0.000, 0.000, 0.000, 15:38:08.610
42, 197.91, 15.01, 9.63, 5.33, 0.000, 0.000, 0.000, 15:38:08.610
43, -497.80, 2.33, 8.24, 10.02, 0.000, 0.000, 0.000, 15:38:08.611
44, 50.55, 2.98, 14.79, 16.13, 0.000, 0.000, 0.000, 15:38:08.611
45, 378.81, 6.55, 10.48, 12.74, 0.000, 0.000, 0.000, 15:38:08.632
46, -372.97, 12.83, 9.10, 6.98, 0.000, 0.000, 0.000, 15:38:08.633
47, -211.30, 7.06, 15.18, 15.43, 0.000, 0.000, 0.000, 15:38:08.633
48, 390.88, 9.72, 12.30, 16.95, 0.000, 0.000, 0.000, 15:38:08.633
49, -100.52, 12.27, 4.92, 8.62, 0.000, 0.000, 0.000, 15:38:08.634
50, -436.01, 2.81, 15.06, 15.91, 0.000, 0.000, 0.000, 15:38:08.634
51, 281.13, 10.44, 14.36, 15.64, 0.000, 0.000, 0.000, 15:38:08.655
52, 204.50, 8.52, 9.53, 9.07, 0.000, 0.000, 0.000, 15:38:08.655
53, -505.71, 8.39, 6.54, 9.08, 0.000, 0.000, 0.000, 15:38:08.656
54, 54.37, 3.09, 15.95, 11.30, 0.000, 0.000, 0.000, 15:38:08.656
55, 361.98, 7.12, 14.99, 13.31, 0.000, 0.000, 0.000, 15:38:08.678
56, -370.69, 14.32, 2.15, 10.02, 0.000, 0.000, 0.000, 15:38:08.678
57, -219.34, 5.57, 15.12, 15.09, 0.000, 0.000, 0.000, 15:38:08.678
58, 386.28, 3.49, 16.31, 14.25, 0.000, 0.000, 0.000, 15:38:08.679
59, -92.06, 14.30, 2.62, 3.72, 0.000, 0.000, 0.000, 15:38:08.700
60, -435.39, 10.88, 16.90, 16.38, 0.000, 0.000, 0.000, 15:38:08.700
61, 270.98, 3.00, 15.52, 12.72, 0.000, 0.000, 0.000, 15:38:08.701
62, 216.17, 10.10, 12.80, 10.69, 0.000, 0.000, 0.000, 15:38:08.701
63, -502.20, 9.08, 6.94, 9.66, 0.000, 0.000, 0.000, 15:38:08.723
64, 52.11, 4.71, 14.77, 14.29, 0.000, 0.000, 0.000, 15:38:08.724
65, 373.47, 4.16, 12.53, 9.45, 0.000, 0.000, 0.000, 15:38:08.724
66, -371.41, 14.03, 6.18, 3.25, 0.000, 0.000, 0.000, 15:38:08.724
67, -225.29, 4.43, 13.19, 17.00, 0.000, 0.000, 0.000, 15:38:08.724
68, 397.41, 7.85, 10.15, 15.19, 0.000, 0.000, 0.000, 15:38:08.725
69, -94.32, 14.66, 4.62, 3.53, 0.000, 0.000, 0.000, 15:38:08.745
70, -437.09, 3.97, 14.67, 17.21, 0.000, 0.000, 0.000, 15:38:08.746
71, 282.15, 5.00, 12.10, 18.83, 0.000, 0.000, 0.000, 15:38:08.746
72, 196.17, 8.58, 7.23, 12.44, 0.000, 0.000, 0.000, 15:38:08.746
73, -503.80, 12.87, 10.18, 8.15, 0.000, 0.000, 0.000, 15:38:08.768
74, 57.39, 3.49, 13.27, 10.58, 0.000, 0.000, 0.000, 15:38:08.768
75, 368.12, 10.67, 9.55, 12.81, 0.000, 0.000, 0.000, 15:38:08.769
76, -365.90, 11.62, 5.76, 7.08, 0.000, 0.000, 0.000, 15:38:08.769
77, -225.60, 6.40, 17.10, 15.23, 0.000, 0.000, 0.000, 15:38:08.790
78, 393.03, 10.94, 11.49, 16.35, 0.000, 0.000, 0.000, 15:38:08.790
79, -102.52, 6.87, 7.37, 11.39, 0.000, 0.000, 0.000, 15:38:08.791
80, -431.32, 5.02, 13.67, 14.86, 0.000, 0.000, 0.000, 15:38:08.791
81, 285.59, 4.83, 11.17, 16.52, 0.000, 0.000, 0.000, 15:38:08.812
82, 204.97, 15.17, 8.13, 4.85, 0.000, 0.000, 0.000, 15:38:08.813
83, -514.29, 6.69, 7.43, 6.85, 0.000, 0.000, 0.000, 15:38:08.813
84, 54.27, 3.45, 16.28, 14.84, 0.000, 0.000, 0.000, 15:38:08.813
85, 379.41, 6.81, 11.05, 11.55, 0.000, 0.000, 0.000, 15:38:08.814
86, -365.41, 11.90, 4.06, 6.54, 0.000, 0.000, 0.000, 15:38:08.814
87, -214.93, 6.91, 15.02, 15.08, 0.000, 0.000, 0.000, 15:38:08.835
88, 394.79, 5.89, 15.35, 14.08, 0.000, 0.000, 0.000, 15:38:08.836
89, -104.01, 10.28, 7.23, 8.17, 0.000, 0.000, 0.000, 15:38:08.836
90, -433.21, 10.83, 12.28, 12.48, 0.000, 0.000, 0.000, 15:38:08.836
91, 279.90, 6.45, 12.29, 14.23, 0.000, 0.000, 0.000, 15:38:08.858
92, 201.74, 7.23, 9.82, 10.18, 0.000, 0.000, 0.000, 15:38:08.858
93, -500.76, 11.18, 11.24, 8.00, 0.000, 0.000, 0.000, 15:38:08.858
94, 47.37, 4.93, 14.61, 18.30, 0.000, 0.000, 0.000, 15:38:08.859
95, 375.59, 10.32, 12.67, 12.18, 0.000, 0.000, 0.000, 15:38:08.880
96, -363.60, 19.25, 4.90, 11.02, 0.000, 0.000, 0.000, 15:38:08.880
97, -218.24, 2.52, 11.48, 14.54, 0.000, 0.000, 0.000, 15:38:08.881
98, 416.42, 5.00, 14.77, 14.83, 0.000, 0.000, 0.000, 15:38:08.881
99, -91.24, 13.39, 2.61, 7.49, 0.000, 0.000, 0.000, 15:38:08.902
100, -444.11, 4.31, 16.56, 14.45, 0.000, 0.000, 0.000, 15:38:08.903
101, 288.25, 4.36, 16.02, 14.77, 0.000, 0.000, 0.000, 15:38:08.903
102, 209.16, 13.65, 5.36, 7.01, 0.000, 0.000, 0.000, 15:38:08.903
103, -506.46, 11.51, 13.09, 12.41, 0.000, 0.000, 0.000, 15:38:08.904
104, 51.91, 6.19, 17.68, 17.84, 0.000, 0.000, 0.000, 15:38:08.904
105, 355.24, 12.81, 10.77, 12.26, 0.000, 0.000, 0.000, 15:38:08.925
106, -374.61, 12.92, 8.19, 5.94, 0.000, 0.000, 0.000, 15:38:08.925
107, -215.53, 8.79, 17.65, 15.45, 0.000, 0.000, 0.000, 15:38:08.926
108, 392.66, 2.37, 12.20, 17.13, 0.000, 0.000, 0.000, 15:38:08.926
109, -110.41, 10.40, 3.79, 5.18, 0.000, 0.000, 0.000, 15:38:08.948
110, -449.66, 7.05, 17.02, 12.10, 0.000, 0.000, 0.000, 15:38:08.948
111, 283.27, 3.46, 14.60, 13.20, 0.000, 0.000, 0.000, 15:38:08.949
112, 196.16, 11.43, 3.19, 10.37, 0.000, 0.000, 0.000, 15:38:08.949
113, -494.62, 14.62, 7.22, 13.47, 0.000, 0.000, 0.000, 15:38:08.970
114, 41.89, 5.70, 11.80, 16.57, 0.000, 0.000, 0.000, 15:38:08.971
115, 362.05, 2.63, 10.59, 11.74, 0.000, 0.000, 0.000, 15:38:08.971
116, -362.83, 13.22, 6.16, 4.40, 0.000, 0.000, 0.000, 15:38:08.971
117, -226.25, 4.61, 14.15, 15.06, 0.000, 0.000, 0.000, 15:38:08.993
118, 395.60, 5.50, 12.30, 11.65, 0.000, 0.000, 0.000, 15:38:08.994
119, -87.50, 12.19, 5.22, 7.04, 0.000, 0.000, 0.000, 15:38:08.994
120, -451.39, 8.64, 17.78, 10.89, 0.000, 0.000, 0.000, 15:38:08.994
121, 308.26, 3.70, 10.39, 14.38, 0.000, 0.000, 0.000, 15:38:08.994
122, 196.82, 10.68, 10.22, 8.00, 0.000, 0.000, 0.000, 15:38:08.994
123, -513.11, 13.15, 6.69, 10.62, 0.000, 0.000, 0.000, 15:38:09.025
124, 49.18, 3.60, 12.85, 14.43, 0.000, 0.000, 0.000, 15:38:09.026
125, 360.94, 5.61, 15.82, 14.88, 0.000, 0.000, 0.000, 15:38:09.026
126, -364.91, 13.67, 7.45, 9.99, 0.000, 0.000, 0.000, 15:38:09.026
127, -182.66, 5.42, 16.83, 13.01, 0.000, 0.000, 0.000, 15:38:09.038
128, 419.46, 3.90, 13.79, 14.80, 0.000, 0.000, 0.000, 15:38:09.038
129, -71.95, 15.39, 5.39, 9.57, 0.000, 0.000, 0.000, 15:38:09.038
130, -422.30, 6.81, 11.46, 11.90, 0.000, 0.000, 0.000, 15:38:09.038
131, 306.00, 8.11, 12.16, 12.66, 0.000, 0.000, 0.000, 15:38:09.060
132, 192.60, 11.95, 5.69, 12.88, 0.000, 0.000, 0.000, 15:38:09.060
133, -520.18, 0.09, 10.22, 12.09, 0.000, 0.000, 0.000, 15:38:09.061
134, 52.55, 2.95, 15.03, 15.37, 0.000, 0.000, 0.000, 15:38:09.061
135, 350.66, 9.65, 14.12, 16.13, 0.000, 0.000, 0.000, 15:38:09.083
136, -397.75, 14.08, 2.46, 9.34, 0.000, 0.000, 0.000, 15:38:09.083
137, -252.61, 2.19, 16.07, 15.40, 0.000, 0.000, 0.000, 15:38:09.083
138, 358.59, 11.47, 11.62, 16.92, 0.000, 0.000, 0.000, 15:38:09.083
139, -124.29, 16.19, 2.85, 6.23, 0.000, 0.000, 0.000, 15:38:09.084
140, -417.64, 7.55, 15.78, 10.36, 0.000, 0.000, 0.000, 15:38:09.084
141, 286.23, 9.48, 13.47, 11.07, 0.000, 0.000, 0.000, 15:38:09.105
142, 177.89, 9.88, 4.68, 10.03, 0.000, 0.000, 0.000, 15:38:09.105
143, -494.41, 10.56, 8.67, 9.50, 0.000, 0.000, 0.000, 15:38:09.106
144, 69.81, 2.94, 16.35, 13.73, 0.000, 0.000, 0.000, 15:38:09.106
145, 393.19, 8.38, 13.86, 9.61, 0.000, 0.000, 0.000, 15:38:09.128
146, -361.67, 11.44, 6.08, 8.55, 0.000, 0.000, 0.000, 15:38:09.128
147, -208.43, 5.39, 15.20, 15.45, 0.000, 0.000, 0.000, 15:38:09.128
148, 390.84, 3.21, 9.32, 11.91, 0.000, 0.000, 0.000, 15:38:09.129
149, -95.84, 14.08, 3.33, 6.30, 0.000, 0.000, 0.000, 15:38:09.150
150, -401.13, 9.71, 15.72, 14.18, 0.000, 0.000, 0.000, 15:38:09.150
151, 292.83, -0.95, 11.86, 12.13, 0.000, 0.000, 0.000, 15:38:09.151
152, 203.76, 8.77, 8.93, 12.45, 0.000, 0.000, 0.000, 15:38:09.151
153, -554.69, 12.26, 8.61, 12.03, 0.000, 0.000, 0.000, 15:38:09.173
154, 40.01, 6.21, 14.19, 15.52, 0.000, 0.000, 0.000, 15:38:09.173
155, 383.06, 8.00, 10.66, 11.07, 0.000, 0.000, 0.000, 15:38:09.173
156, -366.91, 14.74, 6.76, 7.75, 0.000, 0.000, 0.000, 15:38:09.174
157, -227.43, 3.99, 15.71, 15.55, 0.000, 0.000, 0.000, 15:38:09.174
158, 407.59, 4.31, 12.60, 16.36, 0.000, 0.000, 0.000, 15:38:09.174
159, -105.85, 14.77, 6.15, 5.93, 0.000, 0.000, 0.000, 15:38:09.195
160, -425.95, 3.44, 13.09, 14.19, 0.000, 0.000, 0.000, 15:38:09.196
161, 275.69, 3.36, 15.13, 14.06, 0.000, 0.000, 0.000, 15:38:09.196
162, 209.53, 11.65, 10.87, 6.56, 0.000, 0.000, 0.000, 15:38:09.196
163, -471.87, 8.08, 12.36, 12.22, 0.000, 0.000, 0.000, 15:38:09.218
164, 28.75, 4.18, 16.85, 13.46, 0.000, 0.000, 0.000, 15:38:09.219
165, 383.96, 7.14, 8.33, 12.12, 0.000, 0.000, 0.000, 15:38:09.219
166, -357.86, 12.35, 3.47, 7.69, 0.000, 0.000, 0.000, 15:38:09.220
167, -203.71, -0.19, 14.50, 14.14, 0.000, 0.000, 0.000, 15:38:09.240
168, 401.99, 14.39, 12.50, 12.95, 0.000, 0.000, 0.000, 15:38:09.240
169, -114.74, 7.81, 6.36, 4.71, 0.000, 0.000, 0.000, 15:38:09.241
170, -446.28, 8.64, 12.28, 13.94, 0.000, 0.000, 0.000, 15:38:09.241
171, 279.16, 11.65, 15.65, 13.29, 0.000, 0.000, 0.000, 15:38:09.263
172, 221.30, 8.62, 5.15, 9.36, 0.000, 0.000, 0.000, 15:38:09.263
173, -484.55, 12.29, 8.94, 10.53, 0.000, 0.000, 0.000, 15:38:09.264
174, 45.91, 5.25, 12.72, 13.69, 0.000, 0.000, 0.000, 15:38:09.264
175, 378.18, 7.95, 12.68, 12.66, 0.000, 0.000, 0.000, 15:38:09.265
176, -363.61, 13.23, 5.94, 6.96, 0.000, 0.000, 0.000, 15:38:09.265
177, -184.06, 10.25, 15.48, 17.96, 0.000, 0.000, 0.000, 15:38:09.285
178, 388.87, -2.76, 15.70, 11.29, 0.000, 0.000, 0.000, 15:38:09.285
179, -106.32, 13.96, 4.93, 5.94, 0.000, 0.000, 0.000, 15:38:09.286
180, -441.15, 6.23, 13.48, 12.99, 0.000, 0.000, 0.000, 15:38:09.286
181, 307.40, 6.50, 13.00, 13.34, 0.000, 0.000, 0.000, 15:38:09.308
182, 191.11, 13.68, 9.10, 12.07, 0.000, 0.000, 0.000, 15:38:09.308
183, -497.57, 8.91, 6.20, 12.25, 0.000, 0.000, 0.000, 15:38:09.308
184, 54.17, 4.76, 14.51, 13.50, 0.000, 0.000, 0.000, 15:38:09.308
185, 390.15, 10.36, 14.34, 13.88, 0.000, 0.000, 0.000, 15:38:09.331
186, -381.03, 14.83, 9.54, 8.09, 0.000, 0.000, 0.000, 15:38:09.331
187, -212.96, 4.02, 18.25, 15.65, 0.000, 0.000, 0.000, 15:38:09.331
188, 436.50, 6.77, 13.23, 17.76, 0.000, 0.000, 0.000, 15:38:09.331
189, -94.25, 11.27, 4.14, 5.22, 0.000, 0.000, 0.000, 15:38:09.353
190, -456.88, 2.57, 12.26, 12.99, 0.000, 0.000, 0.000, 15:38:09.353
191, 269.67, 2.99, 14.64, 15.55, 0.000, 0.000, 0.000, 15:38:09.354
192, 186.17, 14.39, 5.49, 9.81, 0.000, 0.000, 0.000, 15:38:09.354
193, -520.48, 9.56, 6.11, 11.73, 0.000, 0.000, 0.000, 15:38:09.354
194, 41.03, 4.32, 14.29, 16.50, 0.000, 0.000, 0.000, 15:38:09.355
195, 334.98, 15.66, 15.15, 16.54, 0.000, 0.000, 0.000, 15:38:09.375
196, -385.91, 12.21, 8.11, 6.64, 0.000, 0.000, 0.000, 15:38:09.375
197, -222.08, 3.08, 12.82, 13.23, 0.000, 0.000, 0.000, 15:38:09.376
198, 403.06, 7.75, 13.83, 15.95, 0.000, 0.000, 0.000, 15:38:09.376
199, -93.86, 13.22, 8.37, 5.35, 0.000, 0.000, 0.000, 15:38:09.398
200, -428.69, 4.37, 13.43, 13.43, 0.000, 0.000, 0.000, 15:38:09.398
0, 234.59, 10.22, 13.02, 12.51, 0.000, 0.000, 0.000, 15:38:09.398
1, 171.74, 8.63, 8.90, 12.45, 0.000, 0.000, 0.000, 15:38:09.399
2, -503.40, 11.27, 10.02, 6.16, 0.000, 0.000, 0.000, 15:38:09.399
3, 65.56, 7.18, 15.28, 14.84, 0.000, 0.000, 0.000, 15:38:09.420
4, 428.00, 4.08, 9.66, 13.42, 0.000, 0.000, 0.000, 15:38:09.420
5, -377.38, 11.91, 2.76, 5.65, 0.000, 0.000, 0.000, 15:38:09.421
6, -246.58, 2.66, 12.74, 16.64, 0.000, 0.000, 0.000, 15:38:09.421
7, 373.18, 3.62, 13.90, 15.11, 0.000, 0.000, 0.000, 15:38:09.442
8, -126.34, 11.39, 4.33, 6.67, 0.000, 0.000, 0.000, 15:38:09.443
9, -418.41, 4.72, 13.69, 12.93, 0.000, 0.000, 0.000, 15:38:09.443
10, 281.21, 5.81, 14.53, 14.23, 0.000, 0.000, 0.000, 15:38:09.443
11, 191.13, 13.24, 12.87, 7.02, 0.000, 0.000, 0.000, 15:38:09.465
12, -511.21, 18.54, 8.60, 11.57, 0.000, 0.000, 0.000, 15:38:09.465
13, 99.03, -2.32, 16.77, 18.44, 0.000, 0.000, 0.000, 15:38:09.466
14, 338.65, 7.32, 10.19, 12.85, 0.000, 0.000, 0.000, 15:38:09.466
15, -348.48, 12.86, 5.09, 4.60, 0.000, 0.000, 0.000, 15:38:09.488
16, -241.22, 4.94, 15.66, 14.47, 0.000, 0.000, 0.000, 15:38:09.488
17, 385.40, 4.10, 11.49, 8.06, 0.000, 0.000, 0.000, 15:38:09.488
18, -90.95, 17.23, 5.11, 7.41, 0.000, 0.000, 0.000, 15:38:09.488
19, -441.13, 5.59, 13.11, 10.34, 0.000, 0.000, 0.000, 15:38:09.489
20, 275.87, 7.18, 13.61, 18.41, 0.000, 0.000, 0.000, 15:38:09.489
21, 189.50, 14.03, 9.60, 10.93, 0.000, 0.000, 0.000, 15:38:09.510
22, -492.40, 7.15, 10.88, 12.61, 0.000, 0.000, 0.000, 15:38:09.510
23, 56.51, 2.55, 20.23, 19.20, 0.000, 0.000, 0.000, 15:38:09.511
24, 347.28, 7.17, 8.45, 12.73, 0.000, 0.000, 0.000, 15:38:09.511
25, -408.65, 12.83, 7.50, 9.21, 0.000, 0.000, 0.000, 15:38:09.533
26, -146.42, 3.09, 16.70, 15.11, 0.000, 0.000, 0.000, 15:38:09.533
27, 408.40, 11.60, 11.24, 15.44, 0.000, 0.000, 0.000, 15:38:09.533
28, -94.68, 13.75, 3.02, 7.54, 0.000, 0.000, 0.000, 15:38:09.533
29, -427.51, 9.15, 14.72, 11.95, 0.000, 0.000, 0.000, 15:38:09.555
30, 252.76, 10.05, 10.74, 12.44, 0.000, 0.000, 0.000, 15:38:09.555
31, 144.64, 5.91, 7.37, 9.43, 0.000, 0.000, 0.000, 15:38:09.556
32, -427.55, 10.98, 8.39, 9.62, 0.000, 0.000, 0.000, 15:38:09.556
33, 150.52, 5.36, 17.50, 15.13, 0.000, 0.000, 0.000, 15:38:09.581
34, 360.07, 5.00, 12.50, 12.58, 0.000, 0.000, 0.000, 15:38:09.581
35, -415.64, 13.37, 8.55, 6.31, 0.000, 0.000, 0.000, 15:38:09.582
36, -223.21, 4.28, 14.22, 14.41, 0.000, 0.000, 0.000, 15:38:09.582
37, 379.35, 6.60, 14.03, 11.60, 0.000, 0.000, 0.000, 15:38:09.582
38, -105.51, 12.45, 5.26, 7.29, 0.000, 0.000, 0.000, 15:38:09.582
39, -435.68, 8.78, 13.36, 12.87, 0.000, 0.000, 0.000, 15:38:09.600
40, 264.10, -2.49, 12.27, 11.82, 0.000, 0.000, 0.000, 15:38:09.600
41, 160.30, 10.40, 2.82, 8.82, 0.000, 0.000, 0.000, 15:38:09.601
42, -495.21, 8.25, 5.22, 9.32, 0.000, 0.000, 0.000, 15:38:09.601
43, 66.31, 4.36, 16.00, 16.66, 0.000, 0.000, 0.000, 15:38:09.622
44, 325.03, 7.03, 11.53, 17.22, 0.000, 0.000, 0.000, 15:38:09.623
45, -400.95, 12.48, 3.75, 10.87, 0.000, 0.000, 0.000, 15:38:09.623
46, -208.25, 6.05, 14.40, 15.56, 0.000, 0.000, 0.000, 15:38:09.623
47, 467.83, 6.35, 14.30, 11.48, 0.000, 0.000, 0.000, 15:38:09.645
48, -45.59, 18.08, 4.07, 6.22, 0.000, 0.000, 0.000, 15:38:09.646
49, -473.93, 5.39, 13.82, 16.29, 0.000, 0.000, 0.000, 15:38:09.646
50, 249.15, 5.32, 14.88, 13.63, 0.000, 0.000, 0.000, 15:38:09.646
51, 201.24, 10.43, 8.06, 11.54, 0.000, 0.000, 0.000, 15:38:09.667
52, -481.44, 8.92, 5.68, 9.22, 0.000, 0.000, 0.000, 15:38:09.668
53, 56.06, 3.34, 17.80, 15.37, 0.000, 0.000, 0.000, 15:38:09.668
54, 383.67, 9.15, 13.79, 13.52, 0.000, 0.000, 0.000, 15:38:09.669
55, -363.19, 14.76, 9.68, 8.18, 0.000, 0.000, 0.000, 15:38:09.669
56, -241.91, 3.39, 16.46, 14.63, 0.000, 0.000, 0.000, 15:38:09.669
57, 391.16, 10.63, 12.71, 12.97, 0.000, 0.000, 0.000, 15:38:09.690
58, -74.44, 11.55, 3.78, 6.43, 0.000, 0.000, 0.000, 15:38:09.690
59, -438.41, 8.01, 13.04, 11.24, 0.000, 0.000, 0.000, 15:38:09.690
60, 200.78, 7.69, 15.54, 12.89, 0.000, 0.000, 0.000, 15:38:09.691
61, 202.17, 9.94, 9.32, 8.86, 0.000, 0.000, 0.000, 15:38:09.713
62, -453.73, 6.95, 9.72, 11.85, 0.000, 0.000, 0.000, 15:38:09.714
63, 52.99, 5.83, 10.69, 12.88, 0.000, 0.000, 0.000, 15:38:09.714
64, 345.76, 4.59, 10.86, 14.71, 0.000, 0.000, 0.000, 15:38:09.714
65, -335.80, 11.63, 6.19, 7.31, 0.000, 0.000, 0.000, 15:38:09.735
66, -190.76, 11.62, 16.66, 14.13, 0.000, 0.000, 0.000, 15:38:09.735
67, 394.68, 0.77, 11.98, 15.04, 0.000, 0.000, 0.000, 15:38:09.736
68, -113.79, 15.83, 8.78, 6.25, 0.000, 0.000, 0.000, 15:38:09.736
69, -419.33, 7.48, 15.11, 15.21, 0.000, 0.000, 0.000, 15:38:09.757
70, 263.11, 10.53, 10.84, 13.83, 0.000, 0.000, 0.000, 15:38:09.758
71, 172.38, 11.44, 5.99, 8.27, 0.000, 0.000, 0.000, 15:38:09.758
72, -489.68, 12.87, 9.46, 9.43, 0.000, 0.000, 0.000, 15:38:09.758
73, 0.49, 2.91, 18.53, 19.49, 0.000, 0.000, 0.000, 15:38:09.761
74, 368.17, 6.58, 10.30, 13.31, 0.000, 0.000, 0.000, 15:38:09.761
75, -341.17, 16.03, 4.87, 9.10, 0.000, 0.000, 0.000, 15:38:09.781
76, -207.37, -0.13, 13.76, 16.78, 0.000, 0.000, 0.000, 15:38:09.781
77, 389.89, 1.76, 11.26, 14.07, 0.000, 0.000, 0.000, 15:38:09.782
78, -81.31, 11.69, 2.71, 5.96, 0.000, 0.000, 0.000, 15:38:09.782
79, -418.13, 9.31, 13.72, 15.51, 0.000, 0.000, 0.000, 15:38:09.803
80, 290.09, 7.27, 17.27, 13.74, 0.000, 0.000, 0.000, 15:38:09.803
81, 239.11, 16.06, 10.01, 11.16, 0.000, 0.000, 0.000, 15:38:09.803
82, -503.88, 10.09, 12.77, 11.44, 0.000, 0.000, 0.000, 15:38:09.804
83, -3.91, 3.24, 15.37, 11.52, 0.000, 0.000, 0.000, 15:38:09.825
84, 313.82, 12.82, 9.00, 9.20, 0.000, 0.000, 0.000, 15:38:09.825
85, -353.18, 7.54, 6.24, 7.23, 0.000, 0.000, 0.000, 15:38:09.826
86, -230.81, 1.60, 17.75, 14.15, 0.000, 0.000, 0.000, 15:38:09.826
87, 398.57, 5.59, 14.31, 16.39, 0.000, 0.000, 0.000, 15:38:09.848
88, -55.47, 13.83, 5.64, 8.97, 0.000, 0.000, 0.000, 15:38:09.848
89, -457.63, 7.94, 11.56, 11.67, 0.000, 0.000, 0.000, 15:38:09.848
90, 309.40, 5.70, 9.30, 16.90, 0.000, 0.000, 0.000, 15:38:09.848
91, 197.78, 9.94, 7.61, 9.67, 0.000, 0.000, 0.000, 15:38:09.849
92, -538.83, 9.75, 4.87, 9.56, 0.000, 0.000, 0.000, 15:38:09.849
93, 90.08, 5.75, 16.48, 13.94, 0.000, 0.000, 0.000, 15:38:09.870
94, 391.79, 4.99, 9.84, 10.53, 0.000, 0.000, 0.000, 15:38:09.870
95, -343.16, 14.05, 6.19, 9.78, 0.000, 0.000, 0.000, 15:38:09.871
96, -213.93, 5.85, 17.15, 11.66, 0.000, 0.000, 0.000, 15:38:09.871
97, 373.60, 8.01, 15.69, 15.62, 0.000, 0.000, 0.000, 15:38:09.893
98, -141.63, 11.07, 8.71, 6.74, 0.000, 0.000, 0.000, 15:38:09.893
99, -440.13, 8.77, 15.42, 15.75, 0.000, 0.000, 0.000, 15:38:09.893
100, 309.12, 2.42, 12.77, 13.19, 0.000, 0.000, 0.000, 15:38:09.893
101, 182.40, 13.38, 6.43, 9.34, 0.000, 0.000, 0.000, 15:38:09.915
102, -543.52, 16.62, 6.83, 8.36, 0.000, 0.000, 0.000, 15:38:09.916
103, 43.30, -4.35, 16.10, 18.71, 0.000, 0.000, 0.000, 15:38:09.916
104, 316.19, 6.92, 12.60, 13.17, 0.000, 0.000, 0.000, 15:38:09.917
105, -297.83, 14.32, 8.01, 7.60, 0.000, 0.000, 0.000, 15:38:09.938
106, -122.61, 0.27, 13.84, 14.02, 0.000, 0.000, 0.000, 15:38:09.938
107, 402.25, 3.90, 17.44, 19.02, 0.000, 0.000, 0.000, 15:38:09.938
108, -112.11, 15.61, 3.14, 6.33, 0.000, 0.000, 0.000, 15:38:09.939
109, -448.70, 4.03, 13.14, 13.67, 0.000, 0.000, 0.000, 15:38:09.939
110, 259.13, 8.02, 9.96, 16.89, 0.000, 0.000, 0.000, 15:38:09.939
111, 188.02, 14.54, 8.04, 10.04, 0.000, 0.000, 0.000, 15:38:09.960
112, -511.00, 8.96, 11.41, 9.56, 0.000, 0.000, 0.000, 15:38:09.960
113, 38.85, 1.64, 12.38, 11.41, 0.000, 0.000, 0.000, 15:38:09.960
114, 349.12, 8.63, 9.13, 12.37, 0.000, 0.000, 0.000, 15:38:09.961
115, -435.03, 12.60, 6.00, 10.48, 0.000, 0.000, 0.000, 15:38:09.983
116, -230.09, 3.66, 12.70, 16.92, 0.000, 0.000, 0.000, 15:38:09.983
117, 435.64, 10.06, 9.43, 13.73, 0.000, 0.000, 0.000, 15:38:09.983
118, -82.23, 14.87, 5.04, 2.49, 0.000, 0.000, 0.000, 15:38:09.984
119, -392.97, 3.45, 12.93, 12.94, 0.000, 0.000, 0.000, 15:38:10.005
120, 256.28, 10.68, 14.57, 14.35, 0.000, 0.000, 0.000, 15:38:10.005
121, 192.58, 5.20, 10.60, 13.32, 0.000, 0.000, 0.000, 15:38:10.006
122, -505.43, 10.05, 8.64, 12.17, 0.000, 0.000, 0.000, 15:38:10.006
123, 45.86, 4.13, 14.72, 12.20, 0.000, 0.000, 0.000, 15:38:10.028
124, 414.98, 6.01, 11.18, 14.52, 0.000, 0.000, 0.000, 15:38:10.028
125, -379.87, 12.38, 2.13, 7.02, 0.000, 0.000, 0.000, 15:38:10.028
126, -193.77, 6.51, 15.03, 12.52, 0.000, 0.000, 0.000, 15:38:10.029
127, 424.45, 5.06, 14.07, 13.35, 0.000, 0.000, 0.000, 15:38:10.029
128, -90.55, 13.72, 2.00, 6.54, 0.000, 0.000, 0.000, 15:38:10.029
129, -441.13, 10.90, 13.56, 15.30, 0.000, 0.000, 0.000, 15:38:10.050
130, 270.31, 1.52, 17.02, 17.15, 0.000, 0.000, 0.000, 15:38:10.050
131, 237.84, 8.09, 9.20, 12.33, 0.000, 0.000, 0.000, 15:38:10.050
132, -450.33, 10.32, 12.43, 9.93, 0.000, 0.000, 0.000, 15:38:10.051
133, 34.90, 6.51, 16.61, 17.26, 0.000, 0.000, 0.000, 15:38:10.072
134, 324.02, 4.49, 11.75, 12.70, 0.000, 0.000, 0.000, 15:38:10.073
135, -412.26, 15.37, 4.78, 5.46, 0.000, 0.000, 0.000, 15:38:10.073
136, -267.18, 3.13, 16.51, 12.55, 0.000, 0.000, 0.000, 15:38:10.073
137, 391.79, 5.84, 12.44, 10.19, 0.000, 0.000, 0.000, 15:38:10.095
138, -99.19, 20.56, -0.11, 2.80, 0.000, 0.000, 0.000, 15:38:10.095
139, -412.86, 4.62, 14.02, 16.25, 0.000, 0.000, 0.000, 15:38:10.096
140, 291.29, 3.70, 14.53, 16.34, 0.000, 0.000, 0.000, 15:38:10.096
141, 155.04, 9.29, 6.52, 10.59, 0.000, 0.000, 0.000, 15:38:10.117
142, -511.89, 9.80, 8.74, 10.00, 0.000, 0.000, 0.000, 15:38:10.118
143, 39.60, 5.09, 13.73, 16.77, 0.000, 0.000, 0.000, 15:38:10.118
144, 414.72, 12.23, 13.53, 10.77, 0.000, 0.000, 0.000, 15:38:10.118
145, -347.92, 14.76, 5.61, 6.74, 0.000, 0.000, 0.000, 15:38:10.119
146, -225.20, 8.72, 15.88, 17.19, 0.000, 0.000, 0.000, 15:38:10.119
147, 377.07, 10.18, 14.37, 11.71, 0.000, 0.000, 0.000, 15:38:10.140
148, -90.75, 7.89, 6.71, 9.05, 0.000, 0.000, 0.000, 15:38:10.140
149, -439.26, 8.27, 14.21, 15.71, 0.000, 0.000, 0.000, 15:38:10.141
150, 309.63, 5.37, 16.60, 12.38, 0.000, 0.000, 0.000, 15:38:10.141
151, 208.61, 9.06, 7.64, 8.00, 0.000, 0.000, 0.000, 15:38:10.163
152, -519.69, 8.67, 9.50, 10.62, 0.000, 0.000, 0.000, 15:38:10.163
153, 54.00, 3.40, 13.42, 11.16, 0.000, 0.000, 0.000, 15:38:10.163
154, 353.61, 7.07, 10.70, 9.15, 0.000, 0.000, 0.000, 15:38:10.163
155, -379.18, 14.19, 0.41, 5.95, 0.000, 0.000, 0.000, 15:38:10.185
156, -196.14, 7.75, 16.34, 14.88, 0.000, 0.000, 0.000, 15:38:10.185
157, 422.72, -0.67, 16.28, 12.17, 0.000, 0.000, 0.000, 15:38:10.186
158, -100.20, 14.42, 7.44, 5.20, 0.000, 0.000, 0.000, 15:38:10.186
159, -436.60, 6.73, 12.37, 12.10, 0.000, 0.000, 0.000, 15:38:10.207
160, 257.56, 5.41, 15.32, 15.97, 0.000, 0.000, 0.000, 15:38:10.208
161, 216.82, 8.45, 7.23, 12.21, 0.000, 0.000, 0.000, 15:38:10.208
162, -477.97, 7.44, 7.72, 15.26, 0.000, 0.000, 0.000, 15:38:10.208
163, 55.25, 1.60, 15.97, 15.96, 0.000, 0.000, 0.000, 15:38:10.209
164, 383.52, 13.45, 14.94, 14.18, 0.000, 0.000, 0.000, 15:38:10.209
165, -348.84, 17.92, 5.45, 7.70, 0.000, 0.000, 0.000, 15:38:10.231
166, -209.40, 0.10, 16.66, 13.21, 0.000, 0.000, 0.000, 15:38:10.231
167, 402.78, 8.11, 12.27, 14.10, 0.000, 0.000, 0.000, 15:38:10.232
168, -112.64, 17.78, -0.65, 4.74, 0.000, 0.000, 0.000, 15:38:10.232
169, -433.65, 5.86, 13.10, 13.67, 0.000, 0.000, 0.000, 15:38:10.253
170, 287.94, 5.12, 16.22, 13.56, 0.000, 0.000, 0.000, 15:38:10.253
171, 190.96, 8.48, 8.99, 9.27, 0.000, 0.000, 0.000, 15:38:10.253
172, -503.44, 9.34, 11.34, 10.14, 0.000, 0.000, 0.000, 15:38:10.254
173, 26.22, 8.90, 15.42, 13.85, 0.000, 0.000, 0.000, 15:38:10.275
174, 375.24, 15.61, 9.46, 9.74, 0.000, 0.000, 0.000, 15:38:10.275
175, -318.17, 7.53, 7.60, 10.24, 0.000, 0.000, 0.000, 15:38:10.276
176, -187.28, 7.12, 14.61, 14.36, 0.000, 0.000, 0.000, 15:38:10.276
177, 403.02, -0.69, 15.28, 16.50, 0.000, 0.000, 0.000, 15:38:10.298
178, -105.62, 15.74, 4.28, 6.03, 0.000, 0.000, 0.000, 15:38:10.298
179, -413.79, 5.04, 12.25, 13.72, 0.000, 0.000, 0.000, 15:38:10.299
180, 265.43, 5.65, 12.85, 14.79, 0.000, 0.000, 0.000, 15:38:10.300
181, 203.89, 10.98, 9.27, 12.20, 0.000, 0.000, 0.000, 15:38:10.300
182, -495.32, 9.07, 7.79, 9.58, 0.000, 0.000, 0.000, 15:38:10.300
183, 85.72, 7.83, 14.59, 17.59, 0.000, 0.000, 0.000, 15:38:10.320
184, 368.60, 6.73, 14.72, 12.04, 0.000, 0.000, 0.000, 15:38:10.320
185, -390.23, 13.91, 3.61, 3.99, 0.000, 0.000, 0.000, 15:38:10.321
186, -259.48, 5.21, 12.79, 19.59, 0.000, 0.000, 0.000, 15:38:10.321
187, 416.95, 0.38, 14.26, 16.13, 0.000, 0.000, 0.000, 15:38:10.343
188, -117.08, 9.67, 4.36, 7.26, 0.000, 0.000, 0.000, 15:38:10.343
189, -411.81, 8.31, 14.57, 12.04, 0.000, 0.000, 0.000, 15:38:10.343
190, 298.46, 4.47, 14.70, 14.08, 0.000, 0.000, 0.000, 15:38:10.344
191, 185.59, 11.23, 8.46, 8.67, 0.000, 0.000, 0.000, 15:38:10.365
192, -511.01, 15.83, 8.48, 10.88, 0.000, 0.000, 0.000, 15:38:10.365
193, 45.36, 0.60, 14.98, 16.61, 0.000, 0.000, 0.000, 15:38:10.366
194, 361.20, 6.80, 10.92, 12.21, 0.000, 0.000, 0.000, 15:38:10.366
195, -366.10, 14.55, 6.86, 7.33, 0.000, 0.000, 0.000, 15:38:10.387
196, -196.82, 3.43, 15.56, 16.49, 0.000, 0.000, 0.000, 15:38:10.388
197, 365.04, 4.97, 16.31, 16.70, 0.000, 0.000, 0.000, 15:38:10.388
198, -115.99, 13.40, 5.65, 6.67, 0.000, 0.000, 0.000, 15:38:10.388
199, -467.32, 4.42, 15.43, 14.55, 0.000, 0.000, 0.000, 15:38:10.389
200, 256.51, 8.27, 13.24, 15.04, 0.000, 0.000, 0.000, 15:38:10.389
0, 210.52, 14.59, 7.19, 5.26, 0.000, 0.000, 0.000, 15:38:10.410
1, -469.38, 7.95, 4.79, 10.31, 0.000, 0.000, 0.000, 15:38:10.411
2, 3.21, 6.49, 12.02, 16.38, 0.000, 0.000, 0.000, 15:38:10.411
3, 373.23, 9.55, 9.77, 10.58, 0.000, 0.000, 0.000, 15:38:10.432
4, -356.35, 14.39, 3.01, 5.77, 0.000, 0.000, 0.000, 15:38:10.433
5, -197.95, 1.80, 15.37, 16.57, 0.000, 0.000, 0.000, 15:38:10.437
6, 377.28, 3.00, 13.07, 10.93, 0.000, 0.000, 0.000, 15:38:10.437
7, -91.96, 13.71, 7.03, 5.41, 0.000, 0.000, 0.000, 15:38:10.437
8, -457.57, 5.40, 13.52, 15.17, 0.000, 0.000, 0.000, 15:38:10.438
9, 272.89, 11.53, 13.33, 16.33, 0.000, 0.000, 0.000, 15:38:10.455
10, 188.45, 9.14, 5.01, 10.29, 0.000, 0.000, 0.000, 15:38:10.455
11, -475.96, 6.57, 8.67, 13.74, 0.000, 0.000, 0.000, 15:38:10.456
12, 51.97, 5.23, 14.27, 15.95, 0.000, 0.000, 0.000, 15:38:10.456
13, 361.58, 7.68, 11.94, 12.94, 0.000, 0.000, 0.000, 15:38:10.478
14, -418.11, 13.91, 6.60, 6.37, 0.000, 0.000, 0.000, 15:38:10.478
15, -252.92, 6.53, 17.27, 14.46, 0.000, 0.000, 0.000, 15:38:10.479
16, 377.86, 3.33, 12.74, 12.98, 0.000, 0.000, 0.000, 15:38:10.479
17, -34.74, 14.91, 5.83, 5.07, 0.000, 0.000, 0.000, 15:38:10.500
18, -408.74, 11.79, 10.46, 14.51, 0.000, 0.000, 0.000, 15:38:10.500
19, 295.32, 0.38, 13.89, 13.79, 0.000, 0.000, 0.000, 15:38:10.501
20, 194.40, 9.60, 8.02, 13.16, 0.000, 0.000, 0.000, 15:38:10.501
21, -490.77, 11.62, 7.37, 11.47, 0.000, 0.000, 0.000, 15:38:10.522
22, 73.68, 3.66, 12.76, 13.79, 0.000, 0.000, 0.000, 15:38:10.523
23, 342.01, 8.25, 10.35, 10.72, 0.000, 0.000, 0.000, 15:38:10.523
24, -387.68, 17.66, 9.17, 6.03, 0.000, 0.000, 0.000, 15:38:10.523
25, -247.61, 4.04, 15.47, 13.90, 0.000, 0.000, 0.000, 15:38:10.524
26, 384.59, 5.92, 11.75, 11.97, 0.000, 0.000, 0.000, 15:38:10.524
27, -100.31, 16.60, 5.39, 3.02, 0.000, 0.000, 0.000, 15:38:10.545
28, -460.05, 2.74, 10.16, 15.98, 0.000, 0.000, 0.000, 15:38:10.545
29, 257.09, 7.19, 14.24, 16.48, 0.000, 0.000, 0.000, 15:38:10.567
30, 245.27, 9.55, 7.43, 6.20, 0.000, 0.000, 0.000, 15:38:10.568
31, -490.77, 12.51, 10.39, 4.95, 0.000, 0.000, 0.000, 15:38:10.568
32, 48.84, 2.39, 14.81, 13.73, 0.000, 0.000, 0.000, 15:38:10.568
33, 394.22, 9.02, 12.46, 12.76, 0.000, 0.000, 0.000, 15:38:10.569
34, -367.38, 14.70, 7.92, 11.89, 0.000, 0.000, 0.000, 15:38:10.569
35, -215.17, 4.92, 15.91, 18.27, 0.000, 0.000, 0.000, 15:38:10.590
36, 346.00, 7.90, 11.37, 15.80, 0.000, 0.000, 0.000, 15:38:10.590
37, -95.91, 5.95, 7.43, 6.60, 0.000, 0.000, 0.000, 15:38:10.591
38, -420.18, 3.77, 11.98, 11.64, 0.000, 0.000, 0.000, 15:38:10.591
39, 291.47, 5.14, 12.20, 16.07, 0.000, 0.000, 0.000, 15:38:10.614
40, 197.31, 11.65, 11.25, 9.10, 0.000, 0.000, 0.000, 15:38:10.615
41, -531.77, 12.73, 8.01, 13.18, 0.000, 0.000, 0.000, 15:38:10.615
42, 42.69, 5.79, 15.76, 13.68, 0.000, 0.000, 0.000, 15:38:10.615
43, 406.84, 10.50, 9.99, 14.29, 0.000, 0.000, 0.000, 15:38:10.615
44, -381.61, 13.69, 8.56, 8.46, 0.000, 0.000, 0.000, 15:38:10.615
45, -234.93, 7.88, 13.89, 13.65, 0.000, 0.000, 0.000, 15:38:10.636
46, 397.56, 4.14, 14.16, 8.74, 0.000, 0.000, 0.000, 15:38:10.636
47, -57.33, 15.43, 4.37, 5.83, 0.000, 0.000, 0.000, 15:38:10.636
48, -437.59, 2.22, 14.10, 12.24, 0.000, 0.000, 0.000, 15:38:10.636
49, 279.57, 7.49, 12.92, 11.13, 0.000, 0.000, 0.000, 15:38:10.658
50, 191.90, 10.38, 13.16, 12.59, 0.000, 0.000, 0.000, 15:38:10.658
51, -498.85, 11.20, 10.27, 12.31, 0.000, 0.000, 0.000, 15:38:10.658
52, 32.96, 2.42, 19.61, 13.74, 0.000, 0.000, 0.000, 15:38:10.658
53, 366.92, 6.83, 14.34, 16.30, 0.000, 0.000, 0.000, 15:38:10.680
54, -354.50, 17.72, 3.75, 10.68, 0.000, 0.000, 0.000, 15:38:10.680
55, -225.57, -0.84, 15.05, 17.15, 0.000, 0.000, 0.000, 15:38:10.681
56, 363.77, 7.34, 13.04, 14.50, 0.000, 0.000, 0.000, 15:38:10.681
57, -108.83, 10.20, 4.20, 5.15, 0.000, 0.000, 0.000, 15:38:10.703
58, -429.20, 4.98, 10.97, 13.02, 0.000, 0.000, 0.000, 15:38:10.703
59, 272.66, 5.21, 9.44, 13.88, 0.000, 0.000, 0.000, 15:38:10.703
60, 210.83, 9.92, 5.45, 7.01, 0.000, 0.000, 0.000, 15:38:10.704
61, -498.05, 16.70, 5.38, 12.08, 0.000, 0.000, 0.000, 15:38:10.704
62, 41.49, 4.35, 16.67, 18.45, 0.000, 0.000, 0.000, 15:38:10.704
63, 388.61, 9.41, 9.18, 15.15, 0.000, 0.000, 0.000, 15:38:10.725
64, -383.26, 11.98, 1.67, 5.14, 0.000, 0.000, 0.000, 15:38:10.725
65, -176.06, 4.26, 16.99, 18.91, 0.000, 0.000, 0.000, 15:38:10.726
66, 366.93, 4.65, 14.77, 15.00, 0.000, 0.000, 0.000, 15:38:10.726
67, -84.19, 15.03, 5.94, 6.66, 0.000, 0.000, 0.000, 15:38:10.747
68, -440.51, 2.01, 12.37, 12.93, 0.000, 0.000, 0.000, 15:38:10.748
69, 232.64, 8.06, 10.62, 15.63, 0.000, 0.000, 0.000, 15:38:10.748
70, 205.67, 12.27, 8.74, 8.50, 0.000, 0.000, 0.000, 15:38:10.748
71, -452.13, 10.00, 6.73, 9.91, 0.000, 0.000, 0.000, 15:38:10.770
72, 30.46, 8.12, 15.43, 17.41, 0.000, 0.000, 0.000, 15:38:10.771
73, 357.58, 8.54, 14.21, 11.46, 0.000, 0.000, 0.000, 15:38:10.771
74, -356.90, 11.36, 9.03, 7.58, 0.000, 0.000, 0.000, 15:38:10.771
75, -183.78, 5.69, 14.59, 14.54, 0.000, 0.000, 0.000, 15:38:10.793
76, 395.06, 3.62, 12.62, 12.93, 0.000, 0.000, 0.000, 15:38:10.794
77, -106.28, 11.88, 6.07, 6.61, 0.000, 0.000, 0.000, 15:38:10.794
78, -426.60, 8.05, 11.10, 11.43, 0.000, 0.000, 0.000, 15:38:10.794
79, 272.24, 9.68, 13.08, 12.12, 0.000, 0.000, 0.000, 15:38:10.794
80, 191.24, 12.14, 7.94, 9.35, 0.000, 0.000, 0.000, 15:38:10.794
81, -506.39, 11.13, 9.83, 11.81, 0.000, 0.000, 0.000, 15:38:10.815
82, 19.24, 0.56, 15.47, 14.47, 0.000, 0.000, 0.000, 15:38:10.815
83, 369.75, 6.79, 13.45, 13.20, 0.000, 0.000, 0.000, 15:38:10.816
84, -324.12, 12.55, 8.77, 6.99, 0.000, 0.000, 0.000, 15:38:10.816
85, -202.18, 8.01, 12.64, 14.68, 0.000, 0.000, 0.000, 15:38:10.837
86, 383.58, 4.57, 13.30, 14.85, 0.000, 0.000, 0.000, 15:38:10.838
87, -111.71, 13.03, 4.88, 7.17, 0.000, 0.000, 0.000, 15:38:10.838
88, -456.71, 6.33, 14.84, 12.58, 0.000, 0.000, 0.000, 15:38:10.838
89, 263.26, 5.99, 15.50, 18.03, 0.000, 0.000, 0.000, 15:38:10.860
90, 236.20, 15.20, 10.44, 8.00, 0.000, 0.000, 0.000, 15:38:10.861
91, -502.04, 5.70, 9.79, 11.75, 0.000, 0.000, 0.000, 15:38:10.861
92, 36.05, 3.21, 16.56, 15.98, 0.000, 0.000, 0.000, 15:38:10.861
93, 375.10, 10.69, 11.00, 11.11, 0.000, 0.000, 0.000, 15:38:10.883
94, -367.04, 13.33, 3.25, 5.73, 0.000, 0.000, 0.000, 15:38:10.883
95, -210.00, 1.92, 16.34, 19.51, 0.000, 0.000, 0.000, 15:38:10.884
96, 355.73, 5.22, 13.26, 13.67, 0.000, 0.000, 0.000, 15:38:10.884
97, -74.69, 13.10, 5.85, 7.26, 0.000, 0.000, 0.000, 15:38:10.885
98, -420.17, 7.02, 14.80, 14.73, 0.000, 0.000, 0.000, 15:38:10.885
99, 282.54, 8.05, 12.59, 14.28, 0.000, 0.000, 0.000, 15:38:10.905
100, 194.61, 9.25, 11.02, 9.17, 0.000, 0.000, 0.000, 15:38:10.905
101, -480.56, 8.92, 8.34, 9.18, 0.000, 0.000, 0.000, 15:38:10.906
102, 66.13, 3.71, 9.64, 12.50, 0.000, 0.000, 0.000, 15:38:10.906
103, 362.03, 9.17, 14.13, 12.14, 0.000, 0.000, 0.000, 15:38:10.928
104, -369.00, 17.26, 6.65, 3.81, 0.000, 0.000, 0.000, 15:38:10.928
105, -250.94, 4.21, 13.54, 16.00, 0.000, 0.000, 0.000, 15:38:10.928
106, 410.47, 5.22, 15.50, 12.54, 0.000, 0.000, 0.000, 15:38:10.929
107, -93.76, 12.55, 10.52, 4.93, 0.000, 0.000, 0.000, 15:38:10.950
108, -456.02, 10.70, 11.31, 15.60, 0.000, 0.000, 0.000, 15:38:10.950
109, 251.83, 2.44, 13.99, 15.77, 0.000, 0.000, 0.000, 15:38:10.951
110, 219.59, 9.15, 8.43, 10.13, 0.000, 0.000, 0.000, 15:38:10.951
111, -494.35, 12.48, 9.78, 13.92, 0.000, 0.000, 0.000, 15:38:10.973
112, 54.68, 3.77, 15.37, 16.16, 0.000, 0.000, 0.000, 15:38:10.973
113, 376.73, 2.99, 12.69, 16.15, 0.000, 0.000, 0.000, 15:38:10.973
114, -381.27, 11.34, 8.10, 9.71, 0.000, 0.000, 0.000, 15:38:10.973
115, -226.06, 3.37, 13.54, 13.15, 0.000, 0.000, 0.000, 15:38:10.974
116, 400.73, 6.09, 13.42, 12.87, 0.000, 0.000, 0.000, 15:38:10.974
117, -102.08, 16.17, 6.30, 5.15, 0.000, 0.000, 0.000, 15:38:10.995
118, -446.00, 5.22, 11.28, 12.47, 0.000, 0.000, 0.000, 15:38:10.996
119, 290.26, 7.42, 15.71, 11.43, 0.000, 0.000, 0.000, 15:38:10.996
120, 217.92, 11.74, 7.88, 10.48, 0.000, 0.000, 0.000, 15:38:10.996
121, -497.36, 8.84, 9.26, 7.74, 0.000, 0.000, 0.000, 15:38:11.018
122, 28.55, 7.94, 13.90, 14.71, 0.000, 0.000, 0.000, 15:38:11.018
123, 372.87, 12.89, 12.05, 10.45, 0.000, 0.000, 0.000, 15:38:11.019
124, -350.76, 14.71, 6.20, 6.01, 0.000, 0.000, 0.000, 15:38:11.019
125, -223.38, 5.36, 18.08, 17.83, 0.000, 0.000, 0.000, 15:38:11.040
126, 370.91, 7.38, 14.14, 17.06, 0.000, 0.000, 0.000, 15:38:11.040
127, -65.48, 7.17, 6.46, 10.19, 0.000, 0.000, 0.000, 15:38:11.041
128, -456.08, 5.62, 11.15, 14.44, 0.000, 0.000, 0.000, 15:38:11.041
129, 266.13, 7.12, 11.25, 14.21, 0.000, 0.000, 0.000, 15:38:11.062
130, 214.93, 9.44, 5.46, 12.10, 0.000, 0.000, 0.000, 15:38:11.063
131, -457.30, 8.08, 8.27, 8.75, 0.000, 0.000, 0.000, 15:38:11.063
132, 112.80, 7.40, 21.66, 16.49, 0.000, 0.000, 0.000, 15:38:11.063
133, 392.78, 11.35, 12.35, 10.78, 0.000, 0.000, 0.000, 15:38:11.063
134, -369.59, 13.63, 6.20, 7.03, 0.000, 0.000, 0.000, 15:38:11.064
135, -260.11, 10.33, 14.09, 14.77, 0.000, 0.000, 0.000, 15:38:11.085
136, 346.22, 3.10, 11.20, 14.15, 0.000, 0.000, 0.000, 15:38:11.085
137, -91.92, 13.14, 1.87, 5.21, 0.000, 0.000, 0.000, 15:38:11.086
138, -418.76, 7.75, 12.59, 9.55, 0.000, 0.000, 0.000, 15:38:11.086
139, 255.98, 8.77, 12.04, 15.99, 0.000, 0.000, 0.000, 15:38:11.109
140, 190.58, 10.26, 7.12, 8.72, 0.000, 0.000, 0.000, 15:38:11.109
141, -502.96, 11.88, 7.60, 9.68, 0.000, 0.000, 0.000, 15:38:11.109
142, 48.06, 0.10, 11.32, 18.48, 0.000, 0.000, 0.000, 15:38:11.109
143, 343.07, 9.40, 13.13, 12.06, 0.000, 0.000, 0.000, 15:38:11.130
144, -383.36, 17.07, 8.95, 5.69, 0.000, 0.000, 0.000, 15:38:11.130
145, -212.00, 0.50, 15.78, 14.67, 0.000, 0.000, 0.000, 15:38:11.130
146, 383.76, 7.00, 12.04, 16.84, 0.000, 0.000, 0.000, 15:38:11.131
147, -89.27, 11.87, 6.94, 2.29, 0.000, 0.000, 0.000, 15:38:11.153
148, -446.38, 3.08, 16.42, 14.52, 0.000, 0.000, 0.000, 15:38:11.153
149, 276.24, 4.58, 15.47, 14.12, 0.000, 0.000, 0.000, 15:38:11.153
150, 197.55, 10.25, 7.81, 11.61, 0.000, 0.000, 0.000, 15:38:11.154
151, -496.82, 6.66, 7.74, 10.33, 0.000, 0.000, 0.000, 15:38:11.154
152, 88.56, 5.37, 17.20, 12.32, 0.000, 0.000, 0.000, 15:38:11.155
153, 372.61, 11.09, 11.08, 11.05, 0.000, 0.000, 0.000, 15:38:11.176
154, -366.88, 12.90, 3.61, 9.25, 0.000, 0.000, 0.000, 15:38:11.176
155, -242.37, 4.45, 18.36, 14.26, 0.000, 0.000, 0.000, 15:38:11.176
156, 369.94, 5.54, 16.69, 15.01, 0.000, 0.000, 0.000, 15:38:11.176
157, -46.65, 11.73, 3.21, 8.16, 0.000, 0.000, 0.000, 15:38:11.198
158, -417.94, 6.40, 11.23, 11.12, 0.000, 0.000, 0.000, 15:38:11.198
159, 284.26, 9.99, 13.39, 15.84, 0.000, 0.000, 0.000, 15:38:11.199
160, 208.35, 13.36, 10.15, 9.91, 0.000, 0.000, 0.000, 15:38:11.199
161, -479.31, 14.19, 10.61, 13.89, 0.000, 0.000, 0.000, 15:38:11.220
162, 57.01, 4.84, 16.24, 16.06, 0.000, 0.000, 0.000, 15:38:11.220
163, 343.64, 4.13, 13.81, 13.33, 0.000, 0.000, 0.000, 15:38:11.220
164, -363.50, 12.11, 4.41, 6.19, 0.000, 0.000, 0.000, 15:38:11.221
165, -224.91, 4.74, 12.15, 15.51, 0.000, 0.000, 0.000, 15:38:11.243
166, 402.67, 6.02, 13.45, 15.87, 0.000, 0.000, 0.000, 15:38:11.243
167, -80.74, 14.41, 6.25, 7.00, 0.000, 0.000, 0.000, 15:38:11.244
168, -429.63, 5.24, 12.12, 15.95, 0.000, 0.000, 0.000, 15:38:11.244
169, 246.88, 3.78, 12.63, 17.67, 0.000, 0.000, 0.000, 15:38:11.244
170, 225.89, 14.92, 6.21, 11.58, 0.000, 0.000, 0.000, 15:38:11.245
171, -486.89, 13.41, 6.21, 10.93, 0.000, 0.000, 0.000, 15:38:11.265
172, 54.35, -0.69, 14.28, 16.66, 0.000, 0.000, 0.000, 15:38:11.266
173, 389.22, 8.43, 9.96, 12.67, 0.000, 0.000, 0.000, 15:38:11.266
174, -344.67, 10.30, 5.12, 6.44, 0.000, 0.000, 0.000, 15:38:11.266
175, -224.03, 7.31, 11.64, 8.69, 0.000, 0.000, 0.000, 15:38:11.288
176, 393.52, 3.64, 12.39, 12.58, 0.000, 0.000, 0.000, 15:38:11.288
177, -77.89, 15.23, 3.91, 7.29, 0.000, 0.000, 0.000, 15:38:11.288
178, -429.87, 7.93, 13.86, 10.91, 0.000, 0.000, 0.000, 15:38:11.288
179, 275.35, 6.10, 15.28, 14.54, 0.000, 0.000, 0.000, 15:38:11.311
180, 200.34, 10.28, 9.97, 11.91, 0.000, 0.000, 0.000, 15:38:11.311
181, -568.21, 7.90, 10.64, 9.61, 0.000, 0.000, 0.000, 15:38:11.311
182, 120.31, 5.26, 19.32, 17.29, 0.000, 0.000, 0.000, 15:38:11.312
183, 421.68, 8.68, 9.27, 9.85, 0.000, 0.000, 0.000, 15:38:11.333
184, -340.84, 13.18, 7.63, 5.46, 0.000, 0.000, 0.000, 15:38:11.333
185, -224.34, 3.39, 16.77, 13.29, 0.000, 0.000, 0.000, 15:38:11.333
186, 377.38, 8.06, 12.76, 13.49, 0.000, 0.000, 0.000, 15:38:11.333
187, -92.56, 15.18, 6.73, 7.34, 0.000, 0.000, 0.000, 15:38:11.334
188, -430.91, 5.71, 13.36, 11.54, 0.000, 0.000, 0.000, 15:38:11.334
189, 264.99, 10.75, 10.71, 17.48, 0.000, 0.000, 0.000, 15:38:11.356
190, 209.01, 7.24, 11.85, 12.96, 0.000, 0.000, 0.000, 15:38:11.356
191, -520.76, 6.57, 10.83, 11.04, 0.000, 0.000, 0.000, 15:38:11.357
192, 37.13, 6.22, 12.21, 17.92, 0.000, 0.000, 0.000, 15:38:11.358
193, 337.22, 5.83, 10.35, 15.28, 0.000, 0.000, 0.000, 15:38:11.380
194, -354.17, 11.09, 1.78, 4.78, 0.000, 0.000, 0.000, 15:38:11.380
195, -206.84, 6.58, 14.14, 11.53, 0.000, 0.000, 0.000, 15:38:11.380
196, 373.51, 5.01, 15.92, 12.04, 0.000, 0.000, 0.000, 15:38:11.380
197, -70.10, 11.34, 7.52, 5.87, 0.000, 0.000, 0.000, 15:38:11.400
198, -435.98, 12.25, 10.41, 12.80, 0.000, 0.000, 0.000, 15:38:11.401
199, 259.40, -0.92, 13.81, 17.04, 0.000, 0.000, 0.000, 15:38:11.401
200, 169.58, 9.44, 11.07, 14.58, 0.000, 0.000, 0.000, 15:38:11.401
0, -495.95, 11.65, 4.95, 8.73, 0.000, 0.000, 0.000, 15:38:11.402
1, 45.14, 4.62, 17.59, 18.13, 0.000, 0.000, 0.000, 15:38:11.423
2, 361.53, 9.05, 9.99, 10.17, 0.000, 0.000, 0.000, 15:38:11.423
3, -399.89, 16.85, 5.60, 5.11, 0.000, 0.000, 0.000, 15:38:11.423
4, -213.15, 8.07, 15.84, 14.91, 0.000, 0.000, 0.000, 15:38:11.424
5, 394.33, 5.53, 13.50, 15.89, 0.000, 0.000, 0.000, 15:38:11.445
6, -83.13, 21.62, 7.11, 7.25, 0.000, 0.000, 0.000, 15:38:11.445
7, -469.10, 0.96, 11.46, 15.58, 0.000, 0.000, 0.000, 15:38:11.446
8, 265.74, 2.68, 9.40, 12.38, 0.000, 0.000, 0.000, 15:38:11.446
9, 204.05, 11.63, 5.43, 7.52, 0.000, 0.000, 0.000, 15:38:11.468
10, -515.78, 14.80, 7.56, 12.07, 0.000, 0.000, 0.000, 15:38:11.468
11, 68.31, 2.42, 13.28, 14.21, 0.000, 0.000, 0.000, 15:38:11.468
12, 373.79, 4.01, 11.66, 14.16, 0.000, 0.000, 0.000, 15:38:11.469
13, -361.06, 9.21, 7.74, 3.90, 0.000, 0.000, 0.000, 15:38:11.469
14, -242.75, 5.66, 16.44, 14.27, 0.000, 0.000, 0.000, 15:38:11.470
15, 387.65, 11.22, 13.98, 12.78, 0.000, 0.000, 0.000, 15:38:11.492
16, -65.61, 9.00, 5.03, 5.97, 0.000, 0.000, 0.000, 15:38:11.492
17, -438.46, 7.49, 11.67, 12.73, 0.000, 0.000, 0.000, 15:38:11.493
18, 267.92, 1.81, 14.84, 16.38, 0.000, 0.000, 0.000, 15:38:11.494
19, 195.88, 8.08, 7.89, 7.80, 0.000, 0.000, 0.000, 15:38:11.513
20, -501.36, 9.64, 7.93, 10.49, 0.000, 0.000, 0.000, 15:38:11.513
21, 36.96, 4.66, 14.90, 14.92, 0.000, 0.000, 0.000, 15:38:11.514
22, 353.50, 13.93, 10.31, 13.80, 0.000, 0.000, 0.000, 15:38:11.514
23, -363.73, 14.25, 3.78, 10.71, 0.000, 0.000, 0.000, 15:38:11.535
24, -193.15, 8.27, 17.31, 19.13, 0.000, 0.000, 0.000, 15:38:11.535
25, 382.79, 7.44, 16.51, 12.45, 0.000, 0.000, 0.000, 15:38:11.535
26, -74.22, 16.04, 6.34, 5.44, 0.000, 0.000, 0.000, 15:38:11.536
27, -450.95, 5.88, 15.83, 14.80, 0.000, 0.000, 0.000, 15:38:11.558
28, 284.32, 1.75, 15.34, 15.61, 0.000, 0.000, 0.000, 15:38:11.559
29, 197.62, 9.53, 6.65, 8.89, 0.000, 0.000, 0.000, 15:38:11.559
30, -485.74, 8.28, 8.20, 7.78, 0.000, 0.000, 0.000, 15:38:11.559
31, 39.25, 0.93, 16.79, 14.11, 0.000, 0.000, 0.000, 15:38:11.559
32, 370.47, 6.45, 12.69, 12.86, 0.000, 0.000, 0.000, 15:38:11.559
33, -372.99, 18.86, 6.20, 6.25, 0.000, 0.000, 0.000, 15:38:11.582
34, -188.19, 1.08, 15.04, 13.83, 0.000, 0.000, 0.000, 15:38:11.582
35, 390.57, 7.67, 14.77, 13.39, 0.000, 0.000, 0.000, 15:38:11.583
36, -95.94, 16.78, 2.76, 6.04, 0.000, 0.000, 0.000, 15:38:11.583
37, -452.27, 3.01, 15.17, 12.36, 0.000, 0.000, 0.000, 15:38:11.604
38, 272.96, 5.50, 12.46, 14.49, 0.000, 0.000, 0.000, 15:38:11.604
39, 191.51, 13.06, 7.76, 7.07, 0.000, 0.000, 0.000, 15:38:11.604
40, -492.84, 13.47, 13.20, 10.73, 0.000, 0.000, 0.000, 15:38:11.605
41, 35.53, 1.35, 16.54, 20.40, 0.000, 0.000, 0.000, 15:38:11.627
42, 377.31, 15.28, 9.65, 9.88, 0.000, 0.000, 0.000, 15:38:11.627
43, -363.68, 11.18, 8.23, 11.26, 0.000, 0.000, 0.000, 15:38:11.627
44, -229.01, 4.00, 10.82, 13.89, 0.000, 0.000, 0.000, 15:38:11.628
45, 370.60, 4.10, 12.44, 18.28, 0.000, 0.000, 0.000, 15:38:11.650
46, -69.51, 15.54, 0.46, 3.25, 0.000, 0.000, 0.000, 15:38:11.650
47, -409.83, 5.58, 13.48, 15.81, 0.000, 0.000, 0.000, 15:38:11.650
48, 264.90, 6.95, 13.24, 15.87, 0.000, 0.000, 0.000, 15:38:11.650
49, 214.60, 11.72, 9.18, 10.94, 0.000, 0.000, 0.000, 15:38:11.651
50, -510.49, 13.44, 8.84, 8.07, 0.000, 0.000, 0.000, 15:38:11.651
51, 33.91, 3.14, 16.26, 16.73, 0.000, 0.000, 0.000, 15:38:11.670
52, 363.30, 7.27, 10.73, 12.05, 0.000, 0.000, 0.000, 15:38:11.670
53, -349.78, 7.81, 10.88, 5.56, 0.000, 0.000, 0.000, 15:38:11.670
54, -236.27, 4.41, 15.11, 16.68, 0.000, 0.000, 0.000, 15:38:11.671
55, 391.11, 2.64, 12.56, 10.24, 0.000, 0.000, 0.000, 15:38:11.693
56, -83.10, 15.48, 3.81, 7.76, 0.000, 0.000, 0.000, 15:38:11.693
57, -426.51, 9.07, 16.88, 8.85, 0.000, 0.000, 0.000, 15:38:11.694
58, 272.05, 5.56, 15.61, 13.36, 0.000, 0.000, 0.000, 15:38:11.694
59, 203.76, 11.10, 11.55, 11.43, 0.000, 0.000, 0.000, 15:38:11.715
60, -514.42, 17.42, 8.55, 10.97, 0.000, 0.000, 0.000, 15:38:11.715
61, 33.80, -1.90, 14.03, 15.09, 0.000, 0.000, 0.000, 15:38:11.716
62, 369.42, 6.31, 7.75, 15.64, 0.000, 0.000, 0.000, 15:38:11.716
63, -350.83, 9.58, 8.36, 9.70, 0.000, 0.000, 0.000, 15:38:11.738
64, -208.09, 7.10, 16.80, 16.93, 0.000, 0.000, 0.000, 15:38:11.738
65, 390.97, 1.66, 12.40, 18.07, 0.000, 0.000, 0.000, 15:38:11.738
66, -94.71, 18.98, 6.24, 9.80, 0.000, 0.000, 0.000, 15:38:11.739
67, -446.34, 11.25, 11.66, 15.43, 0.000, 0.000, 0.000, 15:38:11.739
68, 291.67, 6.62, 9.19, 15.49, 0.000, 0.000, 0.000, 15:38:11.739
69, 192.92, 14.25, 10.00, 10.16, 0.000, 0.000, 0.000, 15:38:11.760
70, -503.22, 6.64, 8.06, 6.97, 0.000, 0.000, 0.000, 15:38:11.760
71, 44.19, 5.02, 15.26, 14.27, 0.000, 0.000, 0.000, 15:38:11.761
72, 378.45, 4.82, 12.90, 14.94, 0.000, 0.000, 0.000, 15:38:11.761
73, -355.43, 11.81, 5.63, 2.15, 0.000, 0.000, 0.000, 15:38:11.783
74, -232.75, 0.86, 13.11, 14.00, 0.000, 0.000, 0.000, 15:38:11.783
75, 385.32, 1.62, 10.91, 12.36, 0.000, 0.000, 0.000, 15:38:11.783
76, -71.86, 11.24, 4.30, 7.99, 0.000, 0.000, 0.000, 15:38:11.783
77, -451.48, 8.33, 15.93, 8.91, 0.000, 0.000, 0.000, 15:38:11.805
78, 252.53, 12.78, 11.20, 14.62, 0.000, 0.000, 0.000, 15:38:11.805
79, 188.86, 4.21, 5.96, 11.53, 0.000, 0.000, 0.000, 15:38:11.805
80, -491.69, 8.06, 12.19, 11.00, 0.000, 0.000, 0.000, 15:38:11.806
81, 31.22, 5.82, 18.92, 17.44, 0.000, 0.000, 0.000, 15:38:11.828
82, 363.28, 11.02, 12.03, 13.41, 0.000, 0.000, 0.000, 15:38:11.828
83, -343.81, 12.08, 5.94, 6.26, 0.000, 0.000, 0.000, 15:38:11.828
84, -245.28, 2.74, 13.46, 14.88, 0.000, 0.000, 0.000, 15:38:11.828
85, 365.05, 7.20, 13.19, 13.54, 0.000, 0.000, 0.000, 15:38:11.829
86, -37.90, 17.19, 7.55, 9.94, 0.000, 0.000, 0.000, 15:38:11.829
87, -438.41, 8.66, 14.16, 12.22, 0.000, 0.000, 0.000, 15:38:11.850
88, 266.03, 2.54, 14.11, 15.89, 0.000, 0.000, 0.000, 15:38:11.850
89, 215.92, 11.68, 6.18, 8.38, 0.000, 0.000, 0.000, 15:38:11.851
90, -491.62, 5.31, 9.07, 14.54, 0.000, 0.000, 0.000, 15:38:11.851
91, 38.31, 3.39, 14.31, 12.31, 0.000, 0.000, 0.000, 15:38:11.872
92, 358.01, 7.89, 13.33, 14.22, 0.000, 0.000, 0.000, 15:38:11.873
93, -354.56, 13.42, 6.63, 8.25, 0.000, 0.000, 0.000, 15:38:11.873
94, -229.38, 4.76, 13.00, 14.97, 0.000, 0.000, 0.000, 15:38:11.873
95, 329.16, 6.45, 15.97, 15.37, 0.000, 0.000, 0.000, 15:38:11.895
96, -39.77, 14.97, 3.96, 9.24, 0.000, 0.000, 0.000, 15:38:11.895
97, -414.63, 2.60, 13.07, 12.51, 0.000, 0.000, 0.000, 15:38:11.896
98, 277.22, 5.59, 13.51, 11.39, 0.000, 0.000, 0.000, 15:38:11.896
99, 209.07, 10.37, 10.45, 7.96, 0.000, 0.000, 0.000, 15:38:11.918
100, -497.20, 9.31, 7.00, 8.46, 0.000, 0.000, 0.000, 15:38:11.918
101, 38.12, 3.17, 14.98, 14.15, 0.000, 0.000, 0.000, 15:38:11.918
102, 384.49, 7.89, 12.85, 7.88, 0.000, 0.000, 0.000, 15:38:11.918
103, -358.15, 15.22, 5.53, 6.99, 0.000, 0.000, 0.000, 15:38:11.919
104, -238.26, 5.85, 13.61, 9.17, 0.000, 0.000, 0.000, 15:38:11.919
105, 376.30, 10.28, 11.86, 14.49, 0.000, 0.000, 0.000, 15:38:11.941
106, -65.91, 15.24, 4.11, 8.79, 0.000, 0.000, 0.000, 15:38:11.941
107, -433.87, 8.58, 11.23, 17.35, 0.000, 0.000, 0.000, 15:38:11.941
108, 257.09, 5.44, 13.24, 18.90, 0.000, 0.000, 0.000, 15:38:11.941
109, 219.81, 11.09, 5.98, 12.41, 0.000, 0.000, 0.000, 15:38:11.963
110, -475.36, 11.17, 6.67, 14.47, 0.000, 0.000, 0.000, 15:38:11.963
111, 11.25, 3.85, 15.11, 15.95, 0.000, 0.000, 0.000, 15:38:11.963
112, 372.87, 9.10, 10.96, 13.21, 0.000, 0.000, 0.000, 15:38:11.964
113, -350.48, 13.27, 5.33, 4.22, 0.000, 0.000, 0.000, 15:38:11.986
114, -234.02, 9.46, 16.25, 15.88, 0.000, 0.000, 0.000, 15:38:11.986
115, 404.00, -0.81, 14.59, 13.26, 0.000, 0.000, 0.000, 15:38:11.987
116, -74.46, 11.05, 4.14, 6.99, 0.000, 0.000, 0.000, 15:38:11.987
117, -442.20, 2.64, 14.29, 10.78, 0.000, 0.000, 0.000, 15:38:12.008
118, 260.30, 5.95, 14.02, 15.06, 0.000, 0.000, 0.000, 15:38:12.008
119, 213.34, 11.81, 6.76, 6.35, 0.000, 0.000, 0.000, 15:38:12.008
120, -509.89, 13.87, 7.02, 6.33, 0.000, 0.000, 0.000, 15:38:12.009
121, 38.34, 1.57, 18.42, 15.14, 0.000, 0.000, 0.000, 15:38:12.009
122, 371.02, 10.14, 12.93, 9.90, 0.000, 0.000, 0.000, 15:38:12.009
123, -349.08, 15.43, 6.19, 10.67, 0.000, 0.000, 0.000, 15:38:12.030
124, -235.25, 2.77, 14.18, 16.92, 0.000, 0.000, 0.000, 15:38:12.030
125, 357.36, 3.52, 12.60, 13.25, 0.000, 0.000, 0.000, 15:38:12.031
126, -78.97, 11.89, 5.44, 4.05, 0.000, 0.000, 0.000, 15:38:12.031
127, -442.38, 8.35, 14.32, 9.87, 0.000, 0.000, 0.000, 15:38:12.053
128, 275.08, 5.15, 17.48, 17.35, 0.000, 0.000, 0.000, 15:38:12.053
129, 221.56, 11.34, 11.03, 11.05, 0.000, 0.000, 0.000, 15:38:12.053
130, -490.04, 10.70, 9.16, 10.41, 0.000, 0.000, 0.000, 15:38:12.053
131, 37.28, 6.68, 12.00, 10.26, 0.000, 0.000, 0.000, 15:38:12.075
132, 370.66, 14.78, 12.37, 15.12, 0.000, 0.000, 0.000, 15:38:12.076
133, -362.42, 10.27, 6.37, 7.42, 0.000, 0.000, 0.000, 15:38:12.076
134, -237.62, 6.00, 15.55, 16.84, 0.000, 0.000, 0.000, 15:38:12.076
135, 390.99, 2.98, 10.99, 14.76, 0.000, 0.000, 0.000, 15:38:12.098
136, -77.88, 15.82, 3.42, 8.55, 0.000, 0.000, 0.000, 15:38:12.098
137, -440.08, 4.79, 14.41, 14.41, 0.000, 0.000, 0.000, 15:38:12.098
138, 280.39, 7.00, 11.37, 14.48, 0.000, 0.000, 0.000, 15:38:12.098
139, 233.59, 7.50, 6.75, 12.30, 0.000, 0.000, 0.000, 15:38:12.099
140, -471.87, 13.51, 9.87, 5.70, 0.000, 0.000, 0.000, 15:38:12.100
141, 88.77, 8.58, 18.06, 16.13, 0.000, 0.000, 0.000, 15:38:12.120
142, 369.23, 2.91, 11.22, 14.13, 0.000, 0.000, 0.000, 15:38:12.120
143, -321.08, 15.21, 1.55, 5.80, 0.000, 0.000, 0.000, 15:38:12.120
144, -248.70, 3.91, 11.86, 12.40, 0.000, 0.000, 0.000, 15:38:12.121
145, 361.67, 6.60, 12.23, 13.15, 0.000, 0.000, 0.000, 15:38:12.143
146, -113.45, 10.59, 5.10, 3.57, 0.000, 0.000, 0.000, 15:38:12.143
147, -497.78, 7.31, 14.31, 15.82, 0.000, 0.000, 0.000, 15:38:12.143
148, 260.28, 7.20, 11.98, 16.24, 0.000, 0.000, 0.000, 15:38:12.144
149, 204.54, 7.58, 9.65, 12.19, 0.000, 0.000, 0.000, 15:38:12.165
150, -488.45, 13.04, 5.54, 9.80, 0.000, 0.000, 0.000, 15:38:12.165
151, 30.53, 0.10, 16.99, 14.27, 0.000, 0.000, 0.000, 15:38:12.166
152, 369.10, 9.09, 11.79, 11.97, 0.000, 0.000, 0.000, 15:38:12.166
153, -358.24, 14.21, 6.23, 7.78, 0.000, 0.000, 0.000, 15:38:12.188
154, -235.34, 5.99, 14.83, 15.29, 0.000, 0.000, 0.000, 15:38:12.188
155, 389.27, 5.32, 13.51, 15.06, 0.000, 0.000, 0.000, 15:38:12.188
156, -68.64, 17.89, 3.77, 7.33, 0.000, 0.000, 0.000, 15:38:12.189
157, -441.30, 3.22, 15.68, 12.52, 0.000, 0.000, 0.000, 15:38:12.189
158, 268.72, 5.46, 14.90, 14.69, 0.000, 0.000, 0.000, 15:38:12.189
159, 208.94, 11.54, 8.83, 9.32, 0.000, 0.000, 0.000, 15:38:12.210
160, -507.06, 6.87, 11.66, 13.21, 0.000, 0.000, 0.000, 15:38:12.210
161, 52.10, 5.19, 15.47, 15.15, 0.000, 0.000, 0.000, 15:38:12.211
162, 399.05, 9.11, 14.24, 8.32, 0.000, 0.000, 0.000, 15:38:12.211
163, -343.25, 14.00, 3.97, 10.20, 0.000, 0.000, 0.000, 15:38:12.233
164, -230.81, 5.35, 17.42, 19.50, 0.000, 0.000, 0.000, 15:38:12.233
165, 381.16, 6.56, 14.58, 15.24, 0.000, 0.000, 0.000, 15:38:12.233
166, -67.15, 13.90, 8.61, 5.70, 0.000, 0.000, 0.000, 15:38:12.233
167, -440.23, 7.50, 13.99, 14.39, 0.000, 0.000, 0.000, 15:38:12.255
168, 269.12, 12.66, 13.43, 13.84, 0.000, 0.000, 0.000, 15:38:12.256
169, 220.78, 4.18, 8.59, 9.24, 0.000, 0.000, 0.000, 15:38:12.256
170, -494.51, 9.67, 6.92, 9.64, 0.000, 0.000, 0.000, 15:38:12.256
171, 46.08, 7.37, 13.23, 15.53, 0.000, 0.000, 0.000, 15:38:12.278
172, 378.66, 8.35, 11.49, 9.91, 0.000, 0.000, 0.000, 15:38:12.278
173, -350.22, 10.28, 5.59, 8.61, 0.000, 0.000, 0.000, 15:38:12.278
174, -237.99, 7.35, 13.46, 16.73, 0.000, 0.000, 0.000, 15:38:12.278
175, 381.06, 4.28, 14.60, 11.94, 0.000, 0.000, 0.000, 15:38:12.279
176, -67.20, 17.32, 3.81, 4.02, 0.000, 0.000, 0.000, 15:38:12.279
177, -439.65, 6.37, 10.11, 9.86, 0.000, 0.000, 0.000, 15:38:12.300
178, 278.27, 4.96, 16.05, 13.98, 0.000, 0.000, 0.000, 15:38:12.300
179, 205.24, 7.66, 8.10, 9.51, 0.000, 0.000, 0.000, 15:38:12.300
180, -461.05, 11.15, 10.01, 9.02, 0.000, 0.000, 0.000, 15:38:12.301
181, 37.43, -0.45, 13.67, 13.21, 0.000, 0.000, 0.000, 15:38:12.323
182, 369.52, 7.10, 13.44, 14.42, 0.000, 0.000, 0.000, 15:38:12.323
183, -349.16, 14.77, 6.84, 7.61, 0.000, 0.000, 0.000, 15:38:12.324
184, -219.09, 6.77, 18.01, 14.85, 0.000, 0.000, 0.000, 15:38:12.324
185, 403.46, 7.12, 14.22, 14.26, 0.000, 0.000, 0.000, 15:38:12.345
186, -69.37, 19.84, 3.52, 6.43, 0.000, 0.000, 0.000, 15:38:12.345
187, -430.53, 0.01, 14.28, 14.18, 0.000, 0.000, 0.000, 15:38:12.346
188, 263.98, 5.00, 12.92, 11.84, 0.000, 0.000, 0.000, 15:38:12.347
189, 212.21, 12.58, 8.98, 11.77, 0.000, 0.000, 0.000, 15:38:12.368
190, -493.77, 10.15, 9.20, 10.09, 0.000, 0.000, 0.000, 15:38:12.368
191, 42.04, 4.05, 14.61, 16.47, 0.000, 0.000, 0.000, 15:38:12.368
192, 395.83, 8.55, 12.40, 11.72, 0.000, 0.000, 0.000, 15:38:12.368
193, -348.21, 15.85, 4.40, 5.85, 0.000, 0.000, 0.000, 15:38:12.369
194, -236.23, 3.56, 14.60, 14.45, 0.000, 0.000, 0.000, 15:38:12.369
195, 387.31, 7.10, 12.90, 17.11, 0.000, 0.000, 0.000, 15:38:12.390
196, -54.73, 11.62, 5.87, 5.94, 0.000, 0.000, 0.000, 15:38:12.391
197, -446.79, 6.47, 12.12, 16.65, 0.000, 0.000, 0.000, 15:38:12.391
198, 256.53, 4.91, 11.80, 15.72, 0.000, 0.000, 0.000, 15:38:12.391
199, 228.56, 7.68, 9.61, 11.88, 0.000, 0.000, 0.000, 15:38:12.413
200, -503.07, 8.34, 7.58, 10.67, 0.000, 0.000, 0.000, 15:38:12.413
0, 48.21, 4.75, 17.01, 17.75, 0.000, 0.000, 0.000, 15:38:12.413
1, 379.93, 11.96, 11.03, 10.97, 0.000, 0.000, 0.000, 15:38:12.414
2, -368.89, 13.07, 5.92, 7.39, 0.000, 0.000, 0.000, 15:38:12.414
3, -248.78, 6.77, 15.68, 11.59, 0.000, 0.000, 0.000, 15:38:12.435
4, 377.55, 6.87, 13.02, 11.06, 0.000, 0.000, 0.000, 15:38:12.435
5, -86.24, 14.04, 2.77, 4.58, 0.000, 0.000, 0.000, 15:38:12.458
6, -462.41, 2.37, 12.61, 15.41, 0.000, 0.000, 0.000, 15:38:12.458
7, 263.64, 5.60, 15.51, 14.62, 0.000, 0.000, 0.000, 15:38:12.458
8, 219.92, 9.83, 3.70, 8.53, 0.000, 0.000, 0.000, 15:38:12.458
9, -491.79, 10.03, 9.29, 10.72, 0.000, 0.000, 0.000, 15:38:12.459
10, 4.91, 1.74, 18.65, 15.84, 0.000, 0.000, 0.000, 15:38:12.459
11, 357.61, 7.88, 14.06, 12.11, 0.000, 0.000, 0.000, 15:38:12.480
12, -356.67, 14.67, 1.17, 5.67, 0.000, 0.000, 0.000, 15:38:12.481
13, -251.34, 3.98, 15.78, 15.25, 0.000, 0.000, 0.000, 15:38:12.481
14, 380.85, 10.33, 16.09, 15.73, 0.000, 0.000, 0.000, 15:38:12.481
15, -64.49, 9.21, 1.08, 7.60, 0.000, 0.000, 0.000, 15:38:12.503
16, -448.76, 5.82, 11.18, 13.83, 0.000, 0.000, 0.000, 15:38:12.503
17, 241.60, 5.39, 12.35, 15.39, 0.000, 0.000, 0.000, 15:38:12.503
18, 207.71, 7.47, 9.55, 8.10, 0.000, 0.000, 0.000, 15:38:12.503
19, -466.57, 6.09, 7.38, 8.19, 0.000, 0.000, 0.000, 15:38:12.504
20, 21.53, 7.44, 15.71, 13.99, 0.000, 0.000, 0.000, 15:38:12.504
21, 381.14, 11.54, 13.27, 11.82, 0.000, 0.000, 0.000, 15:38:12.526
22, -359.11, 12.26, 6.50, 6.94, 0.000, 0.000, 0.000, 15:38:12.526
23, -256.38, 3.71, 15.43, 13.02, 0.000, 0.000, 0.000, 15:38:12.526
24, 395.07, 6.87, 14.91, 13.77, 0.000, 0.000, 0.000, 15:38:12.526
25, -62.16, 20.83, 10.00, 7.51, 0.000, 0.000, 0.000, 15:38:12.548
26, -446.70, 5.13, 12.03, 10.54, 0.000, 0.000, 0.000, 15:38:12.549
27, 260.79, 5.65, 13.36, 13.54, 0.000, 0.000, 0.000, 15:38:12.549
28, 210.72, 11.85, 10.82, 11.76, 0.000, 0.000, 0.000, 15:38:12.549
29, -490.30, 9.91, 9.19, 9.40, 0.000, 0.000, 0.000, 15:38:12.570
30, 34.47, 11.35, 14.14, 13.89, 0.000, 0.000, 0.000, 15:38:12.570
31, 373.47, 0.08, 12.41, 12.91, 0.000, 0.000, 0.000, 15:38:12.570
32, -362.67, 14.68, 6.79, 7.73, 0.000, 0.000, 0.000, 15:38:12.571
33, -237.71, 5.36, 14.66, 17.11, 0.000, 0.000, 0.000, 15:38:12.593
34, 383.04, 4.70, 10.48, 12.86, 0.000, 0.000, 0.000, 15:38:12.593
35, -69.70, 17.56, 5.33, 4.23, 0.000, 0.000, 0.000, 15:38:12.593
36, -432.42, 10.43, 13.49, 15.14, 0.000, 0.000, 0.000, 15:38:12.593
37, 275.71, 6.78, 16.77, 15.24, 0.000, 0.000, 0.000, 15:38:12.594
38, 206.70, 9.80, 7.66, 4.68, 0.000, 0.000, 0.000, 15:38:12.594
39, -520.31, 10.65, 11.05, 9.60, 0.000, 0.000, 0.000, 15:38:12.615
40, 29.19, 1.80, 13.99, 17.36, 0.000, 0.000, 0.000, 15:38:12.616
41, 371.68, 5.50, 12.07, 15.75, 0.000, 0.000, 0.000, 15:38:12.616
42, -349.76, 9.73, 3.21, 4.98, 0.000, 0.000, 0.000, 15:38:12.616
43, -233.96, 3.08, 14.51, 16.48, 0.000, 0.000, 0.000, 15:38:12.640
44, 386.90, 7.47, 18.53, 14.49, 0.000, 0.000, 0.000, 15:38:12.640
45, -70.22, 13.78, 2.75, 7.42, 0.000, 0.000, 0.000, 15:38:12.640
46, -441.94, 4.38, 13.61, 15.73, 0.000, 0.000, 0.000, 15:38:12.640
47, 235.77, 0.79, 10.60, 19.30, 0.000, 0.000, 0.000, 15:38:12.662
48, 239.22, 12.40, 4.05, 8.97, 0.000, 0.000, 0.000, 15:38:12.663
49, -482.17, 4.56, 6.97, 11.52, 0.000, 0.000, 0.000, 15:38:12.664
50, 23.25, 5.03, 15.06, 13.86, 0.000, 0.000, 0.000, 15:38:12.665
51, 383.87, 7.98, 11.46, 11.57, 0.000, 0.000, 0.000, 15:38:12.683
52, -364.97, 15.15, 3.26, 7.40, 0.000, 0.000, 0.000, 15:38:12.684
53, -252.07, 2.49, 15.25, 15.00, 0.000, 0.000, 0.000, 15:38:12.684
54, 405.04, 5.71, 16.26, 15.43, 0.000, 0.000, 0.000, 15:38:12.684
55, -60.86, 14.85, 8.36, 6.86, 0.000, 0.000, 0.000, 15:38:12.685
56, -443.34, 10.10, 13.48, 10.81, 0.000, 0.000, 0.000, 15:38:12.685
57, 272.23, 5.99, 12.78, 16.61, 0.000, 0.000, 0.000, 15:38:12.705
58, 228.72, 8.00, 5.74, 12.68, 0.000, 0.000, 0.000, 15:38:12.705
59, -498.61, 11.82, 10.44, 10.64, 0.000, 0.000, 0.000, 15:38:12.706
60, 28.53, 2.67, 13.45, 18.80, 0.000, 0.000, 0.000, 15:38:12.706
61, 375.62, 8.37, 11.99, 14.74, 0.000, 0.000, 0.000, 15:38:12.727
62, -347.84, 12.93, 7.52, 6.78, 0.000, 0.000, 0.000, 15:38:12.728
63, -247.62, 6.83, 13.47, 12.23, 0.000, 0.000, 0.000, 15:38:12.728
64, 376.57, 8.18, 14.40, 15.68, 0.000, 0.000, 0.000, 15:38:12.728
65, -59.67, 13.50, 6.85, 8.69, 0.000, 0.000, 0.000, 15:38:12.750
66, -453.14, 10.58, 12.34, 11.93, 0.000, 0.000, 0.000, 15:38:12.750
67, 264.60, 0.55, 13.91, 12.03, 0.000, 0.000, 0.000, 15:38:12.751
68, 218.90, 6.22, 9.82, 7.38, 0.000, 0.000, 0.000, 15:38:12.751
69, -483.95, 10.86, 6.75, 11.08, 0.000, 0.000, 0.000, 15:38:12.773
70, 20.32, 5.19, 18.17, 15.63, 0.000, 0.000, 0.000, 15:38:12.773
71, 386.29, 6.70, 11.63, 11.25, 0.000, 0.000, 0.000, 15:38:12.773
72, -355.00, 11.74, 4.78, 6.56, 0.000, 0.000, 0.000, 15:38:12.773
73, -240.02, 0.89, 14.41, 15.78, 0.000, 0.000, 0.000, 15:38:12.774
74, 377.10, 8.48, 13.35, 13.74, 0.000, 0.000, 0.000, 15:38:12.774
75, -69.20, 14.14, 4.43, 7.50, 0.000, 0.000, 0.000, 15:38:12.795
76, -457.50, 7.53, 12.24, 16.36, 0.000, 0.000, 0.000, 15:38:12.795
77, 264.11, 5.87, 15.00, 11.26, 0.000, 0.000, 0.000, 15:38:12.796
78, 229.02, 7.40, 7.85, 8.12, 0.000, 0.000, 0.000, 15:38:12.796
79, -503.87, 10.02, 9.80, 10.41, 0.000, 0.000, 0.000, 15:38:12.818
80, 35.44, -0.90, 14.36, 16.27, 0.000, 0.000, 0.000, 15:38:12.818
81, 381.12, 8.13, 13.59, 10.09, 0.000, 0.000, 0.000, 15:38:12.818
82, -343.00, 15.47, 1.76, 6.51, 0.000, 0.000, 0.000, 15:38:12.818
83, -249.70, 7.02, 15.98, 17.25, 0.000, 0.000, 0.000, 15:38:12.840
84, 386.32, 11.03, 13.66, 15.15, 0.000, 0.000, 0.000, 15:38:12.840
85, -54.62, 10.86, 7.08, 5.50, 0.000, 0.000, 0.000, 15:38:12.841
86, -453.66, 8.99, 14.62, 10.98, 0.000, 0.000, 0.000, 15:38:12.841
87, 260.00, 7.67, 12.67, 14.75, 0.000, 0.000, 0.000, 15:38:12.863
88, 225.73, 13.52, 8.00, 11.60, 0.000, 0.000, 0.000, 15:38:12.863
89, -491.79, 7.87, 10.29, 11.18, 0.000, 0.000, 0.000, 15:38:12.863
90, 23.93, 2.66, 15.89, 16.80, 0.000, 0.000, 0.000, 15:38:12.864
91, 375.39, 9.79, 11.64, 11.83, 0.000, 0.000, 0.000, 15:38:12.864
92, -347.57, 12.85, 3.91, 7.86, 0.000, 0.000, 0.000, 15:38:12.864
93, -241.24, 8.49, 12.26, 14.70, 0.000, 0.000, 0.000, 15:38:12.885
94, 380.82, 9.09, 12.64, 14.18, 0.000, 0.000, 0.000, 15:38:12.885
95, -56.43, 10.20, 7.23, 9.84, 0.000, 0.000, 0.000, 15:38:12.886
96, -451.07, 8.31, 12.38, 14.60, 0.000, 0.000, 0.000, 15:38:12.886
97, 259.11, 4.70, 16.48, 14.12, 0.000, 0.000, 0.000, 15:38:12.909
98, 225.88, 9.85, 5.83, 10.06, 0.000, 0.000, 0.000, 15:38:12.909
99, -494.79, 12.92, 8.80, 8.42, 0.000, 0.000, 0.000, 15:38:12.909
100, 26.41, 0.70, 17.35, 17.46, 0.000, 0.000, 0.000, 15:38:12.909
101, 384.71, 5.27, 14.74, 12.19, 0.000, 0.000, 0.000, 15:38:12.930
102, -344.94, 19.24, 4.06, 6.80, 0.000, 0.000, 0.000, 15:38:12.931
103, -239.99, 0.89, 16.30, 15.54, 0.000, 0.000, 0.000, 15:38:12.931
104, 382.36, 7.53, 14.30, 15.09, 0.000, 0.000, 0.000, 15:38:12.931
105, -48.54, 15.88, 2.80, 7.02, 0.000, 0.000, 0.000, 15:38:12.953
106, -443.50, 9.51, 9.10, 9.82, 0.000, 0.000, 0.000, 15:38:12.953
107, 266.94, 6.17, 15.24, 17.21, 0.000, 0.000, 0.000, 15:38:12.953
108, 227.20, 8.52, 9.83, 10.70, 0.000, 0.000, 0.000, 15:38:12.953
109, -498.46, 10.19, 6.73, 7.32, 0.000, 0.000, 0.000, 15:38:12.975
110, 25.42, 3.45, 18.01, 16.26, 0.000, 0.000, 0.000, 15:38:12.975
111, 381.19, 14.19, 12.00, 11.10, 0.000, 0.000, 0.000, 15:38:12.976
112, -353.90, 10.30, 7.07, 7.59, 0.000, 0.000, 0.000, 15:38:12.976
113, -252.62, 4.72, 15.21, 15.00, 0.000, 0.000, 0.000, 15:38:12.977
114, 391.21, 4.67, 16.62, 13.13, 0.000, 0.000, 0.000, 15:38:12.977
115, -59.38, 17.74, 6.61, 8.71, 0.000, 0.000, 0.000, 15:38:12.998
116, -449.92, 3.75, 12.97, 9.26, 0.000, 0.000, 0.000, 15:38:12.998
117, 257.92, 3.64, 14.12, 16.21, 0.000, 0.000, 0.000, 15:38:12.998
118, 216.48, 10.96, 10.26, 10.86, 0.000, 0.000, 0.000, 15:38:12.999
119, -500.16, 11.96, 8.39, 7.19, 0.000, 0.000, 0.000, 15:38:13.020
120, 22.40, 10.86, 16.00, 13.88, 0.000, 0.000, 0.000, 15:38:13.021
121, 381.73, 4.71, 10.80, 14.37, 0.000, 0.000, 0.000, 15:38:13.021
122, -345.56, 13.49, 3.86, 6.60, 0.000, 0.000, 0.000, 15:38:13.021
123, -249.20, 5.47, 17.36, 12.90, 0.000, 0.000, 0.000, 15:38:13.044
124, 386.29, 3.20, 17.21, 13.84, 0.000, 0.000, 0.000, 15:38:13.045
125, -61.55, 10.24, 4.25, 7.82, 0.000, 0.000, 0.000, 15:38:13.045
126, -453.99, 6.53, 12.55, 14.42, 0.000, 0.000, 0.000, 15:38:13.045
127, 261.40, 6.60, 10.56, 16.00, 0.000, 0.000, 0.000, 15:38:13.045
128, 217.22, 7.02, 7.12, 9.70, 0.000, 0.000, 0.000, 15:38:13.045
129, -498.06, 15.24, 7.49, 7.55, 0.000, 0.000, 0.000, 15:38:13.065
130, 28.72, -1.28, 13.89, 15.40, 0.000, 0.000, 0.000, 15:38:13.066
131, 387.09, 8.45, 12.59, 13.82, 0.000, 0.000, 0.000, 15:38:13.066
132, -344.00, 10.91, 3.98, 5.20, 0.000, 0.000, 0.000, 15:38:13.066
133, -242.67, 3.46, 11.45, 11.63, 0.000, 0.000, 0.000, 15:38:13.088
134, 398.37, 4.41, 14.89, 17.73, 0.000, 0.000, 0.000, 15:38:13.089
135, -41.08, 18.75, 9.10, 10.59, 0.000, 0.000, 0.000, 15:38:13.089
136, -429.41, 3.30, 14.58, 15.72, 0.000, 0.000, 0.000, 15:38:13.089
137, 291.62, 2.11, 12.77, 13.69, 0.000, 0.000, 0.000, 15:38:13.110
138, 252.10, 14.76, 6.36, 8.91, 0.000, 0.000, 0.000, 15:38:13.111
139, -485.56, 7.03, 8.07, 12.49, 0.000, 0.000, 0.000, 15:38:13.111
140, 14.17, 3.26, 19.19, 18.87, 0.000, 0.000, 0.000, 15:38:13.112
141, 361.17, 9.42, 11.81, 11.81, 0.000, 0.000, 0.000, 15:38:13.133
142, -379.10, 14.34, 6.02, 4.81, 0.000, 0.000, 0.000, 15:38:13.133
143, -269.79, 3.66, 13.22, 14.14, 0.000, 0.000, 0.000, 15:38:13.133
144, 368.20, 6.79, 12.75, 11.24, 0.000, 0.000, 0.000, 15:38:13.134
145, -54.36, 12.32, 7.94, 7.41, 0.000, 0.000, 0.000, 15:38:13.134
146, -465.17, 5.52, 14.91, 15.95, 0.000, 0.000, 0.000, 15:38:13.134
147, 234.78, 7.73, 11.72, 13.84, 0.000, 0.000, 0.000, 15:38:13.159
148, 207.69, 11.04, 10.75, 7.72, 0.000, 0.000, 0.000, 15:38:13.160
149, -490.26, 11.06, 7.47, 6.84, 0.000, 0.000, 0.000, 15:38:13.160
150, 24.49, 5.61, 15.74, 15.32, 0.000, 0.000, 0.000, 15:38:13.160
151, 394.10, 11.44, 6.69, 13.66, 0.000, 0.000, 0.000, 15:38:13.178
152, -346.64, 16.44, 3.02, 6.92, 0.000, 0.000, 0.000, 15:38:13.178
153, -234.16, 3.25, 12.37, 15.57, 0.000, 0.000, 0.000, 15:38:13.178
154, 380.02, 1.61, 16.70, 19.27, 0.000, 0.000, 0.000, 15:38:13.178
155, -83.68, 13.22, 5.79, 4.89, 0.000, 0.000, 0.000, 15:38:13.200
156, -493.47, 6.04, 12.13, 13.63, 0.000, 0.000, 0.000, 15:38:13.200
157, 303.43, 1.02, 9.18, 14.44, 0.000, 0.000, 0.000, 15:38:13.201
158, 252.40, 9.21, 8.04, 6.00, 0.000, 0.000, 0.000, 15:38:13.201
159, -480.86, 10.61, 14.92, 11.59, 0.000, 0.000, 0.000, 15:38:13.223
160, 25.76, 4.20, 15.87, 18.15, 0.000, 0.000, 0.000, 15:38:13.223
161, 373.66, 6.08, 18.77, 16.24, 0.000, 0.000, 0.000, 15:38:13.223
162, -345.32, 13.97, 4.69, 5.97, 0.000, 0.000, 0.000, 15:38:13.223
163, -237.31, 1.03, 15.65, 15.80, 0.000, 0.000, 0.000, 15:38:13.224
164, 420.31, 9.51, 12.80, 17.04, 0.000, 0.000, 0.000, 15:38:13.224
165, -55.54, 15.12, 4.98, 7.80, 0.000, 0.000, 0.000, 15:38:13.245
166, -499.99, 2.24, 8.44, 11.58, 0.000, 0.000, 0.000, 15:38:13.245
167, 224.68, 6.32, 12.83, 14.36, 0.000, 0.000, 0.000, 15:38:13.245
168, 265.77, 12.48, 13.05, 11.93, 0.000, 0.000, 0.000, 15:38:13.246
169, -434.29, 17.09, 9.90, 11.57, 0.000, 0.000, 0.000, 15:38:13.268
170, 56.73, 8.10, 16.34, 16.87, 0.000, 0.000, 0.000, 15:38:13.268
171, 367.05, 9.96, 7.61, 13.32, 0.000, 0.000, 0.000, 15:38:13.268
172, -380.59, 13.18, 2.86, 6.67, 0.000, 0.000, 0.000, 15:38:13.268
173, -254.93, 1.84, 14.92, 15.49, 0.000, 0.000, 0.000, 15:38:13.290
174, 461.90, 9.02, 15.58, 11.54, 0.000, 0.000, 0.000, 15:38:13.290
175, -35.73, 11.25, 7.40, 11.72, 0.000, 0.000, 0.000, 15:38:13.291
176, -484.92, 7.66, 15.87, 14.05, 0.000, 0.000, 0.000, 15:38:13.291
177, 146.15, 8.05, 13.90, 12.83, 0.000, 0.000, 0.000, 15:38:13.313
178, 233.43, 9.80, 8.68, 13.45, 0.000, 0.000, 0.000, 15:38:13.313
179, -472.41, 12.12, 8.39, 7.07, 0.000, 0.000, 0.000, 15:38:13.313
180, 51.54, 7.24, 14.74, 14.75, 0.000, 0.000, 0.000, 15:38:13.313
181, 441.02, 3.67, 12.64, 9.82, 0.000, 0.000, 0.000, 15:38:13.314
182, -324.62, 13.07, 5.32, 5.75, 0.000, 0.000, 0.000, 15:38:13.314
183, -251.15, 8.26, 13.86, 14.79, 0.000, 0.000, 0.000, 15:38:13.335
184, 331.53, 2.50, 12.88, 10.74, 0.000, 0.000, 0.000, 15:38:13.335
185, -73.97, 12.52, 8.16, 9.87, 0.000, 0.000, 0.000, 15:38:13.335
186, -526.24, 5.03, 13.96, 13.44, 0.000, 0.000, 0.000, 15:38:13.336
187, 270.43, 7.61, 14.82, 15.80, 0.000, 0.000, 0.000, 15:38:13.358
188, 272.12, 5.54, 6.66, 9.82, 0.000, 0.000, 0.000, 15:38:13.358
189, -393.93, 11.74, 8.82, 7.18, 0.000, 0.000, 0.000, 15:38:13.358
190, 70.50, 6.71, 16.25, 14.26, 0.000, 0.000, 0.000, 15:38:13.358
191, 410.72, 4.77, 15.89, 17.85, 0.000, 0.000, 0.000, 15:38:13.380
192, -391.23, 16.92, 0.91, 3.59, 0.000, 0.000, 0.000, 15:38:13.380
193, -230.01, -0.88, 14.11, 18.20, 0.000, 0.000, 0.000, 15:38:13.381
194, 415.48, 6.36, 10.48, 13.27, 0.000, 0.000, 0.000, 15:38:13.381
195, -35.81, 16.72, 1.97, 5.45, 0.000, 0.000, 0.000, 15:38:13.403
196, -478.98, 11.21, 11.10, 13.04, 0.000, 0.000, 0.000, 15:38:13.403
197, 183.45, 8.78, 14.42, 13.44, 0.000, 0.000, 0.000, 15:38:13.404
198, 289.59, 8.63, 5.29, 6.77, 0.000, 0.000, 0.000, 15:38:13.404
199, -439.15, 10.33, 8.36, 10.58, 0.000, 0.000, 0.000, 15:38:13.404
200, -66.85, 3.84, 18.70, 17.03, 0.000, 0.000, 0.000, 15:38:13.405
0, 274.75, 9.89, 12.87, 13.34, 0.000, 0.000, 0.000, 15:38:13.425
1, -403.32, 11.42, 4.75, 7.81, 0.000, 0.000, 0.000, 15:38:13.425
2, -291.26, 2.93, 14.38, 15.83, 0.000, 0.000, 0.000, 15:38:13.426
3, 246.42, 6.54, 13.44, 15.34, 0.000, 0.000, 0.000, 15:38:13.448
4, -43.94, 15.93, 5.43, 4.66, 0.000, 0.000, 0.000, 15:38:13.448
5, -416.63, 7.07, 13.06, 14.52, 0.000, 0.000, 0.000, 15:38:13.448
6, 362.51, 4.63, 16.46, 14.29, 0.000, 0.000, 0.000, 15:38:13.448
7, 189.43, 10.27, 10.97, 9.70, 0.000, 0.000, 0.000, 15:38:13.449
8, -485.91, 14.48, 11.00, 10.76, 0.000, 0.000, 0.000, 15:38:13.449
9, 79.28, 5.24, 12.12, 12.85, 0.000, 0.000, 0.000, 15:38:13.470
10, 391.86, 7.32, 10.59, 17.48, 0.000, 0.000, 0.000, 15:38:13.471
11, -293.20, 13.83, 5.25, 9.10, 0.000, 0.000, 0.000, 15:38:13.471
12, -213.58, 5.26, 13.83, 16.16, 0.000, 0.000, 0.000, 15:38:13.471
13, 295.81, 2.60, 13.48, 16.58, 0.000, 0.000, 0.000, 15:38:13.493
14, -253.88, 10.31, 7.84, 8.06, 0.000, 0.000, 0.000, 15:38:13.493
15, -407.87, 6.66, 11.34, 12.79, 0.000, 0.000, 0.000, 15:38:13.493
16, 320.00, 4.29, 12.24, 15.54, 0.000, 0.000, 0.000, 15:38:13.493
17, 196.48, 8.77, 7.41, 9.12, 0.000, 0.000, 0.000, 15:38:13.515
18, -541.13, 15.39, 7.26, 6.42, 0.000, 0.000, 0.000, 15:38:13.515
19, -101.97, 1.51, 16.36, 17.11, 0.000, 0.000, 0.000, 15:38:13.516
20, 375.68, 5.38, 7.30, 8.16, 0.000, 0.000, 0.000, 15:38:13.516
21, -360.44, 15.88, 4.62, 5.13, 0.000, 0.000, 0.000, 15:38:13.538
22, -245.52, 5.21, 15.31, 18.66, 0.000, 0.000, 0.000, 15:38:13.538
23, 420.53, 6.64, 13.51, 15.50, 0.000, 0.000, 0.000, 15:38:13.538
24, 10.77, 17.63, 2.59, 7.89, 0.000, 0.000, 0.000, 15:38:13.538
25, -406.15, 4.00, 13.00, 11.52, 0.000, 0.000, 0.000, 15:38:13.539
26, 294.21, 1.76, 13.08, 12.10, 0.000, 0.000, 0.000, 15:38:13.539
27, 250.91, 13.17, 8.87, 12.85, 0.000, 0.000, 0.000, 15:38:13.560
28, -445.30, 9.82, 11.17, 10.66, 0.000, 0.000, 0.000, 15:38:13.560
29, 16.37, 7.18, 18.17, 15.03, 0.000, 0.000, 0.000, 15:38:13.561
30, 239.36, 8.28, 11.85, 14.32, 0.000, 0.000, 0.000, 15:38:13.561
31, -408.16, 18.31, 4.34, 5.11, 0.000, 0.000, 0.000, 15:38:13.583
32, -310.16, 4.76, 17.87, 15.76, 0.000, 0.000, 0.000, 15:38:13.583
33, 467.00, 6.41, 12.77, 14.95, 0.000, 0.000, 0.000, 15:38:13.583
34, -101.78, 14.54, 8.69, 5.80, 0.000, 0.000, 0.000, 15:38:13.583
35, -612.31, 4.81, 9.23, 10.94, 0.000, 0.000, 0.000, 15:38:13.605
36, 359.06, 11.25, 13.96, 13.68, 0.000, 0.000, 0.000, 15:38:13.605
37, 281.19, 3.86, 9.00, 14.13, 0.000, 0.000, 0.000, 15:38:13.606
38, -440.85, 9.48, 5.98, 4.52, 0.000, 0.000, 0.000, 15:38:13.606
39, 84.02, 3.27, 17.72, 14.02, 0.000, 0.000, 0.000, 15:38:13.627
40, 411.49, 7.28, 13.17, 12.55, 0.000, 0.000, 0.000, 15:38:13.628
41, -271.95, 13.14, 5.56, 3.10, 0.000, 0.000, 0.000, 15:38:13.628
42, -277.73, 6.50, 16.99, 15.45, 0.000, 0.000, 0.000, 15:38:13.628
43, 356.52, 4.50, 11.96, 15.50, 0.000, 0.000, 0.000, 15:38:13.629
44, -130.43, 12.40, 4.46, 7.89, 0.000, 0.000, 0.000, 15:38:13.629
45, -498.78, 10.95, 12.68, 11.43, 0.000, 0.000, 0.000, 15:38:13.650
46, 250.16, 0.28, 11.02, 17.53, 0.000, 0.000, 0.000, 15:38:13.650
47, 197.98, 9.47, 7.41, 15.49, 0.000, 0.000, 0.000, 15:38:13.651
48, -560.11, 7.64, 7.64, 9.39, 0.000, 0.000, 0.000, 15:38:13.651
49, 86.63, 3.73, 14.51, 15.96, 0.000, 0.000, 0.000, 15:38:13.673
50, 454.80, 6.51, 12.99, 12.16, 0.000, 0.000, 0.000, 15:38:13.673
51, -379.53, 17.95, 5.97, 8.53, 0.000, 0.000, 0.000, 15:38:13.673
52, -185.74, 3.44, 18.12, 15.79, 0.000, 0.000, 0.000, 15:38:13.673
53, 364.50, 9.64, 12.49, 13.92, 0.000, 0.000, 0.000, 15:38:13.695
54, -142.71, 17.91, 5.45, 8.10, 0.000, 0.000, 0.000, 15:38:13.695
55, -449.65, 1.25, 12.99, 13.78, 0.000, 0.000, 0.000, 15:38:13.696
56, 375.51, 3.66, 12.30, 16.13, 0.000, 0.000, 0.000, 15:38:13.696
57, 211.09, 9.33, 5.50, 6.78, 0.000, 0.000, 0.000, 15:38:13.717
58, -526.33, 11.59, 8.16, 7.41, 0.000, 0.000, 0.000, 15:38:13.718
59, 50.46, 4.53, 15.99, 15.51, 0.000, 0.000, 0.000, 15:38:13.718
60, 360.29, 9.96, 10.46, 13.99, 0.000, 0.000, 0.000, 15:38:13.718
61, -419.88, 11.84, 3.49, 8.77, 0.000, 0.000, 0.000, 15:38:13.719
62, -205.17, 6.96, 16.23, 15.88, 0.000, 0.000, 0.000, 15:38:13.719
63, 294.88, 7.22, 14.50, 12.31, 0.000, 0.000, 0.000, 15:38:13.740
64, -0.40, 7.06, 7.58, 8.02, 0.000, 0.000, 0.000, 15:38:13.740
65, -406.39, 7.52, 17.13, 11.87, 0.000, 0.000, 0.000, 15:38:13.741
66, 252.74, 5.80, 14.65, 13.02, 0.000, 0.000, 0.000, 15:38:13.741
67, 246.81, 13.80, 5.50, 9.99, 0.000, 0.000, 0.000, 15:38:13.763
68, -508.16, 5.41, 6.97, 9.71, 0.000, 0.000, 0.000, 15:38:13.763
69, -6.68, 4.83, 16.00, 17.53, 0.000, 0.000, 0.000, 15:38:13.763
70, 256.83, 8.34, 9.82, 13.37, 0.000, 0.000, 0.000, 15:38:13.763
71, -247.90, 12.22, 6.31, 10.71, 0.000, 0.000, 0.000, 15:38:13.785
72, -152.26, 11.14, 13.31, 16.57, 0.000, 0.000, 0.000, 15:38:13.786
73, 391.58, -0.26, 14.32, 19.62, 0.000, 0.000, 0.000, 15:38:13.786
74, -12.11, 13.36, 8.20, 6.41, 0.000, 0.000, 0.000, 15:38:13.786
75, -441.24, 7.36, 12.95, 12.01, 0.000, 0.000, 0.000, 15:38:13.808
76, 132.22, 4.85, 11.87, 12.69, 0.000, 0.000, 0.000, 15:38:13.809
77, 61.91, 6.31, 11.69, 12.42, 0.000, 0.000, 0.000, 15:38:13.809
78, -429.64, 12.91, 7.01, 10.69, 0.000, 0.000, 0.000, 15:38:13.809
79, 47.26, 5.23, 17.21, 15.61, 0.000, 0.000, 0.000, 15:38:13.809
80, 261.65, 6.62, 11.03, 10.87, 0.000, 0.000, 0.000, 15:38:13.809
81, -416.24, 13.62, 4.78, 4.58, 0.000, 0.000, 0.000, 15:38:13.830
82, 28.42, 2.64, 16.20, 16.23, 0.000, 0.000, 0.000, 15:38:13.831
83, 447.10, 8.21, 12.56, 10.50, 0.000, 0.000, 0.000, 15:38:13.831
84, -56.83, 12.89, 1.75, 6.24, 0.000, 0.000, 0.000, 15:38:13.831
85, -549.03, 4.88, 12.22, 15.69, 0.000, 0.000, 0.000, 15:38:13.853
86, 247.26, 4.85, 15.15, 15.63, 0.000, 0.000, 0.000, 15:38:13.853
87, 369.83, 12.39, 7.36, 7.40, 0.000, 0.000, 0.000, 15:38:13.853
88, -519.61, 11.76, 7.18, 7.66, 0.000, 0.000, 0.000, 15:38:13.853
89, -24.79, 3.93, 15.69, 14.86, 0.000, 0.000, 0.000, 15:38:13.875
90, 222.66, 15.58, 9.76, 10.80, 0.000, 0.000, 0.000, 15:38:13.876
91, -526.25, 9.64, 5.32, 7.94, 0.000, 0.000, 0.000, 15:38:13.876
92, 18.13, 4.79, 14.22, 12.01, 0.000, 0.000, 0.000, 15:38:13.876
93, 581.64, 6.39, 14.14, 16.45, 0.000, 0.000, 0.000, 15:38:13.898
94, 32.72, 13.92, 7.12, 8.64, 0.000, 0.000, 0.000, 15:38:13.898
95, -575.84, 6.21, 14.82, 11.81, 0.000, 0.000, 0.000, 15:38:13.898
96, 3.60, 8.64, 15.78, 12.12, 0.000, 0.000, 0.000, 15:38:13.898
97, 261.96, 11.79, 8.25, 7.69, 0.000, 0.000, 0.000, 15:38:13.899
98, -292.70, 11.12, 8.73, 9.48, 0.000, 0.000, 0.000, 15:38:13.899
99, 45.79, 6.13, 19.31, 18.07, 0.000, 0.000, 0.000, 15:38:13.921
100, 248.65, 4.71, 12.51, 13.28, 0.000, 0.000, 0.000, 15:38:13.921
101, -375.40, 10.97, 7.10, 8.82, 0.000, 0.000, 0.000, 15:38:13.921
102, -343.11, 2.99, 13.56, 13.87, 0.000, 0.000, 0.000, 15:38:13.921
103, 267.31, 7.26, 14.10, 14.93, 0.000, 0.000, 0.000, 15:38:13.943
104, -70.37, 14.16, 5.42, 11.11, 0.000, 0.000, 0.000, 15:38:13.943
105, -275.16, 8.88, 11.45, 12.07, 0.000, 0.000, 0.000, 15:38:13.943
106, 204.54, 6.60, 13.25, 11.07, 0.000, 0.000, 0.000, 15:38:13.943
107, 263.71, 12.57, 6.88, 10.80, 0.000, 0.000, 0.000, 15:38:13.965
108, -502.09, 16.34, 7.16, 4.76, 0.000, 0.000, 0.000, 15:38:13.965
109, 3.81, -6.34, 11.77, 14.52, 0.000, 0.000, 0.000, 15:38:13.965
110, 520.48, 5.97, 10.42, 15.88, 0.000, 0.000, 0.000, 15:38:13.966
111, -327.83, 10.04, 6.29, 7.54, 0.000, 0.000, 0.000, 15:38:13.988
112, -272.55, 5.32, 17.27, 17.30, 0.000, 0.000, 0.000, 15:38:13.988
113, 331.88, 7.25, 12.34, 14.09, 0.000, 0.000, 0.000, 15:38:13.989
114, -3.23, 13.19, 6.93, 8.90, 0.000, 0.000, 0.000, 15:38:13.989
115, -485.93, 7.07, 16.28, 15.69, 0.000, 0.000, 0.000, 15:38:13.989
116, 212.66, 6.48, 17.67, 14.97, 0.000, 0.000, 0.000, 15:38:13.989
117, 147.00, 14.10, 8.55, 9.71, 0.000, 0.000, 0.000, 15:38:14.010
118, -414.45, 6.10, 8.37, 7.53, 0.000, 0.000, 0.000, 15:38:14.011
119, 71.43, 1.50, 17.07, 14.86, 0.000, 0.000, 0.000, 15:38:14.011
120, 405.20, 7.53, 12.48, 11.74, 0.000, 0.000, 0.000, 15:38:14.011
121, -415.31, 14.57, 2.76, 7.99, 0.000, 0.000, 0.000, 15:38:14.034
122, -420.10, -0.76, 15.57, 14.17, 0.000, 0.000, 0.000, 15:38:14.034
123, 556.19, 9.10, 16.74, 17.19, 0.000, 0.000, 0.000, 15:38:14.034
124, -40.16, 11.36, 1.20, 8.20, 0.000, 0.000, 0.000, 15:38:14.034
125, -388.30, 5.25, 13.49, 11.84, 0.000, 0.000, 0.000, 15:38:14.055
126, 195.28, 9.94, 13.65, 13.90, 0.000, 0.000, 0.000, 15:38:14.056
127, 245.95, 4.70, 8.22, 8.56, 0.000, 0.000, 0.000, 15:38:14.056
128, -448.93, 12.50, 6.44, 9.86, 0.000, 0.000, 0.000, 15:38:14.056
129, -36.78, 5.95, 17.03, 17.19, 0.000, 0.000, 0.000, 15:38:14.078
130, 240.60, 10.02, 11.77, 10.50, 0.000, 0.000, 0.000, 15:38:14.079
131, -446.90, 12.12, 5.51, 4.95, 0.000, 0.000, 0.000, 15:38:14.079
132, -91.80, 6.68, 17.13, 10.93, 0.000, 0.000, 0.000, 15:38:14.079
133, 374.15, 7.77, 10.71, 13.34, 0.000, 0.000, 0.000, 15:38:14.080
134, -35.91, 13.58, 6.02, 7.81, 0.000, 0.000, 0.000, 15:38:14.080
135, -452.04, 9.72, 13.38, 12.91, 0.000, 0.000, 0.000, 15:38:14.101
136, 312.91, 4.15, 15.03, 15.47, 0.000, 0.000, 0.000, 15:38:14.101
137, 229.86, 9.88, 10.41, 11.13, 0.000, 0.000, 0.000, 15:38:14.101
138, -535.07, 7.86, 8.19, 12.18, 0.000, 0.000, 0.000, 15:38:14.102
139, 5.36, 4.89, 17.52, 18.33, 0.000, 0.000, 0.000, 15:38:14.122
140, 506.00, 5.68, 9.22, 14.52, 0.000, 0.000, 0.000, 15:38:14.123
141, -248.64, 15.11, 4.57, 9.27, 0.000, 0.000, 0.000, 15:38:14.123
142, -231.49, 5.16, 18.02, 14.12, 0.000, 0.000, 0.000, 15:38:14.123
143, 292.61, 6.71, 11.76, 14.13, 0.000, 0.000, 0.000, 15:38:14.145
144, 74.81, 17.27, 7.38, 3.01, 0.000, 0.000, 0.000, 15:38:14.145
145, -455.70, 2.65, 11.54, 14.90, 0.000, 0.000, 0.000, 15:38:14.146
146, 119.18, 6.04, 16.26, 16.53, 0.000, 0.000, 0.000, 15:38:14.146
147, 130.14, 12.21, 8.47, 12.53, 0.000, 0.000, 0.000, 15:38:14.168
148, -468.20, 9.84, 7.92, 6.61, 0.000, 0.000, 0.000, 15:38:14.168
149, -37.53, 3.27, 13.76, 15.86, 0.000, 0.000, 0.000, 15:38:14.169
150, 386.06, 6.78, 10.34, 11.77, 0.000, 0.000, 0.000, 15:38:14.169
151, -280.79, 10.53, 4.60, 4.87, 0.000, 0.000, 0.000, 15:38:14.169
152, -274.59, 6.92, 18.57, 13.08, 0.000, 0.000, 0.000, 15:38:14.169
153, 402.09, 7.66, 14.16, 14.13, 0.000, 0.000, 0.000, 15:38:14.190
154, -140.82, 11.07, 4.78, 4.70, 0.000, 0.000, 0.000, 15:38:14.191
155, -563.28, 8.15, 11.12, 15.63, 0.000, 0.000, 0.000, 15:38:14.191
156, 223.71, 8.50, 12.55, 15.82, 0.000, 0.000, 0.000, 15:38:14.191
157, 372.31, 11.16, 4.79, 11.11, 0.000, 0.000, 0.000, 15:38:14.213
158, -430.09, 8.84, 10.32, 9.79, 0.000, 0.000, 0.000, 15:38:14.213
159, -158.73, 6.23, 18.02, 14.45, 0.000, 0.000, 0.000, 15:38:14.213
160, 371.34, 7.19, 11.26, 16.31, 0.000, 0.000, 0.000, 15:38:14.213
161, -295.20, 13.99, 5.36, 6.14, 0.000, 0.000, 0.000, 15:38:14.235
162, -75.58, 9.17, 16.23, 13.10, 0.000, 0.000, 0.000, 15:38:14.235
163, 389.02, -0.86, 10.82, 15.00, 0.000, 0.000, 0.000, 15:38:14.236
164, 50.50, 13.86, 3.76, 8.76, 0.000, 0.000, 0.000, 15:38:14.236
165, -455.63, 9.36, 13.22, 14.29, 0.000, 0.000, 0.000, 15:38:14.258
166, 95.96, 7.19, 15.69, 9.49, 0.000, 0.000, 0.000, 15:38:14.259
167, 152.33, 7.37, 10.02, 12.36, 0.000, 0.000, 0.000, 15:38:14.259
168, -340.05, 15.34, 10.18, 7.40, 0.000, 0.000, 0.000, 15:38:14.259
169, 23.97, 3.60, 15.15, 17.79, 0.000, 0.000, 0.000, 15:38:14.259
170, 352.54, 6.78, 14.01, 14.51, 0.000, 0.000, 0.000, 15:38:14.260
171, -372.05, 14.21, 2.93, 7.87, 0.000, 0.000, 0.000, 15:38:14.281
172, -311.24, 2.02, 11.34, 14.49, 0.000, 0.000, 0.000, 15:38:14.281
173, 262.76, 3.58, 12.48, 15.16, 0.000, 0.000, 0.000, 15:38:14.281
174, -9.99, 11.89, 5.85, 4.26, 0.000, 0.000, 0.000, 15:38:14.281
175, -273.42, 7.46, 13.44, 17.41, 0.000, 0.000, 0.000, 15:38:14.303
176, 172.46, 7.50, 14.66, 13.00, 0.000, 0.000, 0.000, 15:38:14.303
177, 340.58, 10.92, 5.05, 12.64, 0.000, 0.000, 0.000, 15:38:14.303
178, -468.76, 7.29, 10.56, 9.04, 0.000, 0.000, 0.000, 15:38:14.303
179, -10.87, 1.74, 13.91, 13.88, 0.000, 0.000, 0.000, 15:38:14.325
180, 323.84, 12.61, 11.14, 13.91, 0.000, 0.000, 0.000, 15:38:14.326
181, -423.10, 8.78, 1.00, 6.93, 0.000, 0.000, 0.000, 15:38:14.326
182, -131.18, 6.32, 14.42, 13.71, 0.000, 0.000, 0.000, 15:38:14.326
183, 447.20, 4.98, 12.01, 12.18, 0.000, 0.000, 0.000, 15:38:14.349
184, -72.85, 19.46, 6.24, 7.54, 0.000, 0.000, 0.000, 15:38:14.349
185, -510.27, 4.96, 11.05, 14.85, 0.000, 0.000, 0.000, 15:38:14.349
186, 398.02, 2.43, 15.25, 19.98, 0.000, 0.000, 0.000, 15:38:14.350
187, 204.10, 10.20, 7.74, 8.99, 0.000, 0.000, 0.000, 15:38:14.350
188, -616.19, 9.35, 10.77, 9.13, 0.000, 0.000, 0.000, 15:38:14.350
189, 4.47, 3.00, 16.19, 16.62, 0.000, 0.000, 0.000, 15:38:14.370
190, 376.06, 7.79, 12.03, 11.07, 0.000, 0.000, 0.000, 15:38:14.370
191, -324.91, 15.73, 4.44, 7.64, 0.000, 0.000, 0.000, 15:38:14.370
192, -186.38, 1.85, 14.25, 13.37, 0.000, 0.000, 0.000, 15:38:14.371
193, 297.60, 6.69, 13.64, 13.66, 0.000, 0.000, 0.000, 15:38:14.393
194, -194.25, 13.08, 3.48, 3.86, 0.000, 0.000, 0.000, 15:38:14.393
195, -472.57, 7.79, 15.63, 15.23, 0.000, 0.000, 0.000, 15:38:14.393
196, 490.82, 6.27, 14.98, 13.93, 0.000, 0.000, 0.000, 15:38:14.394
197, 305.94, 9.62, 11.22, 10.75, 0.000, 0.000, 0.000, 15:38:14.415
198, -477.64, 16.69, 6.93, 8.93, 0.000, 0.000, 0.000, 15:38:14.415
199, 125.84, -2.86, 15.75, 14.65, 0.000, 0.000, 0.000, 15:38:14.416
200, 399.51, 8.92, 14.86, 12.91, 0.000, 0.000, 0.000, 15:38:14.416
0, -252.19, 12.69, 6.19, 5.92, 0.000, 0.000, 0.000, 15:38:14.416
1, -400.81, 7.42, 14.09, 15.29, 0.000, 0.000, 0.000, 15:38:14.438
2, 232.00, 5.77, 13.95, 13.83, 0.000, 0.000, 0.000, 15:38:14.438
3, -91.96, 10.77, 7.30, 11.27, 0.000, 0.000, 0.000, 15:38:14.438
4, -502.18, 6.79, 11.59, 11.71, 0.000, 0.000, 0.000, 15:38:14.438
5, 301.25, 6.33, 16.69, 12.23, 0.000, 0.000, 0.000, 15:38:14.460
6, 228.07, 18.53, 12.05, 11.52, 0.000, 0.000, 0.000, 15:38:14.461
7, -492.76, 6.64, 5.60, 8.53, 0.000, 0.000, 0.000, 15:38:14.461
8, 22.03, 3.40, 12.14, 11.06, 0.000, 0.000, 0.000, 15:38:14.461
9, 493.70, 7.10, 9.81, 16.35, 0.000, 0.000, 0.000, 15:38:14.493
10, -208.59, 14.08, 4.01, 7.60, 0.000, 0.000, 0.000, 15:38:14.493
11, -318.90, 6.34, 12.69, 12.87, 0.000, 0.000, 0.000, 15:38:14.494
12, 202.76, 6.61, 12.64, 14.11, 0.000, 0.000, 0.000, 15:38:14.494
13, 11.67, 13.24, 7.50, 7.49, 0.000, 0.000, 0.000, 15:38:14.494
14, -407.86, 6.43, 17.56, 15.05, 0.000, 0.000, 0.000, 15:38:14.494
15, -49.75, 7.72, 17.85, 20.28, 0.000, 0.000, 0.000, 15:38:14.506
16, 256.86, 9.59, 10.85, 16.48, 0.000, 0.000, 0.000, 15:38:14.506
17, -371.78, 12.67, 12.79, 9.67, 0.000, 0.000, 0.000, 15:38:14.507
18, 20.46, 5.21, 14.67, 13.86, 0.000, 0.000, 0.000, 15:38:14.507
19, 439.48, 8.79, 9.18, 14.19, 0.000, 0.000, 0.000, 15:38:14.530
20, -283.58, 12.13, 5.78, 8.64, 0.000, 0.000, 0.000, 15:38:14.531
21, -239.46, 4.82, 14.86, 12.50, 0.000, 0.000, 0.000, 15:38:14.531
22, 274.86, 4.80, 10.35, 13.71, 0.000, 0.000, 0.000, 15:38:14.531
23, -61.28, 9.91, 7.01, 5.23, 0.000, 0.000, 0.000, 15:38:14.550
24, -393.23, 13.98, 13.78, 13.90, 0.000, 0.000, 0.000, 15:38:14.551
25, 240.40, 0.09, 11.51, 13.15, 0.000, 0.000, 0.000, 15:38:14.551
26, 109.62, 11.93, 6.20, 10.09, 0.000, 0.000, 0.000, 15:38:14.551
27, -500.01, 8.21, 5.69, 10.37, 0.000, 0.000, 0.000, 15:38:14.573
28, 61.51, 3.28, 14.96, 15.37, 0.000, 0.000, 0.000, 15:38:14.573
29, 220.45, 8.31, 12.08, 16.28, 0.000, 0.000, 0.000, 15:38:14.573
30, -208.36, 17.20, 6.75, 8.78, 0.000, 0.000, 0.000, 15:38:14.573
31, -161.03, 5.70, 14.50, 12.60, 0.000, 0.000, 0.000, 15:38:14.574
32, 360.92, 8.46, 15.44, 15.64, 0.000, 0.000, 0.000, 15:38:14.574
33, -45.95, 16.26, 5.40, 5.58, 0.000, 0.000, 0.000, 15:38:14.595
34, -554.55, 5.07, 13.12, 9.92, 0.000, 0.000, 0.000, 15:38:14.595
35, 264.42, 5.82, 15.19, 13.35, 0.000, 0.000, 0.000, 15:38:14.596
36, 263.02, 9.69, 7.58, 7.34, 0.000, 0.000, 0.000, 15:38:14.596
37, -621.64, 8.86, 8.36, 8.38, 0.000, 0.000, 0.000, 15:38:14.618
38, 121.35, 3.26, 14.71, 14.09, 0.000, 0.000, 0.000, 15:38:14.618
39, 425.08, 9.48, 15.52, 8.64, 0.000, 0.000, 0.000, 15:38:14.619
40, -345.51, 13.93, 2.65, 7.81, 0.000, 0.000, 0.000, 15:38:14.619
41, -380.12, 3.86, 13.42, 12.82, 0.000, 0.000, 0.000, 15:38:14.640
42, 487.65, 10.42, 12.73, 14.64, 0.000, 0.000, 0.000, 15:38:14.640
43, -1.16, 7.69, -0.55, 4.10, 0.000, 0.000, 0.000, 15:38:14.641
44, -425.58, 7.54, 12.88, 13.82, 0.000, 0.000, 0.000, 15:38:14.641
45, 296.48, 3.89, 14.14, 15.54, 0.000, 0.000, 0.000, 15:38:14.662
46, 183.17, 7.87, 5.35, 9.69, 0.000, 0.000, 0.000, 15:38:14.663
47, -513.77, 10.47, 9.25, 11.86, 0.000, 0.000, 0.000, 15:38:14.663
48, -16.49, 6.86, 14.07, 16.93, 0.000, 0.000, 0.000, 15:38:14.663
49, 417.26, 7.22, 12.93, 11.69, 0.000, 0.000, 0.000, 15:38:14.664
50, -354.49, 15.33, 7.47, 13.10, 0.000, 0.000, 0.000, 15:38:14.664
51, -398.50, 7.95, 16.91, 9.27, 0.000, 0.000, 0.000, 15:38:14.685
52, 389.31, 3.70, 14.08, 13.70, 0.000, 0.000, 0.000, 15:38:14.685
53, 52.93, 12.00, 3.44, 10.43, 0.000, 0.000, 0.000, 15:38:14.708
54, -463.18, 8.60, 11.29, 14.07, 0.000, 0.000, 0.000, 15:38:14.708
55, 266.17, 6.11, 12.05, 14.71, 0.000, 0.000, 0.000, 15:38:14.708
56, 132.21, 10.76, 9.31, 12.45, 0.000, 0.000, 0.000, 15:38:14.708
57, -483.57, 11.10, 10.82, 8.94, 0.000, 0.000, 0.000, 15:38:14.709
58, 28.36, 7.81, 14.61, 14.17, 0.000, 0.000, 0.000, 15:38:14.709
59, 345.46, 1.07, 9.01, 11.93, 0.000, 0.000, 0.000, 15:38:14.730
60, -284.91, 13.39, 3.30, 4.02, 0.000, 0.000, 0.000, 15:38:14.730
61, -149.68, 2.38, 14.25, 15.68, 0.000, 0.000, 0.000, 15:38:14.731
62, 437.84, 2.03, 14.10, 17.44, 0.000, 0.000, 0.000, 15:38:14.731
63, -223.24, 13.15, 5.77, 9.06, 0.000, 0.000, 0.000, 15:38:14.752
64, -528.88, 9.82, 14.93, 14.63, 0.000, 0.000, 0.000, 15:38:14.753
65, 378.20, 4.49, 17.88, 12.62, 0.000, 0.000, 0.000, 15:38:14.753
66, 278.68, 12.49, 8.64, 5.48, 0.000, 0.000, 0.000, 15:38:14.753
67, -514.63, 11.16, 3.08, 7.25, 0.000, 0.000, 0.000, 15:38:14.754
68, 3.22, 4.78, 17.37, 16.64, 0.000, 0.000, 0.000, 15:38:14.754
69, 290.20, 9.63, 7.72, 10.48, 0.000, 0.000, 0.000, 15:38:14.775
70, -459.47, 9.74, 6.15, 4.73, 0.000, 0.000, 0.000, 15:38:14.775
71, -154.11, 6.43, 14.78, 18.83, 0.000, 0.000, 0.000, 15:38:14.776
72, 493.67, 3.09, 17.18, 20.48, 0.000, 0.000, 0.000, 15:38:14.776
73, 11.87, 13.00, 4.72, 4.77, 0.000, 0.000, 0.000, 15:38:14.798
74, -455.69, 2.08, 13.83, 10.31, 0.000, 0.000, 0.000, 15:38:14.798
75, 277.09, 5.93, 17.11, 15.83, 0.000, 0.000, 0.000, 15:38:14.798
76, 160.79, 11.30, 8.94, 11.35, 0.000, 0.000, 0.000, 15:38:14.798
77, -519.99, 12.31, 6.96, 8.91, 0.000, 0.000, 0.000, 15:38:14.820
78, 76.25, 8.93, 15.08, 12.41, 0.000, 0.000, 0.000, 15:38:14.820
79, 288.02, 3.58, 9.39, 13.81, 0.000, 0.000, 0.000, 15:38:14.821
80, -343.79, 13.98, 3.47, 5.13, 0.000, 0.000, 0.000, 15:38:14.821
81, -266.65, 5.90, 16.32, 15.03, 0.000, 0.000, 0.000, 15:38:14.843
82, 372.02, 3.98, 17.72, 15.38, 0.000, 0.000, 0.000, 15:38:14.843
83, -113.27, 14.91, 8.19, 7.72, 0.000, 0.000, 0.000, 15:38:14.843
84, -391.21, 12.17, 10.88, 12.46, 0.000, 0.000, 0.000, 15:38:14.844
85, 160.52, 5.79, 15.12, 15.32, 0.000, 0.000, 0.000, 15:38:14.844
86, 194.38, 12.63, 10.36, 8.62, 0.000, 0.000, 0.000, 15:38:14.844
87, -507.39, 11.60, 3.84, 7.09, 0.000, 0.000, 0.000, 15:38:14.865
88, 113.68, 2.43, 15.25, 14.32, 0.000, 0.000, 0.000, 15:38:14.865
89, 430.08, 5.84, 14.66, 14.17, 0.000, 0.000, 0.000, 15:38:14.865
90, -321.72, 15.30, 3.56, 10.28, 0.000, 0.000, 0.000, 15:38:14.866
91, -138.14, 6.01, 14.14, 16.85, 0.000, 0.000, 0.000, 15:38:14.888
92, 444.97, 2.49, 13.35, 15.35, 0.000, 0.000, 0.000, 15:38:14.888
93, -75.13, 13.61, 3.81, 6.05, 0.000, 0.000, 0.000, 15:38:14.888
94, -590.56, 4.55, 14.84, 14.41, 0.000, 0.000, 0.000, 15:38:14.888
95, 239.03, 3.35, 14.27, 14.77, 0.000, 0.000, 0.000, 15:38:14.910
96, 352.50, 12.38, 7.51, 10.82, 0.000, 0.000, 0.000, 15:38:14.910
97, -482.37, 3.92, 11.86, 7.88, 0.000, 0.000, 0.000, 15:38:14.911
98, -104.24, 5.99, 15.71, 15.92, 0.000, 0.000, 0.000, 15:38:14.911
99, 309.21, 5.65, 10.67, 10.80, 0.000, 0.000, 0.000, 15:38:14.939
100, -282.52, 13.00, 6.67, 7.80, 0.000, 0.000, 0.000, 15:38:14.939
101, -398.28, 1.20, 14.83, 17.50, 0.000, 0.000, 0.000, 15:38:14.939
102, 438.92, 5.07, 16.61, 12.29, 0.000, 0.000, 0.000, 15:38:14.939
103, -16.38, 14.55, 4.67, 6.92, 0.000, 0.000, 0.000, 15:38:14.939
104, -460.33, 9.60, 14.45, 10.79, 0.000, 0.000, 0.000, 15:38:14.939
105, 216.13, 8.90, 12.48, 14.82, 0.000, 0.000, 0.000, 15:38:14.955
106, 232.47, 7.19, 5.19, 12.07, 0.000, 0.000, 0.000, 15:38:14.955
107, -422.30, 10.85, 12.25, 7.62, 0.000, 0.000, 0.000, 15:38:14.956
108, 141.03, 2.34, 14.41, 12.68, 0.000, 0.000, 0.000, 15:38:14.956
109, 379.98, 9.02, 11.50, 12.22, 0.000, 0.000, 0.000, 15:38:14.978
110, -403.05, 11.17, 4.69, 9.17, 0.000, 0.000, 0.000, 15:38:14.978
111, -342.14, 5.60, 13.57, 16.18, 0.000, 0.000, 0.000, 15:38:14.978
112, 570.32, 5.85, 13.11, 13.88, 0.000, 0.000, 0.000, 15:38:14.978
113, -17.96, 14.46, 7.20, 12.78, 0.000, 0.000, 0.000, 15:38:15.000
114, -485.03, 12.72, 8.81, 14.31, 0.000, 0.000, 0.000, 15:38:15.000
115, 82.69, 0.56, 9.53, 16.18, 0.000, 0.000, 0.000, 15:38:15.001
116, 132.30, 12.97, 6.99, 10.08, 0.000, 0.000, 0.000, 15:38:15.001
117, -504.10, 10.54, 7.20, 7.92, 0.000, 0.000, 0.000, 15:38:15.022
118, 273.07, 2.48, 17.87, 17.56, 0.000, 0.000, 0.000, 15:38:15.023
119, 430.74, 9.30, 12.83, 12.66, 0.000, 0.000, 0.000, 15:38:15.023
120, -427.21, 15.64, 5.04, 6.74, 0.000, 0.000, 0.000, 15:38:15.023
121, -209.55, 8.62, 13.97, 12.94, 0.000, 0.000, 0.000, 15:38:15.024
122, 390.58, 6.93, 15.00, 12.99, 0.000, 0.000, 0.000, 15:38:15.024
123, -46.27, 14.37, 6.74, 5.45, 0.000, 0.000, 0.000, 15:38:15.045
124, -450.77, 7.44, 15.38, 14.73, 0.000, 0.000, 0.000, 15:38:15.045
125, 101.56, 9.72, 12.46, 14.49, 0.000, 0.000, 0.000, 15:38:15.046
126, 337.21, 8.85, 7.76, 8.89, 0.000, 0.000, 0.000, 15:38:15.046
127, -528.24, 10.83, 9.36, 6.45, 0.000, 0.000, 0.000, 15:38:15.068
128, -22.79, 0.17, 13.29, 15.31, 0.000, 0.000, 0.000, 15:38:15.068
129, 397.58, 5.25, 11.01, 12.24, 0.000, 0.000, 0.000, 15:38:15.068
130, -296.62, 15.66, 5.17, 7.96, 0.000, 0.000, 0.000, 15:38:15.068
131, -320.18, 6.73, 15.72, 16.22, 0.000, 0.000, 0.000, 15:38:15.090
132, 264.34, 9.55, 11.86, 16.61, 0.000, 0.000, 0.000, 15:38:15.090
133, -78.67, 11.70, 4.99, 4.31, 0.000, 0.000, 0.000, 15:38:15.091
134, -487.77, 8.30, 13.82, 13.04, 0.000, 0.000, 0.000, 15:38:15.091
135, 390.11, 4.51, 15.75, 15.49, 0.000, 0.000, 0.000, 15:38:15.112
136, 442.45, 12.98, 12.10, 11.00, 0.000, 0.000, 0.000, 15:38:15.113
137, -483.51, 9.69, 8.05, 7.82, 0.000, 0.000, 0.000, 15:38:15.113
138, -50.89, 4.08, 14.35, 15.16, 0.000, 0.000, 0.000, 15:38:15.113
139, 366.23, 6.72, 12.27, 13.80, 0.000, 0.000, 0.000, 15:38:15.114
140, -396.28, 13.52, 6.03, 8.66, 0.000, 0.000, 0.000, 15:38:15.114
141, -254.81, 7.98, 16.18, 14.57, 0.000, 0.000, 0.000, 15:38:15.135
142, 329.10, 5.83, 14.03, 12.67, 0.000, 0.000, 0.000, 15:38:15.135
143, -28.94, 14.36, 4.67, 10.90, 0.000, 0.000, 0.000, 15:38:15.136
144, -443.12, 2.13, 15.20, 10.78, 0.000, 0.000, 0.000, 15:38:15.136
145, 165.45, 5.20, 13.68, 16.23, 0.000, 0.000, 0.000, 15:38:15.158
146, 282.39, 8.75, 7.91, 10.54, 0.000, 0.000, 0.000, 15:38:15.158
147, -454.33, 11.65, 7.18, 11.10, 0.000, 0.000, 0.000, 15:38:15.158
148, -1.66, 3.47, 17.36, 17.23, 0.000, 0.000, 0.000, 15:38:15.158
149, 574.08, 10.03, 15.72, 14.62, 0.000, 0.000, 0.000, 15:38:15.180
150, -349.68, 20.23, 5.66, 5.24, 0.000, 0.000, 0.000, 15:38:15.180
151, -304.77, -3.70, 13.53, 15.48, 0.000, 0.000, 0.000, 15:38:15.181
152, 164.32, 4.64, 11.75, 15.21, 0.000, 0.000, 0.000, 15:38:15.182
153, -21.27, 11.54, 7.22, 11.01, 0.000, 0.000, 0.000, 15:38:15.202
154, -473.53, 8.34, 13.16, 10.70, 0.000, 0.000, 0.000, 15:38:15.203
155, 478.32, 1.47, 9.79, 11.44, 0.000, 0.000, 0.000, 15:38:15.203
156, 211.91, 8.99, 7.47, 8.76, 0.000, 0.000, 0.000, 15:38:15.203
157, -567.52, 5.92, 12.08, 10.12, 0.000, 0.000, 0.000, 15:38:15.204
158, -40.73, 5.74, 16.18, 18.53, 0.000, 0.000, 0.000, 15:38:15.204
159, 261.32, 12.88, 12.27, 13.62, 0.000, 0.000, 0.000, 15:38:15.225
160, -366.84, 11.93, 3.00, 9.20, 0.000, 0.000, 0.000, 15:38:15.225
161, -110.45, 3.00, 17.07, 13.03, 0.000, 0.000, 0.000, 15:38:15.225
162, 469.82, 5.90, 12.31, 15.44, 0.000, 0.000, 0.000, 15:38:15.226
163, -74.47, 12.91, 1.07, 8.79, 0.000, 0.000, 0.000, 15:38:15.248
164, -625.30, 3.71, 8.17, 14.33, 0.000, 0.000, 0.000, 15:38:15.248
165, 231.11, 5.20, 15.64, 15.40, 0.000, 0.000, 0.000, 15:38:15.249
166, 213.16, 9.86, 4.11, 6.55, 0.000, 0.000, 0.000, 15:38:15.250
167, -509.22, 13.21, 7.75, 10.62, 0.000, 0.000, 0.000, 15:38:15.270
168, 188.97, 7.03, 14.88, 13.78, 0.000, 0.000, 0.000, 15:38:15.270
169, 438.35, 7.21, 10.37, 14.59, 0.000, 0.000, 0.000, 15:38:15.271
170, -280.05, 13.29, 3.26, 3.68, 0.000, 0.000, 0.000, 15:38:15.271
171, -258.19, 3.06, 14.56, 15.04, 0.000, 0.000, 0.000, 15:38:15.292
172, 355.74, 7.86, 13.80, 14.54, 0.000, 0.000, 0.000, 15:38:15.293
173, -22.24, 11.94, 9.14, 5.62, 0.000, 0.000, 0.000, 15:38:15.293
174, -454.98, 7.04, 14.13, 14.06, 0.000, 0.000, 0.000, 15:38:15.293
175, 173.33, 6.42, 16.09, 14.67, 0.000, 0.000, 0.000, 15:38:15.294
176, 178.31, 11.93, 11.17, 8.60, 0.000, 0.000, 0.000, 15:38:15.294
177, -388.89, 13.60, 8.43, 9.80, 0.000, 0.000, 0.000, 15:38:15.315
178, -6.84, 3.87, 13.89, 18.94, 0.000, 0.000, 0.000, 15:38:15.316
179, 373.10, 10.48, 15.01, 9.32, 0.000, 0.000, 0.000, 15:38:15.316
180, -397.15, 14.66, 3.83, 9.54, 0.000, 0.000, 0.000, 15:38:15.317
181, -344.08, 5.30, 10.75, 11.70, 0.000, 0.000, 0.000, 15:38:15.338
182, 491.51, 6.34, 11.51, 15.21, 0.000, 0.000, 0.000, 15:38:15.338
183, -154.92, 13.10, 5.21, 7.48, 0.000, 0.000, 0.000, 15:38:15.338
184, -213.51, 7.26, 15.51, 14.74, 0.000, 0.000, 0.000, 15:38:15.339
185, 320.29, 8.63, 13.42, 14.57, 0.000, 0.000, 0.000, 15:38:15.360
186, 157.11, 13.54, 9.23, 10.74, 0.000, 0.000, 0.000, 15:38:15.360
187, -601.06, 7.63, 7.97, 9.23, 0.000, 0.000, 0.000, 15:38:15.361
188, 80.76, 1.19, 16.11, 12.43, 0.000, 0.000, 0.000, 15:38:15.361
189, 380.50, 7.00, 10.99, 12.77, 0.000, 0.000, 0.000, 15:38:15.384
190, -273.50, 15.25, 2.10, 4.39, 0.000, 0.000, 0.000, 15:38:15.384
191, -427.54, 1.75, 15.72, 10.54, 0.000, 0.000, 0.000, 15:38:15.384
192, 229.79, 4.70, 12.13, 13.00, 0.000, 0.000, 0.000, 15:38:15.384
193, 58.35, 11.11, 7.96, 10.04, 0.000, 0.000, 0.000, 15:38:15.384
