%OpenBCI Raw EEG Data
%
%Sample Rate = 200.0 Hz
%First Column = SampleIndex
%Last Column = Timestamp 
%Other Columns = EEG data in microvolts followed by Accel Data (in G) interleaved with Aux Data
0, 6.23, 5.68, 9.95, 11.43, 0.000, 0.000, 0.000, 16:13:35.643
1, 8.33, 9.88, 12.38, 14.77, 0.000, 0.000, 0.000, 16:13:35.646
2, 3.45, 8.27, 9.09, 13.55, 0.000, 0.000, 0.000, 16:13:35.647
3, 8.97, 10.77, 7.27, 10.96, 0.000, 0.000, 0.000, 16:13:35.648
4, 0.62, 7.16, 10.94, 13.88, 0.000, 0.000, 0.000, 16:13:35.648
5, 3.09, 7.48, 14.23, 14.87, 0.000, 0.000, 0.000, 16:13:35.664
6, 2.81, 10.10, 8.97, 10.84, 0.000, 0.000, 0.000, 16:13:35.665
7, 8.17, 10.18, 14.20, 12.81, 0.000, 0.000, 0.000, 16:13:35.665
8, 4.70, 8.99, 12.41, 13.86, 0.000, 0.000, 0.000, 16:13:35.666
9, 2.55, 8.40, 13.83, 8.09, 0.000, 0.000, 0.000, 16:13:35.666
10, 7.97, 7.72, 11.10, 13.70, 0.000, 0.000, 0.000, 16:13:35.667
11, 9.28, 8.44, 14.76, 11.55, 0.000, 0.000, 0.000, 16:13:35.686
12, 10.18, 12.34, 11.47, 14.52, 0.000, 0.000, 0.000, 16:13:35.687
13, 2.65, 6.18, 7.30, 11.19, 0.000, 0.000, 0.000, 16:13:35.687
14, 7.12, 10.44, 13.65, 11.43, 0.000, 0.000, 0.000, 16:13:35.688
15, 2.06, 7.22, 15.76, 12.55, 0.000, 0.000, 0.000, 16:13:35.714
16, 4.45, 8.22, 8.40, 10.09, 0.000, 0.000, 0.000, 16:13:35.714
17, 10.75, 8.72, 10.25, 12.44, 0.000, 0.000, 0.000, 16:13:35.717
18, 9.02, 9.32, 11.36, 13.21, 0.000, 0.000, 0.000, 16:13:35.717
19, 2.55, 6.53, 6.67, 11.02, 0.000, 0.000, 0.000, 16:13:35.720
20, 3.70, 9.36, 3.99, 12.50, 0.000, 0.000, 0.000, 16:13:35.720
21, 15.56, 12.56, 11.63, 12.32, 0.000, 0.000, 0.000, 16:13:35.731
22, 3.30, 2.90, 11.22, 10.06, 0.000, 0.000, 0.000, 16:13:35.732
23, 5.10, 3.76, 9.16, 9.87, 0.000, 0.000, 0.000, 16:13:35.732
24, 6.69, 6.89, 12.25, 9.00, 0.000, 0.000, 0.000, 16:13:35.733
25, 6.81, 5.20, 16.07, 13.15, 0.000, 0.000, 0.000, 16:13:35.754
26, 4.34, 3.60, 8.10, 8.99, 0.000, 0.000, 0.000, 16:13:35.755
27, 4.87, 12.60, 12.03, 12.63, 0.000, 0.000, 0.000, 16:13:35.755
28, 8.38, 7.77, 13.40, 13.73, 0.000, 0.000, 0.000, 16:13:35.755
29, -0.47, 6.79, 9.82, 11.88, 0.000, 0.000, 0.000, 16:13:35.777
30, 13.30, 9.78, 10.78, 13.33, 0.000, 0.000, 0.000, 16:13:35.778
31, 6.14, 6.49, 14.75, 15.23, 0.000, 0.000, 0.000, 16:13:35.778
32, 4.92, 5.03, 10.88, 13.71, 0.000, 0.000, 0.000, 16:13:35.778
33, 3.61, 10.06, 10.61, 11.73, 0.000, 0.000, 0.000, 16:13:35.801
34, 8.43, 13.79, 14.01, 11.06, 0.000, 0.000, 0.000, 16:13:35.802
35, 5.02, 5.86, 9.76, 17.39, 0.000, 0.000, 0.000, 16:13:35.808
36, 6.82, 8.22, 10.48, 9.42, 0.000, 0.000, 0.000, 16:13:35.809
37, 8.39, 9.57, 12.23, 10.66, 0.000, 0.000, 0.000, 16:13:35.809
38, 7.30, 10.62, 9.01, 10.02, 0.000, 0.000, 0.000, 16:13:35.809
39, 9.94, 11.57, 9.96, 10.85, 0.000, 0.000, 0.000, 16:13:35.823
40, 3.39, 7.79, 12.93, 12.72, 0.000, 0.000, 0.000, 16:13:35.823
41, 5.85, 8.00, 10.67, 12.17, 0.000, 0.000, 0.000, 16:13:35.825
42, 4.64, 6.27, 11.18, 9.92, 0.000, 0.000, 0.000, 16:13:35.825
43, 7.51, 5.20, 8.60, 6.99, 0.000, 0.000, 0.000, 16:13:35.844
44, 7.15, 10.64, 11.86, 13.30, 0.000, 0.000, 0.000, 16:13:35.844
45, 4.27, 12.06, 11.23, 15.02, 0.000, 0.000, 0.000, 16:13:35.845
46, 3.55, 10.57, 9.73, 12.78, 0.000, 0.000, 0.000, 16:13:35.845
47, 6.22, 12.14, 12.47, 16.58, 0.000, 0.000, 0.000, 16:13:35.868
48, 14.21, 13.87, 14.62, 13.94, 0.000, 0.000, 0.000, 16:13:35.868
49, 1.12, 6.76, 11.55, 15.52, 0.000, 0.000, 0.000, 16:13:35.869
50, 9.98, 8.50, 13.21, 10.57, 0.000, 0.000, 0.000, 16:13:35.869
51, 5.90, 9.79, 10.83, 9.09, 0.000, 0.000, 0.000, 16:13:35.891
52, 4.01, 5.58, 9.76, 10.09, 0.000, 0.000, 0.000, 16:13:35.891
53, 7.12, 6.98, 10.05, 11.59, 0.000, 0.000, 0.000, 16:13:35.891
54, 8.48, 14.51, 9.06, 9.91, 0.000, 0.000, 0.000, 16:13:35.892
55, 3.55, 1.74, 14.67, 14.18, 0.000, 0.000, 0.000, 16:13:35.892
56, 5.88, 7.37, 6.88, 10.83, 0.000, 0.000, 0.000, 16:13:35.892
57, 12.93, 13.39, 8.31, 15.30, 0.000, 0.000, 0.000, 16:13:35.912
58, -0.06, 7.19, 13.36, 13.21, 0.000, 0.000, 0.000, 16:13:35.913
59, 5.39, 5.88, 10.90, 9.13, 0.000, 0.000, 0.000, 16:13:35.913
60, 10.21, 6.53, 13.65, 10.68, 0.000, 0.000, 0.000, 16:13:35.914
61, 7.30, 11.33, 12.44, 12.90, 0.000, 0.000, 0.000, 16:13:35.934
62, 3.31, 1.11, 16.00, 11.81, 0.000, 0.000, 0.000, 16:13:35.934
63, 11.36, 8.76, 9.80, 7.38, 0.000, 0.000, 0.000, 16:13:35.935
64, 9.23, 8.55, 8.90, 11.08, 0.000, 0.000, 0.000, 16:13:35.935
65, 0.79, 6.11, 13.55, 14.17, 0.000, 0.000, 0.000, 16:13:35.957
66, 8.19, 9.81, 11.26, 10.77, 0.000, 0.000, 0.000, 16:13:35.958
67, 3.01, 3.98, 11.84, 13.77, 0.000, 0.000, 0.000, 16:13:35.958
68, 7.38, 7.54, 14.85, 17.19, 0.000, 0.000, 0.000, 16:13:35.958
69, 6.47, 11.31, 8.55, 9.68, 0.000, 0.000, 0.000, 16:13:35.979
70, 8.54, 12.26, 11.33, 10.69, 0.000, 0.000, 0.000, 16:13:35.980
71, 8.35, 5.11, 14.42, 13.47, 0.000, 0.000, 0.000, 16:13:35.980
72, 7.01, 5.51, 13.15, 14.00, 0.000, 0.000, 0.000, 16:13:35.981
73, 1.59, 9.41, 8.79, 9.98, 0.000, 0.000, 0.000, 16:13:35.981
74, 7.43, 13.28, 13.54, 13.53, 0.000, 0.000, 0.000, 16:13:35.981
75, 8.83, 9.45, 13.22, 12.69, 0.000, 0.000, 0.000, 16:13:36.001
76, 2.08, 3.31, 10.93, 9.25, 0.000, 0.000, 0.000, 16:13:36.001
77, 7.16, 9.08, 11.06, 12.52, 0.000, 0.000, 0.000, 16:13:36.002
78, 5.32, 10.77, 14.58, 16.43, 0.000, 0.000, 0.000, 16:13:36.002
79, 2.60, 6.17, 12.98, 9.46, 0.000, 0.000, 0.000, 16:13:36.023
80, 6.76, 9.52, 10.91, 9.42, 0.000, 0.000, 0.000, 16:13:36.024
81, 12.84, 12.86, 12.15, 12.74, 0.000, 0.000, 0.000, 16:13:36.024
82, 4.61, 7.19, 9.52, 9.82, 0.000, 0.000, 0.000, 16:13:36.024
83, 9.03, 4.39, 11.87, 13.48, 0.000, 0.000, 0.000, 16:13:36.047
84, 11.27, 12.01, 7.76, 13.29, 0.000, 0.000, 0.000, 16:13:36.047
85, 0.50, 3.71, 11.26, 12.81, 0.000, 0.000, 0.000, 16:13:36.047
86, 8.49, 11.48, 5.71, 13.87, 0.000, 0.000, 0.000, 16:13:36.048
87, 10.83, 7.22, 10.05, 14.08, 0.000, 0.000, 0.000, 16:13:36.069
88, 6.68, 6.29, 13.00, 11.54, 0.000, 0.000, 0.000, 16:13:36.069
89, 5.41, 4.71, 11.49, 10.00, 0.000, 0.000, 0.000, 16:13:36.070
90, 8.76, 13.12, 4.02, 10.62, 0.000, 0.000, 0.000, 16:13:36.070
91, 8.12, 8.02, 10.74, 11.58, 0.000, 0.000, 0.000, 16:13:36.071
92, 7.22, 4.37, 13.18, 11.66, 0.000, 0.000, 0.000, 16:13:36.071
93, 4.07, 8.64, 9.30, 12.30, 0.000, 0.000, 0.000, 16:13:36.091
94, 3.86, 7.69, 11.09, 11.09, 0.000, 0.000, 0.000, 16:13:36.091
95, 3.98, 4.74, 12.42, 14.76, 0.000, 0.000, 0.000, 16:13:36.092
96, 3.53, 10.06, 11.87, 14.77, 0.000, 0.000, 0.000, 16:13:36.092
97, 4.46, 11.17, 13.42, 10.12, 0.000, 0.000, 0.000, 16:13:36.113
98, 3.77, 5.55, 15.14, 10.95, 0.000, 0.000, 0.000, 16:13:36.114
99, 7.07, 5.26, 14.30, 16.59, 0.000, 0.000, 0.000, 16:13:36.114
100, 8.62, 6.93, 9.87, 13.04, 0.000, 0.000, 0.000, 16:13:36.115
101, 9.96, 9.51, 10.83, 11.58, 0.000, 0.000, 0.000, 16:13:36.136
102, 9.55, 12.15, 10.24, 9.57, 0.000, 0.000, 0.000, 16:13:36.136
103, 2.50, 5.68, 7.65, 10.27, 0.000, 0.000, 0.000, 16:13:36.137
104, 7.94, 11.52, 12.87, 12.61, 0.000, 0.000, 0.000, 16:13:36.137
105, 5.42, 4.35, 10.64, 11.18, 0.000, 0.000, 0.000, 16:13:36.158
106, 9.50, 7.68, 11.69, 6.64, 0.000, 0.000, 0.000, 16:13:36.159
107, 6.54, 9.62, 10.34, 14.15, 0.000, 0.000, 0.000, 16:13:36.159
108, 4.66, 10.21, 8.90, 10.55, 0.000, 0.000, 0.000, 16:13:36.159
109, 7.52, 11.18, 9.84, 13.68, 0.000, 0.000, 0.000, 16:13:36.159
110, 3.35, 8.55, 10.51, 13.80, 0.000, 0.000, 0.000, 16:13:36.160
111, 5.44, 12.26, 14.09, 14.57, 0.000, 0.000, 0.000, 16:13:36.181
112, -1.37, 2.57, 10.18, 9.41, 0.000, 0.000, 0.000, 16:13:36.181
113, 5.53, 9.79, 7.91, 10.27, 0.000, 0.000, 0.000, 16:13:36.182
114, 8.70, 4.86, 8.16, 15.38, 0.000, 0.000, 0.000, 16:13:36.182
115, 7.15, 4.43, 11.69, 11.87, 0.000, 0.000, 0.000, 16:13:36.203
116, 3.98, 5.66, 7.27, 8.50, 0.000, 0.000, 0.000, 16:13:36.204
117, 12.82, 11.97, 6.62, 9.51, 0.000, 0.000, 0.000, 16:13:36.204
118, 2.85, 8.54, 12.95, 11.92, 0.000, 0.000, 0.000, 16:13:36.204
119, 5.90, 1.92, 9.56, 14.92, 0.000, 0.000, 0.000, 16:13:36.226
120, 11.11, 12.56, 10.95, 9.61, 0.000, 0.000, 0.000, 16:13:36.226
121, 5.91, 8.00, 11.78, 12.32, 0.000, 0.000, 0.000, 16:13:36.227
122, 6.84, 9.36, 13.90, 13.61, 0.000, 0.000, 0.000, 16:13:36.227
123, 9.66, 7.99, 12.95, 9.25, 0.000, 0.000, 0.000, 16:13:36.248
124, 8.47, 9.72, 12.41, 12.67, 0.000, 0.000, 0.000, 16:13:36.249
125, 0.07, 4.40, 9.61, 16.43, 0.000, 0.000, 0.000, 16:13:36.249
126, 8.94, 8.67, 8.98, 11.40, 0.000, 0.000, 0.000, 16:13:36.251
127, 4.47, 12.22, 10.15, 16.18, 0.000, 0.000, 0.000, 16:13:36.254
128, 1.78, 6.03, 12.63, 14.01, 0.000, 0.000, 0.000, 16:13:36.255
129, 9.67, 14.57, 11.94, 9.98, 0.000, 0.000, 0.000, 16:13:36.271
130, 3.38, 5.86, 13.73, 11.99, 0.000, 0.000, 0.000, 16:13:36.271
131, 6.27, 10.91, 9.61, 14.94, 0.000, 0.000, 0.000, 16:13:36.272
132, 1.19, 4.70, 13.73, 12.36, 0.000, 0.000, 0.000, 16:13:36.272
133, 8.15, 8.05, 10.13, 12.04, 0.000, 0.000, 0.000, 16:13:36.294
134, 5.61, 12.15, 14.91, 10.72, 0.000, 0.000, 0.000, 16:13:36.295
135, 7.34, 8.98, 13.43, 15.96, 0.000, 0.000, 0.000, 16:13:36.295
136, 6.99, 10.06, 12.08, 7.87, 0.000, 0.000, 0.000, 16:13:36.295
137, 11.50, 10.75, 6.67, 8.36, 0.000, 0.000, 0.000, 16:13:36.316
138, 11.89, 11.66, 9.87, 11.98, 0.000, 0.000, 0.000, 16:13:36.317
139, 1.89, 3.03, 9.96, 12.37, 0.000, 0.000, 0.000, 16:13:36.317
140, 9.94, 13.20, 11.02, 10.16, 0.000, 0.000, 0.000, 16:13:36.317
141, 9.50, 8.03, 12.74, 13.40, 0.000, 0.000, 0.000, 16:13:36.338
142, 4.42, 7.84, 7.73, 12.14, 0.000, 0.000, 0.000, 16:13:36.339
143, 5.45, 5.93, 10.74, 10.46, 0.000, 0.000, 0.000, 16:13:36.339
144, 12.64, 15.70, 10.42, 13.37, 0.000, 0.000, 0.000, 16:13:36.339
145, 4.54, 10.04, 9.72, 9.32, 0.000, 0.000, 0.000, 16:13:36.339
146, 8.50, 5.25, 6.46, 10.59, 0.000, 0.000, 0.000, 16:13:36.340
147, 16.12, 10.94, 13.87, 11.51, 0.000, 0.000, 0.000, 16:13:36.361
148, 0.05, 7.01, 16.74, 13.63, 0.000, 0.000, 0.000, 16:13:36.361
149, 3.09, 7.00, 8.30, 9.89, 0.000, 0.000, 0.000, 16:13:36.362
150, 8.76, 9.50, 10.45, 14.86, 0.000, 0.000, 0.000, 16:13:36.362
151, 7.36, 7.96, 10.97, 11.78, 0.000, 0.000, 0.000, 16:13:36.383
152, 5.43, 2.49, 14.76, 13.65, 0.000, 0.000, 0.000, 16:13:36.384
153, 9.88, 10.15, 10.24, 11.36, 0.000, 0.000, 0.000, 16:13:36.384
154, 9.96, 10.54, 9.81, 8.46, 0.000, 0.000, 0.000, 16:13:36.384
155, 4.24, 5.44, 13.83, 12.09, 0.000, 0.000, 0.000, 16:13:36.406
156, 9.78, 13.01, 9.28, 6.70, 0.000, 0.000, 0.000, 16:13:36.406
157, 2.08, 2.63, 10.45, 12.97, 0.000, 0.000, 0.000, 16:13:36.406
158, 4.24, 9.92, 10.91, 14.43, 0.000, 0.000, 0.000, 16:13:36.407
159, 5.97, 4.62, 12.90, 13.37, 0.000, 0.000, 0.000, 16:13:36.429
160, 4.73, 7.10, 10.39, 13.06, 0.000, 0.000, 0.000, 16:13:36.429
161, 6.15, 11.83, 14.02, 12.59, 0.000, 0.000, 0.000, 16:13:36.429
162, 7.60, 8.60, 15.35, 8.88, 0.000, 0.000, 0.000, 16:13:36.430
163, 6.46, 8.39, 10.26, 10.83, 0.000, 0.000, 0.000, 16:13:36.430
164, 9.76, 13.34, 10.83, 12.92, 0.000, 0.000, 0.000, 16:13:36.430
165, 14.18, 11.57, 14.12, 17.41, 0.000, 0.000, 0.000, 16:13:36.451
166, 3.54, 8.44, 9.67, 11.65, 0.000, 0.000, 0.000, 16:13:36.452
167, 7.41, 7.32, 9.68, 13.63, 0.000, 0.000, 0.000, 16:13:36.452
168, 4.18, 7.44, 9.86, 11.88, 0.000, 0.000, 0.000, 16:13:36.452
169, 3.88, 8.03, 10.49, 9.15, 0.000, 0.000, 0.000, 16:13:36.473
170, 4.19, 5.97, 11.30, 5.84, 0.000, 0.000, 0.000, 16:13:36.474
171, 8.87, 10.48, 11.69, 11.68, 0.000, 0.000, 0.000, 16:13:36.474
172, 4.84, 6.85, 11.48, 17.17, 0.000, 0.000, 0.000, 16:13:36.475
173, 6.66, 8.37, 10.63, 12.37, 0.000, 0.000, 0.000, 16:13:36.496
174, 16.25, 11.23, 8.65, 13.33, 0.000, 0.000, 0.000, 16:13:36.497
175, 0.49, 1.54, 11.20, 14.25, 0.000, 0.000, 0.000, 16:13:36.497
176, 5.17, 6.41, 12.54, 12.95, 0.000, 0.000, 0.000, 16:13:36.498
177, 8.83, 8.53, 12.74, 12.01, 0.000, 0.000, 0.000, 16:13:36.520
178, 7.64, 10.50, 12.01, 17.24, 0.000, 0.000, 0.000, 16:13:36.520
179, 3.87, 4.82, 12.35, 10.80, 0.000, 0.000, 0.000, 16:13:36.521
180, 5.41, 9.03, 7.72, 12.09, 0.000, 0.000, 0.000, 16:13:36.521
181, 7.12, 11.20, 10.91, 13.57, 0.000, 0.000, 0.000, 16:13:36.521
182, -0.61, 6.51, 10.39, 13.66, 0.000, 0.000, 0.000, 16:13:36.522
183, 7.19, 13.07, 9.47, 11.08, 0.000, 0.000, 0.000, 16:13:36.541
184, 4.32, 6.24, 10.62, 8.99, 0.000, 0.000, 0.000, 16:13:36.542
185, 5.05, 6.35, 12.17, 13.07, 0.000, 0.000, 0.000, 16:13:36.542
186, 8.41, 8.33, 9.66, 10.90, 0.000, 0.000, 0.000, 16:13:36.542
187, 10.80, 10.30, 12.64, 12.78, 0.000, 0.000, 0.000, 16:13:36.564
188, 2.75, 10.73, 13.07, 14.81, 0.000, 0.000, 0.000, 16:13:36.564
189, 2.77, 9.10, 6.94, 11.15, 0.000, 0.000, 0.000, 16:13:36.564
190, 7.54, 10.15, 9.13, 13.72, 0.000, 0.000, 0.000, 16:13:36.565
191, 11.16, 8.49, 10.46, 14.65, 0.000, 0.000, 0.000, 16:13:36.586
192, 8.88, 12.26, 13.86, 13.55, 0.000, 0.000, 0.000, 16:13:36.587
193, 1.09, 1.75, 9.39, 11.19, 0.000, 0.000, 0.000, 16:13:36.587
194, 6.92, 13.04, 6.07, 6.72, 0.000, 0.000, 0.000, 16:13:36.587
195, 5.96, 8.39, 11.80, 14.63, 0.000, 0.000, 0.000, 16:13:36.609
196, 8.77, 7.84, 9.46, 9.34, 0.000, 0.000, 0.000, 16:13:36.609
197, 7.64, 8.06, 13.37, 14.29, 0.000, 0.000, 0.000, 16:13:36.610
198, 4.74, 9.38, 11.99, 17.61, 0.000, 0.000, 0.000, 16:13:36.610
199, 7.57, 6.95, 10.28, 7.98, 0.000, 0.000, 0.000, 16:13:36.611
200, 9.07, 6.49, 11.15, 12.73, 0.000, 0.000, 0.000, 16:13:36.611
0, 7.08, 10.24, 12.25, 12.23, 0.000, 0.000, 0.000, 16:13:36.632
1, 1.89, 6.31, 16.29, 12.12, 0.000, 0.000, 0.000, 16:13:36.632
2, 6.90, 8.75, 11.22, 8.45, 0.000, 0.000, 0.000, 16:13:36.632
3, 9.37, 11.35, 11.91, 15.60, 0.000, 0.000, 0.000, 16:13:36.654
4, 5.63, 3.40, 12.94, 10.82, 0.000, 0.000, 0.000, 16:13:36.655
5, 5.59, 9.90, 11.17, 10.87, 0.000, 0.000, 0.000, 16:13:36.655
6, 10.71, 10.21, 10.57, 9.11, 0.000, 0.000, 0.000, 16:13:36.656
7, 5.16, 7.38, 12.50, 15.13, 0.000, 0.000, 0.000, 16:13:36.656
8, 5.90, 6.34, 9.27, 14.61, 0.000, 0.000, 0.000, 16:13:36.656
9, 7.20, 10.20, 7.81, 7.50, 0.000, 0.000, 0.000, 16:13:36.681
10, 8.58, 7.39, 8.11, 11.43, 0.000, 0.000, 0.000, 16:13:36.682
11, 6.51, 7.26, 12.64, 15.53, 0.000, 0.000, 0.000, 16:13:36.682
12, 7.11, 8.44, 9.19, 10.38, 0.000, 0.000, 0.000, 16:13:36.682
13, 6.34, 5.40, 9.82, 9.83, 0.000, 0.000, 0.000, 16:13:36.699
14, 3.05, 4.14, 9.89, 13.60, 0.000, 0.000, 0.000, 16:13:36.699
15, 6.93, 7.31, 10.20, 11.89, 0.000, 0.000, 0.000, 16:13:36.699
16, 8.86, 9.59, 10.21, 13.29, 0.000, 0.000, 0.000, 16:13:36.700
17, 2.33, 7.94, 12.21, 13.96, 0.000, 0.000, 0.000, 16:13:36.721
18, 10.08, 12.32, 13.77, 10.52, 0.000, 0.000, 0.000, 16:13:36.721
19, 0.66, 10.25, 10.94, 10.09, 0.000, 0.000, 0.000, 16:13:36.722
20, 8.63, 9.59, 11.78, 11.33, 0.000, 0.000, 0.000, 16:13:36.722
21, 6.91, 3.94, 11.85, 15.67, 0.000, 0.000, 0.000, 16:13:36.745
22, 7.32, 7.91, 11.73, 11.12, 0.000, 0.000, 0.000, 16:13:36.745
23, 9.92, 8.87, 13.80, 11.80, 0.000, 0.000, 0.000, 16:13:36.745
24, 5.33, 7.71, 15.76, 11.21, 0.000, 0.000, 0.000, 16:13:36.745
25, 9.32, 6.67, 5.61, 9.59, 0.000, 0.000, 0.000, 16:13:36.746
26, 10.60, 8.98, 8.77, 12.26, 0.000, 0.000, 0.000, 16:13:36.746
27, 7.31, 14.15, 13.84, 13.51, 0.000, 0.000, 0.000, 16:13:36.766
28, 2.85, 2.12, 9.98, 10.46, 0.000, 0.000, 0.000, 16:13:36.767
29, 4.90, 12.09, 10.70, 11.86, 0.000, 0.000, 0.000, 16:13:36.767
30, 7.86, 9.71, 8.98, 14.49, 0.000, 0.000, 0.000, 16:13:36.767
31, 4.94, 6.59, 10.94, 12.67, 0.000, 0.000, 0.000, 16:13:36.789
32, 5.54, 6.00, 9.36, 14.65, 0.000, 0.000, 0.000, 16:13:36.789
33, 9.46, 12.64, 11.47, 10.54, 0.000, 0.000, 0.000, 16:13:36.792
34, 4.34, 6.73, 16.59, 13.21, 0.000, 0.000, 0.000, 16:13:36.793
35, 3.38, 9.25, 5.53, 10.97, 0.000, 0.000, 0.000, 16:13:36.812
36, 10.20, 11.52, 9.48, 11.27, 0.000, 0.000, 0.000, 16:13:36.812
37, 0.90, 3.17, 13.41, 12.36, 0.000, 0.000, 0.000, 16:13:36.813
38, 8.62, 8.07, 12.21, 10.00, 0.000, 0.000, 0.000, 16:13:36.813
39, 5.10, 11.04, 14.11, 10.72, 0.000, 0.000, 0.000, 16:13:36.836
40, 8.77, 11.84, 15.50, 11.79, 0.000, 0.000, 0.000, 16:13:36.836
41, 2.16, 3.98, 15.93, 12.34, 0.000, 0.000, 0.000, 16:13:36.837
42, 7.29, 10.48, 8.84, 6.71, 0.000, 0.000, 0.000, 16:13:36.837
43, 8.90, 9.64, 8.68, 12.46, 0.000, 0.000, 0.000, 16:13:36.837
44, 6.21, 6.89, 14.79, 13.85, 0.000, 0.000, 0.000, 16:13:36.837
45, 8.06, 14.25, 11.09, 15.14, 0.000, 0.000, 0.000, 16:13:36.857
46, 1.61, 7.52, 8.24, 11.65, 0.000, 0.000, 0.000, 16:13:36.857
47, 9.29, 6.35, 12.69, 9.67, 0.000, 0.000, 0.000, 16:13:36.858
48, 4.64, 4.78, 13.42, 11.49, 0.000, 0.000, 0.000, 16:13:36.858
49, 6.10, 6.89, 9.70, 12.90, 0.000, 0.000, 0.000, 16:13:36.879
50, 9.21, 6.52, 10.54, 13.30, 0.000, 0.000, 0.000, 16:13:36.879
51, 4.17, 4.87, 11.58, 15.52, 0.000, 0.000, 0.000, 16:13:36.880
52, 4.78, 6.62, 8.60, 10.04, 0.000, 0.000, 0.000, 16:13:36.880
53, 7.86, 11.24, 7.65, 9.85, 0.000, 0.000, 0.000, 16:13:36.901
54, 5.99, 11.35, 11.78, 13.65, 0.000, 0.000, 0.000, 16:13:36.901
55, -0.81, 1.07, 9.27, 8.30, 0.000, 0.000, 0.000, 16:13:36.902
56, 6.53, 13.65, 9.12, 14.01, 0.000, 0.000, 0.000, 16:13:36.902
57, 7.89, 5.42, 14.05, 14.46, 0.000, 0.000, 0.000, 16:13:36.923
58, 11.98, 4.64, 11.39, 9.10, 0.000, 0.000, 0.000, 16:13:36.924
59, 3.92, 12.56, 9.73, 10.76, 0.000, 0.000, 0.000, 16:13:36.926
60, 6.80, 12.62, 11.97, 14.08, 0.000, 0.000, 0.000, 16:13:36.926
61, 4.47, 5.74, 12.71, 12.29, 0.000, 0.000, 0.000, 16:13:36.927
62, 3.69, 9.26, 8.66, 10.06, 0.000, 0.000, 0.000, 16:13:36.927
63, 9.39, 12.52, 11.45, 11.68, 0.000, 0.000, 0.000, 16:13:36.946
64, 2.58, 7.39, 14.51, 13.53, 0.000, 0.000, 0.000, 16:13:36.946
65, 12.12, 6.73, 8.48, 8.87, 0.000, 0.000, 0.000, 16:13:36.947
66, 10.45, 10.91, 10.27, 9.19, 0.000, 0.000, 0.000, 16:13:36.948
67, 7.93, 9.69, 11.68, 11.32, 0.000, 0.000, 0.000, 16:13:36.968
68, 2.29, 5.62, 13.42, 10.19, 0.000, 0.000, 0.000, 16:13:36.969
69, 5.92, 8.27, 5.12, 12.64, 0.000, 0.000, 0.000, 16:13:36.969
70, 10.67, 11.14, 10.29, 10.98, 0.000, 0.000, 0.000, 16:13:36.970
71, 1.38, 7.00, 11.34, 14.07, 0.000, 0.000, 0.000, 16:13:36.991
72, 8.65, 9.93, 11.40, 12.88, 0.000, 0.000, 0.000, 16:13:36.992
73, 3.93, 7.69, 9.80, 13.53, 0.000, 0.000, 0.000, 16:13:36.992
74, 3.98, 4.59, 14.39, 14.27, 0.000, 0.000, 0.000, 16:13:36.993
75, 4.44, 8.87, 9.41, 10.89, 0.000, 0.000, 0.000, 16:13:37.013
76, 8.63, 11.67, 9.26, 11.95, 0.000, 0.000, 0.000, 16:13:37.014
77, 8.07, 4.39, 12.89, 12.69, 0.000, 0.000, 0.000, 16:13:37.014
78, 4.00, 11.64, 11.08, 8.79, 0.000, 0.000, 0.000, 16:13:37.015
79, 8.18, 11.15, 12.62, 10.32, 0.000, 0.000, 0.000, 16:13:37.015
80, 9.36, 11.97, 13.37, 9.59, 0.000, 0.000, 0.000, 16:13:37.015
81, 7.58, 10.49, 11.29, 11.08, 0.000, 0.000, 0.000, 16:13:37.036
82, 2.65, 5.56, 11.37, 13.21, 0.000, 0.000, 0.000, 16:13:37.036
83, 8.40, 4.07, 15.81, 13.14, 0.000, 0.000, 0.000, 16:13:37.037
84, 5.61, 6.38, 14.62, 17.49, 0.000, 0.000, 0.000, 16:13:37.037
85, 5.72, 10.38, 7.08, 12.78, 0.000, 0.000, 0.000, 16:13:37.058
86, 5.18, 8.97, 14.57, 9.88, 0.000, 0.000, 0.000, 16:13:37.059
87, 8.93, 6.85, 9.15, 11.64, 0.000, 0.000, 0.000, 16:13:37.059
88, 7.75, 9.19, 12.66, 12.24, 0.000, 0.000, 0.000, 16:13:37.059
89, 2.95, 10.23, 7.81, 9.87, 0.000, 0.000, 0.000, 16:13:37.081
90, 15.96, 12.35, 11.86, 11.81, 0.000, 0.000, 0.000, 16:13:37.081
91, -1.84, -2.02, 10.33, 12.63, 0.000, 0.000, 0.000, 16:13:37.081
92, 6.79, 9.70, 9.91, 10.87, 0.000, 0.000, 0.000, 16:13:37.082
93, 7.71, 8.16, 10.84, 12.26, 0.000, 0.000, 0.000, 16:13:37.103
94, 7.49, 13.91, 9.15, 11.92, 0.000, 0.000, 0.000, 16:13:37.104
95, 4.55, 4.39, 8.73, 13.95, 0.000, 0.000, 0.000, 16:13:37.104
96, 5.17, 12.29, 8.12, 15.97, 0.000, 0.000, 0.000, 16:13:37.105
97, 7.68, 10.24, 10.54, 13.20, 0.000, 0.000, 0.000, 16:13:37.105
98, 7.52, 6.02, 11.76, 11.20, 0.000, 0.000, 0.000, 16:13:37.105
99, 9.39, 5.76, 9.34, 9.05, 0.000, 0.000, 0.000, 16:13:37.126
100, 9.38, 5.50, 12.50, 13.52, 0.000, 0.000, 0.000, 16:13:37.127
101, 3.04, 3.54, 12.46, 13.90, 0.000, 0.000, 0.000, 16:13:37.127
102, 6.20, 11.62, 9.89, 8.64, 0.000, 0.000, 0.000, 16:13:37.127
103, 5.50, 10.68, 13.42, 11.74, 0.000, 0.000, 0.000, 16:13:37.148
104, 4.50, 1.39, 12.91, 14.70, 0.000, 0.000, 0.000, 16:13:37.149
105, 8.63, 7.55, 10.30, 12.57, 0.000, 0.000, 0.000, 16:13:37.149
106, 5.89, 7.88, 9.43, 9.68, 0.000, 0.000, 0.000, 16:13:37.149
107, 3.13, 9.45, 12.73, 10.83, 0.000, 0.000, 0.000, 16:13:37.171
108, 13.28, 10.59, 7.28, 9.31, 0.000, 0.000, 0.000, 16:13:37.172
109, 3.18, 5.74, 9.57, 15.09, 0.000, 0.000, 0.000, 16:13:37.172
110, 5.30, 12.66, 11.88, 16.03, 0.000, 0.000, 0.000, 16:13:37.172
111, 3.70, 7.65, 16.13, 13.18, 0.000, 0.000, 0.000, 16:13:37.195
112, 7.26, 10.18, 12.51, 10.36, 0.000, 0.000, 0.000, 16:13:37.195
113, 7.78, 10.38, 9.41, 11.73, 0.000, 0.000, 0.000, 16:13:37.196
114, 6.43, 7.41, 13.30, 13.56, 0.000, 0.000, 0.000, 16:13:37.196
115, 7.03, 7.46, 11.44, 11.25, 0.000, 0.000, 0.000, 16:13:37.197
116, 6.53, 11.85, 8.16, 14.76, 0.000, 0.000, 0.000, 16:13:37.197
117, 8.34, 13.80, 11.82, 12.19, 0.000, 0.000, 0.000, 16:13:37.216
118, 1.26, 3.85, 8.30, 11.33, 0.000, 0.000, 0.000, 16:13:37.216
119, 5.40, 11.64, 9.19, 11.35, 0.000, 0.000, 0.000, 16:13:37.217
120, 3.79, 7.27, 13.32, 11.50, 0.000, 0.000, 0.000, 16:13:37.217
121, 4.61, 4.16, 10.92, 9.76, 0.000, 0.000, 0.000, 16:13:37.238
122, 7.12, 10.00, 11.48, 7.42, 0.000, 0.000, 0.000, 16:13:37.239
123, 14.50, 8.67, 11.28, 12.14, 0.000, 0.000, 0.000, 16:13:37.239
124, 5.12, 2.59, 14.62, 12.46, 0.000, 0.000, 0.000, 16:13:37.239
125, 1.32, 7.06, 9.11, 13.37, 0.000, 0.000, 0.000, 16:13:37.261
126, 10.76, 13.55, 10.61, 10.71, 0.000, 0.000, 0.000, 16:13:37.261
127, 1.10, 6.34, 12.55, 13.69, 0.000, 0.000, 0.000, 16:13:37.261
128, 2.02, 8.61, 12.70, 12.20, 0.000, 0.000, 0.000, 16:13:37.262
129, 8.56, 4.06, 6.59, 12.36, 0.000, 0.000, 0.000, 16:13:37.283
130, 10.21, 2.62, 13.40, 12.20, 0.000, 0.000, 0.000, 16:13:37.284
131, 4.99, 8.01, 10.42, 15.24, 0.000, 0.000, 0.000, 16:13:37.284
132, 6.93, 9.79, 10.58, 8.10, 0.000, 0.000, 0.000, 16:13:37.284
133, 7.26, 8.19, 8.75, 12.31, 0.000, 0.000, 0.000, 16:13:37.285
134, 5.35, 8.32, 10.23, 16.80, 0.000, 0.000, 0.000, 16:13:37.285
135, 12.88, 13.51, 12.09, 8.18, 0.000, 0.000, 0.000, 16:13:37.306
136, 4.76, 9.57, 12.16, 6.66, 0.000, 0.000, 0.000, 16:13:37.306
137, 7.03, 9.36, 10.52, 11.75, 0.000, 0.000, 0.000, 16:13:37.306
138, 1.00, 7.88, 12.72, 13.58, 0.000, 0.000, 0.000, 16:13:37.307
139, 7.39, 11.10, 12.24, 11.24, 0.000, 0.000, 0.000, 16:13:37.328
140, 6.53, 7.01, 13.85, 12.56, 0.000, 0.000, 0.000, 16:13:37.329
141, 2.83, 9.78, 12.86, 12.30, 0.000, 0.000, 0.000, 16:13:37.329
142, 8.64, 11.96, 8.12, 12.39, 0.000, 0.000, 0.000, 16:13:37.329
143, 7.12, 10.06, 9.59, 12.44, 0.000, 0.000, 0.000, 16:13:37.351
144, 10.54, 15.24, 12.97, 14.79, 0.000, 0.000, 0.000, 16:13:37.351
145, 2.40, 1.06, 10.63, 10.93, 0.000, 0.000, 0.000, 16:13:37.351
146, 9.20, 10.77, 9.39, 13.12, 0.000, 0.000, 0.000, 16:13:37.352
147, 6.61, 10.57, 10.51, 16.38, 0.000, 0.000, 0.000, 16:13:37.373
148, 1.17, 7.34, 11.30, 10.69, 0.000, 0.000, 0.000, 16:13:37.374
149, 8.95, 9.15, 8.67, 10.59, 0.000, 0.000, 0.000, 16:13:37.374
150, 7.42, 7.98, 8.14, 12.03, 0.000, 0.000, 0.000, 16:13:37.375
151, 3.06, 1.70, 12.34, 12.82, 0.000, 0.000, 0.000, 16:13:37.375
152, 7.52, 7.68, 13.79, 9.31, 0.000, 0.000, 0.000, 16:13:37.375
153, 8.71, 11.12, 13.50, 8.48, 0.000, 0.000, 0.000, 16:13:37.396
154, -1.36, 2.20, 11.29, 11.74, 0.000, 0.000, 0.000, 16:13:37.396
155, 6.63, 5.72, 11.02, 12.47, 0.000, 0.000, 0.000, 16:13:37.397
156, 6.64, 8.42, 8.80, 14.83, 0.000, 0.000, 0.000, 16:13:37.397
157, 9.11, 8.05, 12.84, 13.92, 0.000, 0.000, 0.000, 16:13:37.421
158, 10.78, 4.86, 12.70, 8.69, 0.000, 0.000, 0.000, 16:13:37.421
159, 9.70, 9.35, 7.65, 6.13, 0.000, 0.000, 0.000, 16:13:37.422
160, 7.70, 10.72, 14.70, 13.51, 0.000, 0.000, 0.000, 16:13:37.422
161, -0.49, 5.41, 12.28, 11.29, 0.000, 0.000, 0.000, 16:13:37.441
162, 9.23, 12.30, 7.93, 6.60, 0.000, 0.000, 0.000, 16:13:37.441
163, 6.87, 7.67, 11.58, 13.44, 0.000, 0.000, 0.000, 16:13:37.442
164, 8.15, 4.76, 12.75, 13.88, 0.000, 0.000, 0.000, 16:13:37.442
165, 5.08, 1.62, 16.32, 10.18, 0.000, 0.000, 0.000, 16:13:37.464
166, 5.92, 13.80, 11.83, 10.19, 0.000, 0.000, 0.000, 16:13:37.464
167, 5.68, 9.25, 15.93, 13.63, 0.000, 0.000, 0.000, 16:13:37.464
168, 7.75, 10.57, 11.70, 12.12, 0.000, 0.000, 0.000, 16:13:37.464
169, 8.47, 7.64, 8.41, 13.58, 0.000, 0.000, 0.000, 16:13:37.465
170, 7.92, 9.31, 11.55, 12.17, 0.000, 0.000, 0.000, 16:13:37.465
171, 5.45, 10.53, 12.09, 13.00, 0.000, 0.000, 0.000, 16:13:37.486
172, 2.70, 8.19, 7.34, 10.36, 0.000, 0.000, 0.000, 16:13:37.486
173, 10.52, 10.45, 10.39, 9.63, 0.000, 0.000, 0.000, 16:13:37.486
174, 5.90, 6.16, 12.66, 14.30, 0.000, 0.000, 0.000, 16:13:37.487
175, 6.19, 10.19, 11.88, 14.73, 0.000, 0.000, 0.000, 16:13:37.508
176, 8.87, 5.46, 10.02, 10.70, 0.000, 0.000, 0.000, 16:13:37.509
177, 3.79, 9.02, 11.58, 12.53, 0.000, 0.000, 0.000, 16:13:37.509
178, 3.15, 10.26, 7.43, 11.75, 0.000, 0.000, 0.000, 16:13:37.511
179, 10.56, 9.89, 9.46, 11.65, 0.000, 0.000, 0.000, 16:13:37.532
180, 12.25, 16.29, 13.31, 12.98, 0.000, 0.000, 0.000, 16:13:37.532
181, 0.55, 1.73, 12.17, 13.64, 0.000, 0.000, 0.000, 16:13:37.533
182, 9.47, 7.38, 9.23, 8.20, 0.000, 0.000, 0.000, 16:13:37.533
183, 9.97, 12.02, 15.98, 15.80, 0.000, 0.000, 0.000, 16:13:37.553
184, 3.42, 5.29, 12.13, 13.93, 0.000, 0.000, 0.000, 16:13:37.554
185, 5.48, 7.66, 6.11, 9.50, 0.000, 0.000, 0.000, 16:13:37.554
186, 9.30, 9.18, 9.54, 9.27, 0.000, 0.000, 0.000, 16:13:37.554
187, 4.76, 5.77, 8.40, 13.66, 0.000, 0.000, 0.000, 16:13:37.555
188, 2.59, 9.29, 10.42, 9.37, 0.000, 0.000, 0.000, 16:13:37.556
189, 8.59, 8.15, 10.24, 12.90, 0.000, 0.000, 0.000, 16:13:37.576
190, 2.57, 7.05, 10.60, 12.91, 0.000, 0.000, 0.000, 16:13:37.576
191, 2.56, 9.96, 15.13, 12.75, 0.000, 0.000, 0.000, 16:13:37.577
192, 9.64, 9.74, 10.60, 10.97, 0.000, 0.000, 0.000, 16:13:37.577
193, 8.66, 8.80, 12.66, 10.37, 0.000, 0.000, 0.000, 16:13:37.598
194, 2.52, 6.09, 16.66, 13.61, 0.000, 0.000, 0.000, 16:13:37.599
195, 5.61, 8.42, 7.58, 11.57, 0.000, 0.000, 0.000, 16:13:37.599
196, 9.58, 10.31, 9.77, 12.52, 0.000, 0.000, 0.000, 16:13:37.599
197, 7.38, 5.81, 11.17, 9.94, 0.000, 0.000, 0.000, 16:13:37.621
198, 10.27, 13.30, 9.11, 8.36, 0.000, 0.000, 0.000, 16:13:37.621
199, 4.06, 4.56, 11.66, 9.93, 0.000, 0.000, 0.000, 16:13:37.622
200, 11.51, 8.34, 11.10, 11.64, 0.000, 0.000, 0.000, 16:13:37.622
0, 2.95, 9.90, 12.70, 13.34, 0.000, 0.000, 0.000, 16:13:37.622
1, 6.18, 5.45, 7.49, 12.80, 0.000, 0.000, 0.000, 16:13:37.644
2, 9.21, 10.16, 8.96, 9.26, 0.000, 0.000, 0.000, 16:13:37.644
3, 4.13, 7.46, 15.02, 12.57, 0.000, 0.000, 0.000, 16:13:37.644
4, 2.43, 7.13, 12.28, 14.03, 0.000, 0.000, 0.000, 16:13:37.645
5, 10.88, 9.85, 8.55, 11.44, 0.000, 0.000, 0.000, 16:13:37.666
6, 8.59, 13.11, 11.66, 20.69, 0.000, 0.000, 0.000, 16:13:37.667
7, 0.55, 3.33, 9.66, 9.27, 0.000, 0.000, 0.000, 16:13:37.669
8, 4.70, 6.25, 8.72, 9.57, 0.000, 0.000, 0.000, 16:13:37.669
9, 7.47, 9.20, 12.06, 11.42, 0.000, 0.000, 0.000, 16:13:37.689
10, 2.67, 7.63, 11.32, 9.34, 0.000, 0.000, 0.000, 16:13:37.689
11, 6.08, 6.11, 8.09, 12.32, 0.000, 0.000, 0.000, 16:13:37.689
12, 15.22, 12.46, 13.90, 13.85, 0.000, 0.000, 0.000, 16:13:37.690
13, 5.35, 7.26, 14.53, 16.34, 0.000, 0.000, 0.000, 16:13:37.690
14, 6.81, 8.10, 6.77, 10.95, 0.000, 0.000, 0.000, 16:13:37.690
15, 9.95, 13.79, 12.85, 9.71, 0.000, 0.000, 0.000, 16:13:37.711
16, 4.07, 3.39, 11.22, 13.83, 0.000, 0.000, 0.000, 16:13:37.711
17, 1.34, 7.43, 14.78, 11.19, 0.000, 0.000, 0.000, 16:13:37.711
18, 7.47, 9.35, 10.51, 10.30, 0.000, 0.000, 0.000, 16:13:37.712
19, 7.20, 11.11, 7.72, 9.02, 0.000, 0.000, 0.000, 16:13:37.734
20, 2.75, 5.50, 13.02, 14.05, 0.000, 0.000, 0.000, 16:13:37.734
21, 6.31, 8.53, 7.93, 8.03, 0.000, 0.000, 0.000, 16:13:37.734
22, 10.11, 9.98, 8.90, 13.83, 0.000, 0.000, 0.000, 16:13:37.735
23, 4.67, 9.53, 12.24, 15.37, 0.000, 0.000, 0.000, 16:13:37.756
24, 14.01, 11.33, 10.83, 9.41, 0.000, 0.000, 0.000, 16:13:37.756
25, 2.72, 4.48, 12.02, 11.23, 0.000, 0.000, 0.000, 16:13:37.757
26, 6.86, 8.84, 10.08, 11.83, 0.000, 0.000, 0.000, 16:13:37.757
27, 5.59, 5.68, 11.30, 13.47, 0.000, 0.000, 0.000, 16:13:37.778
28, 11.30, 9.61, 10.26, 11.56, 0.000, 0.000, 0.000, 16:13:37.779
29, 10.59, 12.51, 12.07, 15.20, 0.000, 0.000, 0.000, 16:13:37.779
30, 3.72, 8.79, 9.01, 14.21, 0.000, 0.000, 0.000, 16:13:37.779
31, 7.66, 9.97, 12.63, 10.66, 0.000, 0.000, 0.000, 16:13:37.780
32, 6.37, 10.72, 14.52, 14.03, 0.000, 0.000, 0.000, 16:13:37.780
33, 6.51, 10.57, 8.07, 16.48, 0.000, 0.000, 0.000, 16:13:37.801
34, 3.91, 7.15, 9.83, 11.41, 0.000, 0.000, 0.000, 16:13:37.801
35, 7.58, 5.84, 13.47, 7.75, 0.000, 0.000, 0.000, 16:13:37.803
36, 8.12, 6.52, 12.62, 16.74, 0.000, 0.000, 0.000, 16:13:37.803
37, 3.33, 5.56, 9.50, 11.30, 0.000, 0.000, 0.000, 16:13:37.824
38, 2.04, 6.33, 10.29, 6.51, 0.000, 0.000, 0.000, 16:13:37.824
39, 6.95, 11.04, 14.04, 9.12, 0.000, 0.000, 0.000, 16:13:37.824
40, 6.58, 4.51, 12.64, 6.82, 0.000, 0.000, 0.000, 16:13:37.825
41, 6.93, 8.55, 6.03, 10.16, 0.000, 0.000, 0.000, 16:13:37.846
42, 11.96, 14.10, 13.22, 13.13, 0.000, 0.000, 0.000, 16:13:37.847
43, 0.32, 7.65, 14.03, 16.70, 0.000, 0.000, 0.000, 16:13:37.847
44, 2.61, -0.30, 9.71, 15.50, 0.000, 0.000, 0.000, 16:13:37.847
45, 9.80, 12.14, 11.26, 12.57, 0.000, 0.000, 0.000, 16:13:37.871
46, 7.46, 11.04, 16.56, 14.85, 0.000, 0.000, 0.000, 16:13:37.871
47, 5.72, 2.35, 9.05, 10.19, 0.000, 0.000, 0.000, 16:13:37.871
48, 5.61, 7.65, 8.68, 12.83, 0.000, 0.000, 0.000, 16:13:37.871
49, 7.82, 11.72, 17.35, 13.27, 0.000, 0.000, 0.000, 16:13:37.872
50, -0.33, 5.52, 10.70, 11.30, 0.000, 0.000, 0.000, 16:13:37.872
51, 8.90, 14.62, 8.88, 10.76, 0.000, 0.000, 0.000, 16:13:37.894
52, 4.34, 9.81, 8.82, 13.61, 0.000, 0.000, 0.000, 16:13:37.894
53, 3.87, 7.74, 12.49, 14.50, 0.000, 0.000, 0.000, 16:13:37.894
54, 3.80, 9.94, 9.25, 10.08, 0.000, 0.000, 0.000, 16:13:37.895
55, 9.48, 10.31, 8.73, 10.68, 0.000, 0.000, 0.000, 16:13:37.913
56, 3.66, 5.34, 11.99, 13.65, 0.000, 0.000, 0.000, 16:13:37.914
57, 8.18, 9.09, 7.69, 11.98, 0.000, 0.000, 0.000, 16:13:37.914
58, 8.54, 3.53, 11.58, 9.44, 0.000, 0.000, 0.000, 16:13:37.914
59, 4.68, 12.43, 14.94, 10.25, 0.000, 0.000, 0.000, 16:13:37.936
60, 8.47, 11.25, 13.27, 11.00, 0.000, 0.000, 0.000, 16:13:37.936
61, -0.61, 2.60, 10.53, 12.87, 0.000, 0.000, 0.000, 16:13:37.937
62, 10.55, 7.58, 8.90, 9.36, 0.000, 0.000, 0.000, 16:13:37.937
63, 3.43, 3.56, 10.14, 13.62, 0.000, 0.000, 0.000, 16:13:37.958
64, 8.00, 6.69, 11.26, 11.55, 0.000, 0.000, 0.000, 16:13:37.959
65, 6.81, 7.41, 9.67, 8.73, 0.000, 0.000, 0.000, 16:13:37.960
66, 4.65, 6.43, 10.22, 13.32, 0.000, 0.000, 0.000, 16:13:37.960
67, 5.01, 8.60, 11.06, 11.53, 0.000, 0.000, 0.000, 16:13:37.960
68, 8.23, 14.16, 10.96, 11.42, 0.000, 0.000, 0.000, 16:13:37.961
69, 14.12, 14.58, 5.78, 13.97, 0.000, 0.000, 0.000, 16:13:37.982
70, 3.00, 0.59, 10.23, 11.22, 0.000, 0.000, 0.000, 16:13:37.983
71, 9.55, 11.37, 11.52, 11.76, 0.000, 0.000, 0.000, 16:13:37.983
72, 4.86, 13.22, 14.01, 11.84, 0.000, 0.000, 0.000, 16:13:37.983
73, 9.12, 8.27, 13.65, 14.64, 0.000, 0.000, 0.000, 16:13:38.004
74, 3.96, 6.65, 9.36, 9.55, 0.000, 0.000, 0.000, 16:13:38.004
75, 9.41, 5.63, 10.60, 11.24, 0.000, 0.000, 0.000, 16:13:38.004
76, 7.03, 9.36, 10.80, 16.49, 0.000, 0.000, 0.000, 16:13:38.004
77, 5.63, 5.29, 11.70, 6.64, 0.000, 0.000, 0.000, 16:13:38.026
78, 11.29, 13.45, 13.63, 12.47, 0.000, 0.000, 0.000, 16:13:38.026
79, -0.39, 6.01, 10.95, 13.02, 0.000, 0.000, 0.000, 16:13:38.027
80, 6.17, 8.17, 9.64, 13.65, 0.000, 0.000, 0.000, 16:13:38.027
81, 7.39, 12.73, 10.87, 11.05, 0.000, 0.000, 0.000, 16:13:38.048
82, 12.91, 8.69, 9.64, 9.20, 0.000, 0.000, 0.000, 16:13:38.049
83, 4.11, 3.41, 12.78, 16.33, 0.000, 0.000, 0.000, 16:13:38.049
84, 2.72, 7.59, 9.69, 11.83, 0.000, 0.000, 0.000, 16:13:38.050
85, 7.14, 11.00, 9.26, 17.53, 0.000, 0.000, 0.000, 16:13:38.050
86, 5.49, 8.46, 10.96, 14.10, 0.000, 0.000, 0.000, 16:13:38.050
87, 6.87, 11.92, 10.06, 10.19, 0.000, 0.000, 0.000, 16:13:38.071
88, 1.01, 6.59, 8.31, 12.40, 0.000, 0.000, 0.000, 16:13:38.071
89, 9.76, 7.85, 11.55, 13.03, 0.000, 0.000, 0.000, 16:13:38.071
90, 3.23, 4.02, 12.75, 13.36, 0.000, 0.000, 0.000, 16:13:38.072
91, 1.72, 8.75, 11.28, 10.85, 0.000, 0.000, 0.000, 16:13:38.094
92, 8.01, 12.96, 11.84, 10.42, 0.000, 0.000, 0.000, 16:13:38.094
93, 10.54, 10.03, 13.95, 13.09, 0.000, 0.000, 0.000, 16:13:38.095
94, 5.28, 8.79, 10.48, 8.20, 0.000, 0.000, 0.000, 16:13:38.095
95, 9.26, 7.61, 13.81, 8.30, 0.000, 0.000, 0.000, 16:13:38.116
96, 11.39, 14.11, 11.57, 15.62, 0.000, 0.000, 0.000, 16:13:38.116
97, 3.13, 2.31, 13.79, 13.95, 0.000, 0.000, 0.000, 16:13:38.117
98, 10.58, 8.77, 11.49, 12.95, 0.000, 0.000, 0.000, 16:13:38.117
99, 8.69, 6.65, 11.98, 16.02, 0.000, 0.000, 0.000, 16:13:38.141
100, 4.04, 4.62, 14.70, 12.71, 0.000, 0.000, 0.000, 16:13:38.142
101, 3.88, 5.00, 9.73, 8.52, 0.000, 0.000, 0.000, 16:13:38.142
102, 10.08, 11.50, 11.45, 9.71, 0.000, 0.000, 0.000, 16:13:38.142
103, 4.43, 4.86, 14.14, 16.09, 0.000, 0.000, 0.000, 16:13:38.143
104, 6.22, 8.45, 11.17, 12.94, 0.000, 0.000, 0.000, 16:13:38.143
105, 8.19, 13.20, 8.23, 9.62, 0.000, 0.000, 0.000, 16:13:38.164
106, 5.76, 2.57, 14.80, 16.06, 0.000, 0.000, 0.000, 16:13:38.165
107, 6.45, 11.08, 11.84, 12.73, 0.000, 0.000, 0.000, 16:13:38.165
108, 13.14, 8.44, 11.26, 9.44, 0.000, 0.000, 0.000, 16:13:38.166
109, 6.52, 11.20, 12.67, 12.32, 0.000, 0.000, 0.000, 16:13:38.185
110, -0.87, 9.15, 11.06, 14.77, 0.000, 0.000, 0.000, 16:13:38.185
111, 3.51, 8.53, 9.74, 10.85, 0.000, 0.000, 0.000, 16:13:38.186
112, 9.12, 10.34, 8.54, 11.95, 0.000, 0.000, 0.000, 16:13:38.186
113, 4.50, 7.61, 9.81, 8.80, 0.000, 0.000, 0.000, 16:13:38.207
114, 11.64, 12.27, 9.27, 10.18, 0.000, 0.000, 0.000, 16:13:38.207
115, 4.70, 4.20, 12.65, 12.37, 0.000, 0.000, 0.000, 16:13:38.208
116, 5.94, 7.48, 13.12, 11.24, 0.000, 0.000, 0.000, 16:13:38.208
117, 5.57, 5.93, 8.89, 11.27, 0.000, 0.000, 0.000, 16:13:38.231
118, 6.93, 9.54, 4.90, 8.90, 0.000, 0.000, 0.000, 16:13:38.232
119, 8.21, 7.78, 11.25, 11.65, 0.000, 0.000, 0.000, 16:13:38.232
120, 5.77, 11.86, 9.40, 14.74, 0.000, 0.000, 0.000, 16:13:38.232
121, 11.01, 7.62, 6.76, 9.08, 0.000, 0.000, 0.000, 16:13:38.233
122, 5.50, 7.17, 12.76, 11.58, 0.000, 0.000, 0.000, 16:13:38.233
123, 3.03, 7.52, 11.74, 12.17, 0.000, 0.000, 0.000, 16:13:38.258
124, -0.80, 4.90, 11.25, 11.16, 0.000, 0.000, 0.000, 16:13:38.258
125, 6.34, 7.07, 9.39, 13.77, 0.000, 0.000, 0.000, 16:13:38.258
126, 5.04, 9.04, 13.74, 11.96, 0.000, 0.000, 0.000, 16:13:38.258
127, 4.18, 7.00, 8.89, 10.80, 0.000, 0.000, 0.000, 16:13:38.273
128, 5.31, 7.12, 13.29, 7.49, 0.000, 0.000, 0.000, 16:13:38.274
129, 5.72, 11.85, 12.44, 11.92, 0.000, 0.000, 0.000, 16:13:38.274
130, 5.01, 8.60, 11.71, 14.10, 0.000, 0.000, 0.000, 16:13:38.274
131, 5.23, 9.97, 9.90, 8.75, 0.000, 0.000, 0.000, 16:13:38.296
132, 12.26, 15.74, 12.60, 8.96, 0.000, 0.000, 0.000, 16:13:38.296
133, 2.78, -0.95, 13.85, 13.74, 0.000, 0.000, 0.000, 16:13:38.297
134, 7.93, 4.90, 8.81, 11.12, 0.000, 0.000, 0.000, 16:13:38.297
135, 9.68, 10.73, 7.50, 13.30, 0.000, 0.000, 0.000, 16:13:38.318
136, 7.40, 5.78, 11.55, 15.00, 0.000, 0.000, 0.000, 16:13:38.319
137, 6.52, 5.45, 12.03, 10.77, 0.000, 0.000, 0.000, 16:13:38.319
138, 6.53, 10.22, 12.63, 11.04, 0.000, 0.000, 0.000, 16:13:38.319
139, 9.41, 14.82, 13.16, 15.20, 0.000, 0.000, 0.000, 16:13:38.320
140, 8.68, 4.40, 13.19, 13.50, 0.000, 0.000, 0.000, 16:13:38.320
141, 13.00, 13.32, 5.66, 13.20, 0.000, 0.000, 0.000, 16:13:38.341
142, 2.59, 5.72, 10.40, 11.54, 0.000, 0.000, 0.000, 16:13:38.341
143, 6.64, 5.77, 13.47, 14.11, 0.000, 0.000, 0.000, 16:13:38.342
144, 6.91, 5.99, 12.16, 7.98, 0.000, 0.000, 0.000, 16:13:38.342
145, 9.78, 11.59, 10.37, 14.64, 0.000, 0.000, 0.000, 16:13:38.363
146, 5.31, 7.49, 10.28, 13.82, 0.000, 0.000, 0.000, 16:13:38.364
147, 3.76, 6.92, 10.77, 11.69, 0.000, 0.000, 0.000, 16:13:38.364
148, 9.16, 8.15, 9.02, 9.49, 0.000, 0.000, 0.000, 16:13:38.364
149, 10.14, 10.54, 11.82, 13.44, 0.000, 0.000, 0.000, 16:13:38.386
150, 10.95, 14.80, 10.32, 12.82, 0.000, 0.000, 0.000, 16:13:38.386
151, -0.45, 1.97, 7.48, 8.91, 0.000, 0.000, 0.000, 16:13:38.387
152, 9.99, 11.48, 11.66, 12.92, 0.000, 0.000, 0.000, 16:13:38.387
153, 7.03, 5.61, 11.46, 13.16, 0.000, 0.000, 0.000, 16:13:38.408
154, 9.45, 8.14, 10.89, 9.66, 0.000, 0.000, 0.000, 16:13:38.409
155, 6.49, 4.69, 13.87, 8.56, 0.000, 0.000, 0.000, 16:13:38.409
156, 3.71, 8.56, 9.85, 15.82, 0.000, 0.000, 0.000, 16:13:38.409
157, 2.53, 8.10, 11.77, 10.65, 0.000, 0.000, 0.000, 16:13:38.409
158, 6.20, 11.11, 10.62, 12.00, 0.000, 0.000, 0.000, 16:13:38.409
159, 11.55, 15.64, 9.34, 13.91, 0.000, 0.000, 0.000, 16:13:38.431
160, -2.93, 5.40, 10.64, 12.33, 0.000, 0.000, 0.000, 16:13:38.431
161, 7.00, 7.72, 9.62, 11.46, 0.000, 0.000, 0.000, 16:13:38.431
162, 12.17, 6.76, 13.44, 12.97, 0.000, 0.000, 0.000, 16:13:38.432
163, 3.68, 5.05, 14.30, 11.99, 0.000, 0.000, 0.000, 16:13:38.453
164, 3.12, 9.81, 12.80, 11.64, 0.000, 0.000, 0.000, 16:13:38.453
165, 9.00, 8.76, 7.70, 9.65, 0.000, 0.000, 0.000, 16:13:38.476
166, 9.23, 7.94, 12.67, 12.09, 0.000, 0.000, 0.000, 16:13:38.476
167, 0.68, 5.89, 11.56, 12.09, 0.000, 0.000, 0.000, 16:13:38.476
168, 3.81, 9.41, 14.82, 10.86, 0.000, 0.000, 0.000, 16:13:38.477
169, 11.78, 12.44, 10.30, 11.14, 0.000, 0.000, 0.000, 16:13:38.477
170, 4.17, 5.03, 9.24, 11.15, 0.000, 0.000, 0.000, 16:13:38.477
171, 11.04, 10.72, 9.15, 9.89, 0.000, 0.000, 0.000, 16:13:38.498
172, 8.21, 10.74, 10.89, 10.12, 0.000, 0.000, 0.000, 16:13:38.499
173, 7.24, 6.43, 12.24, 12.77, 0.000, 0.000, 0.000, 16:13:38.499
174, 6.12, 6.74, 13.69, 12.68, 0.000, 0.000, 0.000, 16:13:38.499
175, 7.14, 8.37, 11.11, 16.94, 0.000, 0.000, 0.000, 16:13:38.500
176, 6.64, 6.02, 11.06, 16.21, 0.000, 0.000, 0.000, 16:13:38.500
177, 11.07, 10.01, 10.01, 10.63, 0.000, 0.000, 0.000, 16:13:38.521
178, 0.74, 6.08, 12.41, 12.46, 0.000, 0.000, 0.000, 16:13:38.521
179, 10.98, 10.17, 10.85, 15.16, 0.000, 0.000, 0.000, 16:13:38.521
180, 3.87, 7.65, 14.74, 12.20, 0.000, 0.000, 0.000, 16:13:38.522
181, 5.47, 7.99, 10.98, 13.67, 0.000, 0.000, 0.000, 16:13:38.544
182, 10.58, 8.01, 8.73, 13.51, 0.000, 0.000, 0.000, 16:13:38.544
183, 5.55, 5.70, 9.96, 14.39, 0.000, 0.000, 0.000, 16:13:38.544
184, 4.94, 10.62, 6.55, 10.06, 0.000, 0.000, 0.000, 16:13:38.544
185, 8.43, 5.52, 9.11, 9.07, 0.000, 0.000, 0.000, 16:13:38.566
186, 13.63, 14.77, 10.32, 9.12, 0.000, 0.000, 0.000, 16:13:38.566
187, -3.73, 1.29, 11.13, 14.42, 0.000, 0.000, 0.000, 16:13:38.567
188, 6.25, 10.08, 7.25, 10.52, 0.000, 0.000, 0.000, 16:13:38.567
189, 4.48, 12.12, 13.69, 11.94, 0.000, 0.000, 0.000, 16:13:38.588
190, 3.93, 6.93, 13.23, 9.86, 0.000, 0.000, 0.000, 16:13:38.590
191, 4.26, 7.82, 13.44, 8.17, 0.000, 0.000, 0.000, 16:13:38.590
192, 7.63, 8.91, 15.57, 14.36, 0.000, 0.000, 0.000, 16:13:38.590
193, 2.67, 5.39, 10.05, 13.80, 0.000, 0.000, 0.000, 16:13:38.590
194, 5.43, 9.12, 10.34, 10.76, 0.000, 0.000, 0.000, 16:13:38.591
195, 10.18, 7.69, 9.36, 9.00, 0.000, 0.000, 0.000, 16:13:38.611
196, 4.78, 8.10, 7.76, 15.86, 0.000, 0.000, 0.000, 16:13:38.611
197, 3.99, 3.49, 12.36, 8.86, 0.000, 0.000, 0.000, 16:13:38.612
198, 8.18, 8.36, 9.11, 10.36, 0.000, 0.000, 0.000, 16:13:38.612
199, 7.85, 12.61, 9.66, 11.57, 0.000, 0.000, 0.000, 16:13:38.633
200, -3.49, 5.68, 9.92, 15.39, 0.000, 0.000, 0.000, 16:13:38.634
0, 7.71, 9.98, 6.60, 11.69, 0.000, 0.000, 0.000, 16:13:38.634
1, 8.10, 12.46, 12.83, 12.78, 0.000, 0.000, 0.000, 16:13:38.635
2, 5.75, 7.37, 12.66, 11.49, 0.000, 0.000, 0.000, 16:13:38.635
3, 10.53, 10.01, 10.59, 12.24, 0.000, 0.000, 0.000, 16:13:38.656
4, 6.49, 7.41, 8.38, 10.07, 0.000, 0.000, 0.000, 16:13:38.656
5, 6.59, 8.36, 13.94, 14.87, 0.000, 0.000, 0.000, 16:13:38.657
6, 3.34, 9.81, 11.25, 9.34, 0.000, 0.000, 0.000, 16:13:38.657
7, 6.63, 10.56, 10.62, 7.53, 0.000, 0.000, 0.000, 16:13:38.678
8, 6.25, 8.24, 11.60, 12.35, 0.000, 0.000, 0.000, 16:13:38.679
9, 5.50, 7.43, 10.55, 13.99, 0.000, 0.000, 0.000, 16:13:38.679
10, 8.33, 8.63, 10.77, 9.40, 0.000, 0.000, 0.000, 16:13:38.679
11, 11.72, 10.00, 12.87, 11.74, 0.000, 0.000, 0.000, 16:13:38.701
12, 8.66, 12.18, 11.69, 13.58, 0.000, 0.000, 0.000, 16:13:38.701
13, 0.18, 2.05, 10.76, 14.15, 0.000, 0.000, 0.000, 16:13:38.702
14, 7.84, 10.18, 15.34, 10.32, 0.000, 0.000, 0.000, 16:13:38.702
15, 6.80, 6.82, 9.37, 14.99, 0.000, 0.000, 0.000, 16:13:38.725
16, 4.20, 8.72, 16.50, 10.64, 0.000, 0.000, 0.000, 16:13:38.726
17, 6.40, 10.64, 10.97, 14.85, 0.000, 0.000, 0.000, 16:13:38.726
18, 10.08, 12.48, 12.73, 15.52, 0.000, 0.000, 0.000, 16:13:38.726
19, 6.63, 6.18, 15.34, 15.49, 0.000, 0.000, 0.000, 16:13:38.726
20, 7.75, 10.49, 13.76, 9.86, 0.000, 0.000, 0.000, 16:13:38.727
21, 10.70, 12.13, 11.63, 11.72, 0.000, 0.000, 0.000, 16:13:38.746
22, 3.28, 7.72, 9.70, 13.24, 0.000, 0.000, 0.000, 16:13:38.746
23, 8.04, 6.04, 8.61, 8.68, 0.000, 0.000, 0.000, 16:13:38.747
24, 5.50, 9.13, 8.98, 8.34, 0.000, 0.000, 0.000, 16:13:38.747
25, 3.67, 5.39, 11.49, 14.36, 0.000, 0.000, 0.000, 16:13:38.769
26, 4.29, 1.02, 7.95, 14.17, 0.000, 0.000, 0.000, 16:13:38.769
27, 5.71, 8.05, 8.05, 4.79, 0.000, 0.000, 0.000, 16:13:38.769
28, 7.23, 9.78, 10.45, 13.18, 0.000, 0.000, 0.000, 16:13:38.770
29, 5.54, 5.50, 10.02, 8.66, 0.000, 0.000, 0.000, 16:13:38.791
30, 11.98, 16.98, 9.36, 7.72, 0.000, 0.000, 0.000, 16:13:38.791
31, 4.39, 7.75, 11.50, 13.53, 0.000, 0.000, 0.000, 16:13:38.792
32, 6.30, 7.41, 12.58, 13.17, 0.000, 0.000, 0.000, 16:13:38.792
33, 7.73, 12.79, 11.73, 7.64, 0.000, 0.000, 0.000, 16:13:38.815
34, 6.60, 8.15, 12.38, 12.29, 0.000, 0.000, 0.000, 16:13:38.815
35, 3.93, 5.90, 13.63, 12.87, 0.000, 0.000, 0.000, 16:13:38.815
36, 5.74, 4.40, 8.15, 10.22, 0.000, 0.000, 0.000, 16:13:38.816
37, 6.70, 8.21, 7.60, 12.99, 0.000, 0.000, 0.000, 16:13:38.816
38, 5.20, 7.11, 12.84, 16.60, 0.000, 0.000, 0.000, 16:13:38.816
39, 6.79, 7.79, 14.79, 13.61, 0.000, 0.000, 0.000, 16:13:38.837
40, 5.19, 3.93, 7.79, 9.87, 0.000, 0.000, 0.000, 16:13:38.838
41, 11.51, 10.99, 11.99, 14.90, 0.000, 0.000, 0.000, 16:13:38.838
42, 4.94, 6.89, 13.60, 14.85, 0.000, 0.000, 0.000, 16:13:38.838
43, 4.00, 11.25, 8.99, 10.72, 0.000, 0.000, 0.000, 16:13:38.858
44, 4.59, 12.76, 9.94, 9.29, 0.000, 0.000, 0.000, 16:13:38.859
45, 6.49, 5.36, 11.17, 14.48, 0.000, 0.000, 0.000, 16:13:38.859
46, 3.79, 10.44, 14.15, 12.73, 0.000, 0.000, 0.000, 16:13:38.859
47, 6.39, 10.18, 11.55, 12.83, 0.000, 0.000, 0.000, 16:13:38.881
48, 17.63, 14.30, 10.23, 13.39, 0.000, 0.000, 0.000, 16:13:38.881
49, -1.03, 0.33, 11.97, 11.43, 0.000, 0.000, 0.000, 16:13:38.882
50, 3.64, 11.99, 7.98, 8.42, 0.000, 0.000, 0.000, 16:13:38.882
51, 10.42, 9.27, 13.93, 15.20, 0.000, 0.000, 0.000, 16:13:38.903
52, 4.07, 4.51, 12.40, 12.70, 0.000, 0.000, 0.000, 16:13:38.904
53, 4.32, 3.82, 10.18, 12.20, 0.000, 0.000, 0.000, 16:13:38.904
54, 8.23, 7.95, 7.13, 11.21, 0.000, 0.000, 0.000, 16:13:38.904
55, 5.41, 10.76, 12.99, 17.06, 0.000, 0.000, 0.000, 16:13:38.905
56, 4.06, 8.77, 10.20, 13.91, 0.000, 0.000, 0.000, 16:13:38.905
57, 13.65, 13.07, 10.95, 14.62, 0.000, 0.000, 0.000, 16:13:38.926
58, 3.84, 5.81, 10.71, 11.71, 0.000, 0.000, 0.000, 16:13:38.926
59, 4.27, 6.49, 10.08, 9.80, 0.000, 0.000, 0.000, 16:13:38.926
60, 9.11, 9.05, 10.28, 12.80, 0.000, 0.000, 0.000, 16:13:38.927
61, 10.66, 14.65, 11.43, 12.02, 0.000, 0.000, 0.000, 16:13:38.948
62, 3.97, 4.51, 10.71, 13.07, 0.000, 0.000, 0.000, 16:13:38.949
63, 2.13, 5.45, 7.00, 14.25, 0.000, 0.000, 0.000, 16:13:38.949
64, 7.30, 3.39, 9.59, 15.05, 0.000, 0.000, 0.000, 16:13:38.949
65, 4.99, 8.34, 15.74, 9.33, 0.000, 0.000, 0.000, 16:13:38.971
66, 6.97, 11.63, 9.93, 7.00, 0.000, 0.000, 0.000, 16:13:38.971
67, 0.51, 3.64, 11.56, 7.63, 0.000, 0.000, 0.000, 16:13:38.971
68, 9.96, 12.83, 11.47, 12.83, 0.000, 0.000, 0.000, 16:13:38.971
69, 5.80, 9.94, 12.23, 11.95, 0.000, 0.000, 0.000, 16:13:38.993
70, 10.16, 7.76, 13.42, 13.82, 0.000, 0.000, 0.000, 16:13:38.994
71, 7.79, 11.75, 11.80, 11.92, 0.000, 0.000, 0.000, 16:13:38.994
72, 6.28, 4.21, 11.59, 12.09, 0.000, 0.000, 0.000, 16:13:38.994
73, 5.49, 6.34, 12.98, 8.68, 0.000, 0.000, 0.000, 16:13:38.997
74, 7.52, 8.59, 10.97, 11.16, 0.000, 0.000, 0.000, 16:13:38.997
75, 7.81, 11.31, 9.27, 14.09, 0.000, 0.000, 0.000, 16:13:39.017
76, 2.37, 5.48, 9.02, 13.03, 0.000, 0.000, 0.000, 16:13:39.017
77, 4.69, 6.50, 9.15, 11.90, 0.000, 0.000, 0.000, 16:13:39.017
78, 9.08, 10.18, 12.10, 11.38, 0.000, 0.000, 0.000, 16:13:39.017
79, 2.59, 6.88, 13.22, 14.86, 0.000, 0.000, 0.000, 16:13:39.039
80, 3.12, 9.00, 11.38, 10.50, 0.000, 0.000, 0.000, 16:13:39.039
81, 6.70, 15.27, 12.53, 13.02, 0.000, 0.000, 0.000, 16:13:39.040
82, 3.79, 6.46, 11.08, 13.97, 0.000, 0.000, 0.000, 16:13:39.040
83, 6.54, 5.45, 11.60, 13.35, 0.000, 0.000, 0.000, 16:13:39.061
84, 13.76, 12.21, 12.38, 11.37, 0.000, 0.000, 0.000, 16:13:39.061
85, -0.05, 4.34, 9.57, 11.51, 0.000, 0.000, 0.000, 16:13:39.061
86, 6.59, 2.42, 10.20, 7.75, 0.000, 0.000, 0.000, 16:13:39.061
87, 7.93, 9.96, 10.57, 11.55, 0.000, 0.000, 0.000, 16:13:39.083
88, 10.96, 8.24, 6.73, 12.67, 0.000, 0.000, 0.000, 16:13:39.083
89, 5.84, 2.73, 10.47, 13.20, 0.000, 0.000, 0.000, 16:13:39.084
90, 6.56, 5.89, 5.36, 11.23, 0.000, 0.000, 0.000, 16:13:39.085
91, 9.84, 12.84, 13.37, 13.08, 0.000, 0.000, 0.000, 16:13:39.085
92, 5.52, 4.91, 14.68, 9.94, 0.000, 0.000, 0.000, 16:13:39.085
93, 7.50, 8.19, 10.84, 11.97, 0.000, 0.000, 0.000, 16:13:39.106
94, 3.25, 8.22, 9.48, 10.02, 0.000, 0.000, 0.000, 16:13:39.106
95, 7.23, 11.17, 12.45, 15.29, 0.000, 0.000, 0.000, 16:13:39.107
96, 4.28, 8.87, 8.87, 11.00, 0.000, 0.000, 0.000, 16:13:39.107
97, 7.31, 10.34, 9.33, 9.29, 0.000, 0.000, 0.000, 16:13:39.128
98, 5.10, 14.50, 9.60, 12.11, 0.000, 0.000, 0.000, 16:13:39.128
99, 2.48, 6.57, 14.45, 14.01, 0.000, 0.000, 0.000, 16:13:39.129
100, 6.81, 4.85, 4.89, 11.78, 0.000, 0.000, 0.000, 16:13:39.129
101, 8.15, 6.30, 8.33, 11.22, 0.000, 0.000, 0.000, 16:13:39.151
102, 8.55, 14.15, 12.93, 15.19, 0.000, 0.000, 0.000, 16:13:39.151
103, 3.03, -0.74, 10.75, 14.16, 0.000, 0.000, 0.000, 16:13:39.152
104, 9.24, 11.49, 9.84, 10.29, 0.000, 0.000, 0.000, 16:13:39.152
105, 5.43, 9.20, 12.00, 11.34, 0.000, 0.000, 0.000, 16:13:39.174
106, 5.82, 8.24, 8.84, 11.27, 0.000, 0.000, 0.000, 16:13:39.174
107, 5.27, 6.97, 9.88, 10.62, 0.000, 0.000, 0.000, 16:13:39.174
108, 8.51, 8.90, 13.23, 15.09, 0.000, 0.000, 0.000, 16:13:39.174
109, 3.82, -1.67, 13.83, 8.98, 0.000, 0.000, 0.000, 16:13:39.175
110, 8.18, 9.94, 13.48, 8.88, 0.000, 0.000, 0.000, 16:13:39.175
111, 15.41, 14.81, 11.91, 10.66, 0.000, 0.000, 0.000, 16:13:39.196
112, 3.40, 5.29, 11.92, 14.89, 0.000, 0.000, 0.000, 16:13:39.196
113, 0.49, 7.10, 9.78, 13.50, 0.000, 0.000, 0.000, 16:13:39.197
114, 12.58, 12.85, 8.11, 8.69, 0.000, 0.000, 0.000, 16:13:39.197
115, 9.39, 10.06, 11.86, 13.32, 0.000, 0.000, 0.000, 16:13:39.218
116, 3.67, 4.94, 8.91, 11.67, 0.000, 0.000, 0.000, 16:13:39.219
117, 5.38, 11.47, 11.62, 11.96, 0.000, 0.000, 0.000, 16:13:39.219
118, 8.51, 9.19, 12.43, 12.09, 0.000, 0.000, 0.000, 16:13:39.219
119, 2.90, 6.19, 12.35, 14.67, 0.000, 0.000, 0.000, 16:13:39.241
120, 10.80, 13.58, 9.94, 11.91, 0.000, 0.000, 0.000, 16:13:39.241
121, 4.56, 4.66, 10.76, 11.30, 0.000, 0.000, 0.000, 16:13:39.241
122, 6.92, 7.14, 14.27, 11.86, 0.000, 0.000, 0.000, 16:13:39.241
123, 7.27, 8.45, 11.51, 10.77, 0.000, 0.000, 0.000, 16:13:39.263
124, 9.57, 7.94, 13.63, 13.03, 0.000, 0.000, 0.000, 16:13:39.264
125, 6.19, 8.83, 14.94, 13.38, 0.000, 0.000, 0.000, 16:13:39.264
126, 2.90, 6.14, 9.32, 9.42, 0.000, 0.000, 0.000, 16:13:39.264
127, 7.54, 6.73, 13.55, 10.41, 0.000, 0.000, 0.000, 16:13:39.264
128, 1.61, 11.28, 10.48, 12.66, 0.000, 0.000, 0.000, 16:13:39.265
129, 7.00, 11.79, 11.04, 12.94, 0.000, 0.000, 0.000, 16:13:39.286
130, 1.02, 3.74, 10.57, 12.40, 0.000, 0.000, 0.000, 16:13:39.286
131, 7.10, 10.68, 9.31, 11.42, 0.000, 0.000, 0.000, 16:13:39.286
132, 1.77, 3.91, 11.23, 13.31, 0.000, 0.000, 0.000, 16:13:39.286
133, 9.17, 8.87, 8.03, 9.95, 0.000, 0.000, 0.000, 16:13:39.308
134, 7.56, 9.02, 9.38, 17.64, 0.000, 0.000, 0.000, 16:13:39.308
135, 5.16, 10.99, 16.19, 14.89, 0.000, 0.000, 0.000, 16:13:39.309
136, 2.77, 11.72, 18.32, 12.09, 0.000, 0.000, 0.000, 16:13:39.309
137, 7.87, 11.52, 12.57, 9.57, 0.000, 0.000, 0.000, 16:13:39.331
138, 13.84, 12.12, 11.51, 11.34, 0.000, 0.000, 0.000, 16:13:39.331
139, -4.40, 0.01, 13.19, 11.25, 0.000, 0.000, 0.000, 16:13:39.331
140, 9.39, 9.96, 9.03, 10.90, 0.000, 0.000, 0.000, 16:13:39.332
141, 13.89, 6.59, 9.92, 12.06, 0.000, 0.000, 0.000, 16:13:39.354
142, 7.43, 8.74, 13.34, 13.34, 0.000, 0.000, 0.000, 16:13:39.355
143, 4.90, 6.67, 10.58, 10.51, 0.000, 0.000, 0.000, 16:13:39.355
144, 11.18, 5.08, 10.35, 9.81, 0.000, 0.000, 0.000, 16:13:39.355
145, 2.98, 10.64, 14.10, 14.08, 0.000, 0.000, 0.000, 16:13:39.355
146, 6.29, 6.34, 9.17, 9.64, 0.000, 0.000, 0.000, 16:13:39.355
147, 13.98, 12.46, 9.43, 12.29, 0.000, 0.000, 0.000, 16:13:39.376
148, 4.40, 5.18, 10.07, 12.98, 0.000, 0.000, 0.000, 16:13:39.376
149, 3.34, 7.45, 11.12, 12.02, 0.000, 0.000, 0.000, 16:13:39.377
150, 7.02, 5.95, 5.73, 10.59, 0.000, 0.000, 0.000, 16:13:39.377
151, 8.85, 7.40, 10.47, 10.13, 0.000, 0.000, 0.000, 16:13:39.398
152, 3.07, 6.80, 11.06, 18.48, 0.000, 0.000, 0.000, 16:13:39.399
153, 5.43, 8.62, 8.63, 9.66, 0.000, 0.000, 0.000, 16:13:39.399
154, 6.07, 7.85, 12.90, 13.65, 0.000, 0.000, 0.000, 16:13:39.399
155, 6.59, 10.84, 8.78, 12.51, 0.000, 0.000, 0.000, 16:13:39.421
156, 9.01, 14.90, 11.23, 11.59, 0.000, 0.000, 0.000, 16:13:39.421
157, 0.37, 1.64, 10.97, 11.88, 0.000, 0.000, 0.000, 16:13:39.422
158, 11.46, 14.03, 14.93, 11.06, 0.000, 0.000, 0.000, 16:13:39.422
159, 4.47, 7.24, 8.24, 12.34, 0.000, 0.000, 0.000, 16:13:39.444
160, 5.84, 6.93, 8.10, 12.40, 0.000, 0.000, 0.000, 16:13:39.444
161, 9.48, 7.98, 15.54, 11.04, 0.000, 0.000, 0.000, 16:13:39.445
162, 6.97, 9.05, 12.71, 12.83, 0.000, 0.000, 0.000, 16:13:39.445
163, 4.32, 5.76, 11.30, 13.17, 0.000, 0.000, 0.000, 16:13:39.445
164, 10.17, 9.21, 11.94, 10.71, 0.000, 0.000, 0.000, 16:13:39.445
165, 10.01, 13.10, 12.03, 11.91, 0.000, 0.000, 0.000, 16:13:39.466
166, 0.05, 1.30, 9.09, 14.01, 0.000, 0.000, 0.000, 16:13:39.466
167, 8.95, 7.42, 11.98, 11.10, 0.000, 0.000, 0.000, 16:13:39.467
168, 8.43, 8.07, 10.66, 12.51, 0.000, 0.000, 0.000, 16:13:39.467
169, 2.06, 6.32, 12.72, 12.20, 0.000, 0.000, 0.000, 16:13:39.488
170, 3.84, 6.76, 10.12, 9.06, 0.000, 0.000, 0.000, 16:13:39.489
171, 9.07, 12.06, 10.71, 11.56, 0.000, 0.000, 0.000, 16:13:39.489
172, 3.03, 9.71, 8.30, 12.09, 0.000, 0.000, 0.000, 16:13:39.489
173, 5.38, 10.40, 10.65, 7.25, 0.000, 0.000, 0.000, 16:13:39.511
174, 12.87, 14.95, 10.58, 12.15, 0.000, 0.000, 0.000, 16:13:39.511
175, 3.78, 2.05, 10.79, 13.88, 0.000, 0.000, 0.000, 16:13:39.511
176, 5.92, 7.35, 10.30, 14.20, 0.000, 0.000, 0.000, 16:13:39.511
177, 9.11, 8.29, 9.95, 10.02, 0.000, 0.000, 0.000, 16:13:39.533
178, 9.03, 6.93, 14.63, 11.70, 0.000, 0.000, 0.000, 16:13:39.533
179, 6.14, 6.20, 11.20, 9.64, 0.000, 0.000, 0.000, 16:13:39.534
180, 8.53, 10.92, 9.41, 8.80, 0.000, 0.000, 0.000, 16:13:39.534
181, 9.27, 9.10, 10.53, 11.79, 0.000, 0.000, 0.000, 16:13:39.535
182, 6.80, 5.34, 10.69, 13.00, 0.000, 0.000, 0.000, 16:13:39.535
183, 4.41, 6.47, 9.10, 9.80, 0.000, 0.000, 0.000, 16:13:39.556
184, 7.17, -0.49, 12.12, 11.34, 0.000, 0.000, 0.000, 16:13:39.556
185, 7.78, 10.37, 17.05, 13.32, 0.000, 0.000, 0.000, 16:13:39.556
186, 3.07, 10.38, 9.89, 13.13, 0.000, 0.000, 0.000, 16:13:39.556
187, 6.96, 10.47, 10.84, 14.93, 0.000, 0.000, 0.000, 16:13:39.578
188, 4.98, 8.40, 11.69, 12.73, 0.000, 0.000, 0.000, 16:13:39.578
189, 4.72, 7.99, 11.68, 13.55, 0.000, 0.000, 0.000, 16:13:39.579
190, 8.03, 8.85, 14.24, 11.46, 0.000, 0.000, 0.000, 16:13:39.579
191, 7.04, 11.16, 11.75, 10.66, 0.000, 0.000, 0.000, 16:13:39.601
192, 10.91, 13.77, 11.23, 12.80, 0.000, 0.000, 0.000, 16:13:39.601
193, 2.52, 4.91, 9.52, 11.25, 0.000, 0.000, 0.000, 16:13:39.601
194, 6.74, 10.85, 12.51, 8.80, 0.000, 0.000, 0.000, 16:13:39.601
195, 5.27, 7.13, 13.34, 10.94, 0.000, 0.000, 0.000, 16:13:39.623
196, 7.58, 7.17, 10.03, 12.58, 0.000, 0.000, 0.000, 16:13:39.623
197, 7.68, 8.49, 9.23, 12.89, 0.000, 0.000, 0.000, 16:13:39.624
198, 8.30, 12.27, 11.71, 15.45, 0.000, 0.000, 0.000, 16:13:39.624
199, 5.73, 4.12, 11.39, 10.66, 0.000, 0.000, 0.000, 16:13:39.625
200, 5.76, 10.94, 8.42, 11.36, 0.000, 0.000, 0.000, 16:13:39.625
0, 11.67, 8.73, 11.53, 15.27, 0.000, 0.000, 0.000, 16:13:39.646
1, 4.39, 3.67, 10.91, 12.72, 0.000, 0.000, 0.000, 16:13:39.646
2, 5.99, 11.82, 10.91, 10.97, 0.000, 0.000, 0.000, 16:13:39.647
3, 10.52, 8.46, 11.77, 9.26, 0.000, 0.000, 0.000, 16:13:39.669
4, 4.00, 11.50, 12.63, 12.64, 0.000, 0.000, 0.000, 16:13:39.669
5, 2.47, 7.97, 8.73, 9.70, 0.000, 0.000, 0.000, 16:13:39.672
6, 6.68, 10.59, 10.92, 11.27, 0.000, 0.000, 0.000, 16:13:39.672
7, 7.15, 8.83, 10.84, 16.40, 0.000, 0.000, 0.000, 16:13:39.672
8, 0.86, 5.96, 12.54, 14.22, 0.000, 0.000, 0.000, 16:13:39.673
9, 8.80, 14.13, 12.30, 10.79, 0.000, 0.000, 0.000, 16:13:39.691
10, 7.41, 6.53, 11.58, 8.38, 0.000, 0.000, 0.000, 16:13:39.691
11, 4.48, 5.05, 12.29, 9.74, 0.000, 0.000, 0.000, 16:13:39.691
12, 7.35, 7.91, 9.48, 11.23, 0.000, 0.000, 0.000, 16:13:39.691
13, 8.03, 11.66, 12.89, 8.53, 0.000, 0.000, 0.000, 16:13:39.713
14, 4.26, 5.60, 14.02, 14.43, 0.000, 0.000, 0.000, 16:13:39.714
15, 8.00, 5.73, 10.88, 10.53, 0.000, 0.000, 0.000, 16:13:39.714
16, 8.73, 7.43, 9.84, 10.79, 0.000, 0.000, 0.000, 16:13:39.714
17, 7.92, 7.55, 10.11, 10.48, 0.000, 0.000, 0.000, 16:13:39.736
18, 6.64, 11.78, 12.03, 13.94, 0.000, 0.000, 0.000, 16:13:39.736
19, 1.66, 5.58, 9.53, 11.71, 0.000, 0.000, 0.000, 16:13:39.737
20, 5.54, 11.90, 9.87, 9.00, 0.000, 0.000, 0.000, 16:13:39.737
21, 2.42, 6.50, 9.41, 16.43, 0.000, 0.000, 0.000, 16:13:39.758
22, 3.36, 10.59, 12.83, 13.31, 0.000, 0.000, 0.000, 16:13:39.759
23, 7.24, 6.88, 8.87, 12.35, 0.000, 0.000, 0.000, 16:13:39.759
24, 8.74, 9.16, 9.15, 10.92, 0.000, 0.000, 0.000, 16:13:39.759
25, 6.82, 8.93, 15.10, 12.55, 0.000, 0.000, 0.000, 16:13:39.760
26, 5.25, 9.58, 11.70, 9.73, 0.000, 0.000, 0.000, 16:13:39.760
27, 15.09, 13.48, 9.77, 11.28, 0.000, 0.000, 0.000, 16:13:39.781
28, 0.72, 4.23, 11.13, 17.72, 0.000, 0.000, 0.000, 16:13:39.781
29, 7.45, 8.77, 11.81, 15.63, 0.000, 0.000, 0.000, 16:13:39.781
30, 7.55, 12.72, 8.81, 10.12, 0.000, 0.000, 0.000, 16:13:39.782
31, 3.94, 7.52, 12.27, 15.60, 0.000, 0.000, 0.000, 16:13:39.803
32, 3.84, 3.54, 14.11, 11.06, 0.000, 0.000, 0.000, 16:13:39.804
33, 8.29, 13.40, 6.64, 11.60, 0.000, 0.000, 0.000, 16:13:39.804
34, 7.35, 6.74, 9.52, 11.28, 0.000, 0.000, 0.000, 16:13:39.804
35, 8.48, 5.61, 8.78, 14.55, 0.000, 0.000, 0.000, 16:13:39.826
36, 10.76, 11.53, 9.42, 11.28, 0.000, 0.000, 0.000, 16:13:39.826
37, 2.70, 1.95, 11.12, 9.24, 0.000, 0.000, 0.000, 16:13:39.826
38, 3.24, 7.19, 15.61, 13.85, 0.000, 0.000, 0.000, 16:13:39.826
39, 5.61, 7.79, 11.34, 12.43, 0.000, 0.000, 0.000, 16:13:39.848
40, 9.31, 12.47, 12.03, 9.34, 0.000, 0.000, 0.000, 16:13:39.849
41, 6.13, 3.91, 15.89, 16.18, 0.000, 0.000, 0.000, 16:13:39.849
42, 3.98, 11.34, 11.76, 13.55, 0.000, 0.000, 0.000, 16:13:39.849
43, 6.15, 12.47, 9.91, 9.62, 0.000, 0.000, 0.000, 16:13:39.850
44, 3.57, 6.83, 12.29, 14.94, 0.000, 0.000, 0.000, 16:13:39.850
45, 9.27, 6.19, 12.46, 16.04, 0.000, 0.000, 0.000, 16:13:39.871
46, 4.49, 3.09, 6.89, 10.67, 0.000, 0.000, 0.000, 16:13:39.871
47, 6.01, 10.02, 6.23, 5.36, 0.000, 0.000, 0.000, 16:13:39.871
48, 4.26, 4.90, 15.75, 19.39, 0.000, 0.000, 0.000, 16:13:39.871
49, 9.05, 8.70, 11.70, 13.61, 0.000, 0.000, 0.000, 16:13:39.893
50, 4.81, 5.39, 5.73, 5.60, 0.000, 0.000, 0.000, 16:13:39.893
51, 8.23, 10.14, 15.19, 14.24, 0.000, 0.000, 0.000, 16:13:39.894
52, 7.13, 10.59, 13.32, 9.56, 0.000, 0.000, 0.000, 16:13:39.894
53, 9.54, 12.65, 6.25, 5.12, 0.000, 0.000, 0.000, 16:13:39.916
54, 9.97, 6.17, 6.02, 9.07, 0.000, 0.000, 0.000, 16:13:39.916
55, -2.49, 1.56, 17.62, 16.48, 0.000, 0.000, 0.000, 16:13:39.916
56, 5.50, 9.46, 12.83, 9.83, 0.000, 0.000, 0.000, 16:13:39.916
57, 10.51, 10.27, 6.23, 4.50, 0.000, 0.000, 0.000, 16:13:39.938
58, 7.05, 6.67, 20.10, 19.24, 0.000, 0.000, 0.000, 16:13:39.939
59, 6.23, 10.52, 11.58, 15.05, 0.000, 0.000, 0.000, 16:13:39.939
60, 9.22, 14.48, 0.19, -1.35, 0.000, 0.000, 0.000, 16:13:39.939
61, 5.05, 8.62, 13.57, 14.32, 0.000, 0.000, 0.000, 16:13:39.940
62, 6.45, 7.15, 18.96, 20.72, 0.000, 0.000, 0.000, 16:13:39.940
63, 10.71, 11.78, 4.40, 9.10, 0.000, 0.000, 0.000, 16:13:39.961
64, 5.77, 6.98, 9.51, 9.96, 0.000, 0.000, 0.000, 16:13:39.961
65, 1.19, 3.31, 16.64, 19.12, 0.000, 0.000, 0.000, 16:13:39.962
66, 7.06, 9.04, 8.32, 11.75, 0.000, 0.000, 0.000, 16:13:39.962
67, 12.64, 11.54, 0.88, 3.66, 0.000, 0.000, 0.000, 16:13:39.983
68, 3.02, 2.87, 17.36, 20.00, 0.000, 0.000, 0.000, 16:13:39.983
69, 5.91, 4.68, 14.44, 14.47, 0.000, 0.000, 0.000, 16:13:39.984
70, 9.95, 13.71, 1.71, 4.32, 0.000, 0.000, 0.000, 16:13:39.984
71, 3.86, 4.18, 16.89, 13.67, 0.000, 0.000, 0.000, 16:13:40.006
72, 8.43, 9.92, 20.94, 16.77, 0.000, 0.000, 0.000, 16:13:40.006
73, 4.99, 11.39, 9.28, 6.95, 0.000, 0.000, 0.000, 16:13:40.006
74, 7.33, 7.86, 6.40, 13.02, 0.000, 0.000, 0.000, 16:13:40.007
75, 2.27, 0.28, 15.57, 19.68, 0.000, 0.000, 0.000, 16:13:40.028
76, 5.43, 5.92, 13.54, 14.79, 0.000, 0.000, 0.000, 16:13:40.029
77, 9.83, 10.44, 5.95, 3.07, 0.000, 0.000, 0.000, 16:13:40.029
78, 4.89, 6.30, 17.76, 18.13, 0.000, 0.000, 0.000, 16:13:40.029
79, 5.05, 8.51, 15.65, 17.86, 0.000, 0.000, 0.000, 16:13:40.029
80, 8.23, 10.27, 3.12, 4.69, 0.000, 0.000, 0.000, 16:13:40.030
81, 12.04, 9.39, 15.30, 12.73, 0.000, 0.000, 0.000, 16:13:40.051
82, 2.30, 2.87, 14.02, 13.87, 0.000, 0.000, 0.000, 16:13:40.051
83, 7.71, 8.96, 6.22, 5.67, 0.000, 0.000, 0.000, 16:13:40.051
84, 5.23, 11.55, 9.04, 8.76, 0.000, 0.000, 0.000, 16:13:40.052
85, 2.67, 10.78, 16.45, 16.40, 0.000, 0.000, 0.000, 16:13:40.073
86, 8.39, 11.63, 13.14, 10.78, 0.000, 0.000, 0.000, 16:13:40.073
87, 11.30, 13.14, 7.29, 9.74, 0.000, 0.000, 0.000, 16:13:40.074
88, 5.01, 2.26, 14.69, 17.61, 0.000, 0.000, 0.000, 16:13:40.074
89, 3.92, 6.57, 11.76, 14.78, 0.000, 0.000, 0.000, 16:13:40.096
90, 15.43, 16.75, 5.43, 5.30, 0.000, 0.000, 0.000, 16:13:40.096
91, -2.23, -0.27, 14.61, 14.64, 0.000, 0.000, 0.000, 16:13:40.097
92, 4.57, 11.36, 12.60, 15.55, 0.000, 0.000, 0.000, 16:13:40.097
93, 8.09, 13.22, 9.12, 7.05, 0.000, 0.000, 0.000, 16:13:40.118
94, 9.13, 12.59, 10.67, 8.67, 0.000, 0.000, 0.000, 16:13:40.119
95, 2.18, 2.18, 12.66, 16.06, 0.000, 0.000, 0.000, 16:13:40.119
96, 8.25, 10.37, 14.29, 12.07, 0.000, 0.000, 0.000, 16:13:40.119
97, 13.95, 16.79, 4.95, 6.08, 0.000, 0.000, 0.000, 16:13:40.120
98, 3.61, 7.06, 14.90, 18.11, 0.000, 0.000, 0.000, 16:13:40.120
99, 11.02, 10.47, 14.20, 12.62, 0.000, 0.000, 0.000, 16:13:40.141
100, 6.22, 7.31, 6.12, 5.77, 0.000, 0.000, 0.000, 16:13:40.141
101, 2.82, 5.00, 12.61, 13.69, 0.000, 0.000, 0.000, 16:13:40.141
102, 2.48, 5.29, 12.92, 15.89, 0.000, 0.000, 0.000, 16:13:40.142
103, 10.13, 10.96, 6.51, 8.83, 0.000, 0.000, 0.000, 16:13:40.164
104, 5.26, 11.24, 7.69, 11.26, 0.000, 0.000, 0.000, 16:13:40.164
105, 3.93, 3.88, 14.13, 17.73, 0.000, 0.000, 0.000, 16:13:40.165
106, 5.42, 5.98, 9.23, 11.30, 0.000, 0.000, 0.000, 16:13:40.165
107, 9.50, 9.69, 6.28, 8.27, 0.000, 0.000, 0.000, 16:13:40.186
108, 7.38, 10.54, 17.18, 13.92, 0.000, 0.000, 0.000, 16:13:40.186
109, 2.65, 1.23, 12.34, 15.06, 0.000, 0.000, 0.000, 16:13:40.187
110, 13.13, 12.96, 3.72, 6.55, 0.000, 0.000, 0.000, 16:13:40.187
111, 3.22, 7.41, 10.92, 15.95, 0.000, 0.000, 0.000, 16:13:40.208
112, 7.58, 4.55, 13.51, 16.64, 0.000, 0.000, 0.000, 16:13:40.209
113, 8.37, 11.03, 8.16, 9.66, 0.000, 0.000, 0.000, 16:13:40.209
114, 8.74, 9.76, 8.45, 11.38, 0.000, 0.000, 0.000, 16:13:40.209
115, 7.84, 4.04, 16.96, 17.90, 0.000, 0.000, 0.000, 16:13:40.210
116, 3.76, 11.26, 13.05, 11.78, 0.000, 0.000, 0.000, 16:13:40.210
117, 11.90, 18.37, 8.43, 4.13, 0.000, 0.000, 0.000, 16:13:40.231
118, 0.35, 0.05, 15.38, 19.25, 0.000, 0.000, 0.000, 16:13:40.231
119, 6.71, 9.03, 11.00, 13.55, 0.000, 0.000, 0.000, 16:13:40.232
120, 11.25, 10.85, 6.33, 10.56, 0.000, 0.000, 0.000, 16:13:40.232
121, 3.90, 10.81, 12.32, 10.94, 0.000, 0.000, 0.000, 16:13:40.253
122, 2.31, 2.82, 14.52, 14.04, 0.000, 0.000, 0.000, 16:13:40.254
123, 10.20, 15.37, 12.01, 7.60, 0.000, 0.000, 0.000, 16:13:40.254
124, 12.12, 5.93, 7.50, 7.24, 0.000, 0.000, 0.000, 16:13:40.254
125, 2.53, 4.60, 15.27, 12.67, 0.000, 0.000, 0.000, 16:13:40.276
126, 13.11, 13.87, 8.81, 13.23, 0.000, 0.000, 0.000, 16:13:40.276
127, 6.65, 9.89, 6.61, 5.45, 0.000, 0.000, 0.000, 16:13:40.276
128, -0.56, 7.51, 14.04, 18.45, 0.000, 0.000, 0.000, 16:13:40.276
129, 3.50, 6.82, 12.03, 17.06, 0.000, 0.000, 0.000, 16:13:40.298
130, 10.57, 13.50, 5.02, 5.17, 0.000, 0.000, 0.000, 16:13:40.298
131, -2.88, 6.49, 13.34, 14.78, 0.000, 0.000, 0.000, 16:13:40.299
132, 2.07, 5.45, 16.12, 15.61, 0.000, 0.000, 0.000, 16:13:40.300
133, 9.80, 6.90, 8.86, 7.66, 0.000, 0.000, 0.000, 16:13:40.300
134, 7.21, 5.23, 7.46, 9.66, 0.000, 0.000, 0.000, 16:13:40.300
135, 6.24, 2.11, 15.08, 15.84, 0.000, 0.000, 0.000, 16:13:40.321
136, 6.24, 6.42, 12.48, 18.33, 0.000, 0.000, 0.000, 16:13:40.321
137, 10.62, 17.44, 4.97, 3.38, 0.000, 0.000, 0.000, 16:13:40.321
138, 3.91, 3.26, 15.81, 15.02, 0.000, 0.000, 0.000, 16:13:40.321
139, 3.61, 6.49, 17.49, 16.39, 0.000, 0.000, 0.000, 16:13:40.343
140, 8.81, 10.46, 3.34, 1.60, 0.000, 0.000, 0.000, 16:13:40.344
141, 10.98, 4.76, 14.26, 12.06, 0.000, 0.000, 0.000, 16:13:40.344
142, 3.53, 2.02, 16.50, 15.60, 0.000, 0.000, 0.000, 16:13:40.344
143, 11.55, 15.63, 9.24, 7.68, 0.000, 0.000, 0.000, 16:13:40.366
144, 8.64, 13.93, 10.13, 11.52, 0.000, 0.000, 0.000, 16:13:40.366
145, -0.85, -1.59, 14.04, 20.32, 0.000, 0.000, 0.000, 16:13:40.367
146, 5.10, 8.68, 9.60, 12.01, 0.000, 0.000, 0.000, 16:13:40.367
147, 10.24, 13.67, 6.51, 4.21, 0.000, 0.000, 0.000, 16:13:40.388
148, -3.14, 2.93, 15.53, 17.71, 0.000, 0.000, 0.000, 16:13:40.388
149, 0.64, 7.61, 13.74, 15.60, 0.000, 0.000, 0.000, 16:13:40.389
150, 10.99, 16.72, 0.72, 5.79, 0.000, 0.000, 0.000, 16:13:40.389
151, 3.99, 3.99, 10.65, 13.22, 0.000, 0.000, 0.000, 16:13:40.389
152, 3.80, 2.32, 15.11, 17.01, 0.000, 0.000, 0.000, 16:13:40.389
153, 9.52, 15.81, 5.14, 9.96, 0.000, 0.000, 0.000, 16:13:40.411
154, 2.88, 7.63, 8.47, 8.63, 0.000, 0.000, 0.000, 16:13:40.411
155, 5.62, 2.95, 15.97, 15.09, 0.000, 0.000, 0.000, 16:13:40.411
156, 5.54, 11.87, 14.15, 13.43, 0.000, 0.000, 0.000, 16:13:40.411
157, 14.88, 16.14, 6.91, 4.11, 0.000, 0.000, 0.000, 16:13:40.433
158, -0.43, 1.77, 14.83, 18.38, 0.000, 0.000, 0.000, 16:13:40.434
159, 4.92, 7.42, 17.12, 14.62, 0.000, 0.000, 0.000, 16:13:40.434
160, 12.65, 16.25, 0.58, 6.73, 0.000, 0.000, 0.000, 16:13:40.434
161, 4.24, 5.06, 14.81, 15.51, 0.000, 0.000, 0.000, 16:13:40.456
162, 7.14, 8.84, 10.97, 13.08, 0.000, 0.000, 0.000, 16:13:40.456
163, 5.55, 7.44, 12.74, 13.66, 0.000, 0.000, 0.000, 16:13:40.456
164, 10.31, 9.04, 7.99, 6.58, 0.000, 0.000, 0.000, 16:13:40.457
165, 1.43, 0.95, 19.20, 15.12, 0.000, 0.000, 0.000, 16:13:40.478
166, 6.05, 8.74, 11.73, 10.15, 0.000, 0.000, 0.000, 16:13:40.479
167, 16.26, 11.01, 2.24, 3.08, 0.000, 0.000, 0.000, 16:13:40.479
168, 2.35, 3.64, 20.37, 21.31, 0.000, 0.000, 0.000, 16:13:40.480
169, 0.83, 6.13, 10.00, 17.22, 0.000, 0.000, 0.000, 16:13:40.480
170, 14.43, 15.65, 1.35, 4.97, 0.000, 0.000, 0.000, 16:13:40.480
171, 5.80, 12.46, 11.99, 12.11, 0.000, 0.000, 0.000, 16:13:40.501
172, 0.27, 0.19, 13.48, 17.74, 0.000, 0.000, 0.000, 16:13:40.501
173, 13.67, 11.79, 6.80, 7.06, 0.000, 0.000, 0.000, 16:13:40.502
174, 12.05, 6.12, 10.94, 9.18, 0.000, 0.000, 0.000, 16:13:40.502
175, 2.76, 3.32, 16.84, 18.03, 0.000, 0.000, 0.000, 16:13:40.524
176, 6.78, 8.10, 12.54, 11.98, 0.000, 0.000, 0.000, 16:13:40.524
177, 18.71, 17.31, 3.42, 3.21, 0.000, 0.000, 0.000, 16:13:40.524
178, -1.55, 4.67, 13.09, 17.34, 0.000, 0.000, 0.000, 16:13:40.524
179, 1.83, 10.00, 14.21, 14.63, 0.000, 0.000, 0.000, 16:13:40.546
180, 17.18, 22.44, 1.12, 2.24, 0.000, 0.000, 0.000, 16:13:40.546
181, 0.47, 2.35, 10.17, 12.22, 0.000, 0.000, 0.000, 16:13:40.547
182, -1.82, 4.59, 17.22, 17.17, 0.000, 0.000, 0.000, 16:13:40.547
183, 10.10, 11.72, 11.81, 7.36, 0.000, 0.000, 0.000, 16:13:40.568
184, 9.43, 13.84, 7.25, 11.54, 0.000, 0.000, 0.000, 16:13:40.569
185, -1.02, 0.19, 16.35, 16.11, 0.000, 0.000, 0.000, 16:13:40.569
186, 5.67, 8.17, 8.70, 12.99, 0.000, 0.000, 0.000, 16:13:40.569
187, 11.18, 16.67, 2.56, 3.38, 0.000, 0.000, 0.000, 16:13:40.570
188, 1.32, 3.07, 14.72, 19.58, 0.000, 0.000, 0.000, 16:13:40.570
189, 6.95, 8.19, 13.58, 18.30, 0.000, 0.000, 0.000, 16:13:40.591
190, 11.98, 10.79, 3.18, -0.02, 0.000, 0.000, 0.000, 16:13:40.591
191, 3.95, 3.24, 12.28, 15.27, 0.000, 0.000, 0.000, 16:13:40.591
192, -3.60, 3.87, 17.33, 19.47, 0.000, 0.000, 0.000, 16:13:40.592
193, 8.87, 14.12, 9.33, 8.75, 0.000, 0.000, 0.000, 16:13:40.613
194, 9.58, 10.94, 7.75, 6.08, 0.000, 0.000, 0.000, 16:13:40.614
195, 2.57, 0.96, 17.90, 19.29, 0.000, 0.000, 0.000, 16:13:40.614
196, 7.09, 8.29, 9.30, 11.86, 0.000, 0.000, 0.000, 16:13:40.614
197, 11.37, 14.96, 0.46, 6.48, 0.000, 0.000, 0.000, 16:13:40.636
198, 3.25, 8.96, 16.86, 18.76, 0.000, 0.000, 0.000, 16:13:40.637
199, -1.99, 2.13, 16.76, 18.22, 0.000, 0.000, 0.000, 16:13:40.637
200, 16.69, 16.70, 3.79, 3.15, 0.000, 0.000, 0.000, 16:13:40.637
0, 6.47, 6.72, 15.22, 10.92, 0.000, 0.000, 0.000, 16:13:40.638
1, 2.27, 2.46, 15.07, 18.75, 0.000, 0.000, 0.000, 16:13:40.658
2, 9.75, 9.69, 4.30, 6.08, 0.000, 0.000, 0.000, 16:13:40.659
3, 9.34, 11.68, 9.48, 9.31, 0.000, 0.000, 0.000, 16:13:40.659
4, -3.34, 1.05, 18.85, 20.29, 0.000, 0.000, 0.000, 16:13:40.659
5, 5.43, 6.83, 12.96, 11.92, 0.000, 0.000, 0.000, 16:13:40.681
6, 24.50, 24.46, 7.91, 5.55, 0.000, 0.000, 0.000, 16:13:40.681
7, -8.50, -2.21, 15.79, 18.70, 0.000, 0.000, 0.000, 16:13:40.682
8, -2.05, 6.97, 19.54, 14.69, 0.000, 0.000, 0.000, 16:13:40.682
9, 22.96, 19.47, 1.40, 5.28, 0.000, 0.000, 0.000, 16:13:40.703
10, 1.77, 6.32, 12.21, 15.53, 0.000, 0.000, 0.000, 16:13:40.703
11, 0.71, -3.67, 18.61, 16.10, 0.000, 0.000, 0.000, 16:13:40.704
12, 9.99, 13.14, 7.32, 8.70, 0.000, 0.000, 0.000, 16:13:40.704
13, 10.79, 9.03, 7.02, 11.12, 0.000, 0.000, 0.000, 16:13:40.704
14, -1.74, 1.03, 18.47, 21.77, 0.000, 0.000, 0.000, 16:13:40.704
15, 4.72, 8.51, 11.98, 13.43, 0.000, 0.000, 0.000, 16:13:40.726
16, 16.17, 19.43, 0.76, -1.83, 0.000, 0.000, 0.000, 16:13:40.726
17, -3.73, -0.69, 18.01, 16.78, 0.000, 0.000, 0.000, 16:13:40.726
18, 2.21, 6.45, 13.02, 13.63, 0.000, 0.000, 0.000, 16:13:40.727
19, 19.14, 22.67, 1.31, -0.66, 0.000, 0.000, 0.000, 16:13:40.748
20, 1.23, 4.79, 16.16, 15.57, 0.000, 0.000, 0.000, 16:13:40.749
21, -1.75, -1.85, 17.10, 23.25, 0.000, 0.000, 0.000, 16:13:40.749
22, 15.65, 11.56, 5.70, 6.33, 0.000, 0.000, 0.000, 16:13:40.749
23, 5.28, 10.10, 9.95, 10.76, 0.000, 0.000, 0.000, 16:13:40.771
24, 0.85, 5.36, 16.91, 16.84, 0.000, 0.000, 0.000, 16:13:40.771
25, -3.91, 6.33, 12.50, 12.03, 0.000, 0.000, 0.000, 16:13:40.771
26, 25.09, 19.36, 1.79, 3.68, 0.000, 0.000, 0.000, 16:13:40.771
27, -7.69, -2.05, 20.32, 20.95, 0.000, 0.000, 0.000, 16:13:40.793
28, -0.98, 2.38, 13.56, 15.46, 0.000, 0.000, 0.000, 16:13:40.794
29, 20.64, 16.82, 3.55, 0.33, 0.000, 0.000, 0.000, 16:13:40.794
30, 5.31, 3.87, 12.99, 12.98, 0.000, 0.000, 0.000, 16:13:40.794
31, -1.70, 1.84, 15.64, 20.19, 0.000, 0.000, 0.000, 16:13:40.795
32, 13.39, 16.95, 5.19, 5.63, 0.000, 0.000, 0.000, 16:13:40.795
33, 15.48, 13.59, 8.60, 5.67, 0.000, 0.000, 0.000, 16:13:40.816
34, -7.82, -5.08, 15.78, 23.74, 0.000, 0.000, 0.000, 16:13:40.816
35, 4.88, 9.64, 16.54, 11.13, 0.000, 0.000, 0.000, 16:13:40.817
36, 24.25, 20.52, 6.58, 3.88, 0.000, 0.000, 0.000, 16:13:40.817
37, -2.78, 0.36, 15.91, 19.74, 0.000, 0.000, 0.000, 16:13:40.838
38, -1.31, -1.33, 10.26, 14.49, 0.000, 0.000, 0.000, 16:13:40.839
39, 26.05, 24.07, 6.26, 1.85, 0.000, 0.000, 0.000, 16:13:40.839
40, 4.36, 5.99, 12.93, 12.26, 0.000, 0.000, 0.000, 16:13:40.839
41, -6.26, -0.67, 13.86, 19.95, 0.000, 0.000, 0.000, 16:13:40.861
42, 15.29, 17.73, 6.30, 3.10, 0.000, 0.000, 0.000, 16:13:40.861
43, 8.51, 7.76, 9.43, 9.28, 0.000, 0.000, 0.000, 16:13:40.862
44, -8.99, -0.62, 15.47, 18.05, 0.000, 0.000, 0.000, 16:13:40.862
45, 4.10, 3.46, 12.82, 14.80, 0.000, 0.000, 0.000, 16:13:40.883
46, 30.25, 26.42, 6.15, 1.11, 0.000, 0.000, 0.000, 16:13:40.884
47, -12.33, -0.04, 13.01, 24.18, 0.000, 0.000, 0.000, 16:13:40.884
48, -3.37, 4.01, 8.94, 16.13, 0.000, 0.000, 0.000, 16:13:40.884
49, 626.76, 18.75, 9.15, 2.86, 0.000, 0.000, 0.000, 16:13:40.885
50, 1468.23, -14.97, 2.66, -0.03, 0.000, 0.000, 0.000, 16:13:40.885
51, 1447.17, 26.03, 3.25, 9.13, 0.000, 0.000, 0.000, 16:13:40.906
52, 1740.79, -0.79, 6.38, 8.98, 0.000, 0.000, 0.000, 16:13:40.906
53, 2648.08, -37.75, -17.15, -14.84, 0.000, 0.000, 0.000, 16:13:40.906
54, 2407.97, 20.16, 11.59, 11.16, 0.000, 0.000, 0.000, 16:13:40.906
55, 2609.43, 19.79, 15.00, 17.49, 0.000, 0.000, 0.000, 16:13:40.929
56, 2839.87, -20.72, 6.79, 0.58, 0.000, 0.000, 0.000, 16:13:40.929
57, 2810.72, 17.41, 8.27, 12.20, 0.000, 0.000, 0.000, 16:13:40.929
58, 2618.55, 21.64, 10.86, 13.45, 0.000, 0.000, 0.000, 16:13:40.930
59, 3379.01, 0.50, 16.31, 12.06, 0.000, 0.000, 0.000, 16:13:40.951
60, 2716.70, 1.89, 5.98, 6.30, 0.000, 0.000, 0.000, 16:13:40.951
61, 2435.96, 14.37, 11.49, 17.01, 0.000, 0.000, 0.000, 16:13:40.951
62, 2921.18, 9.08, 19.60, 19.50, 0.000, 0.000, 0.000, 16:13:40.951
63, 3097.26, -8.84, 9.42, 4.67, 0.000, 0.000, 0.000, 16:13:40.974
64, 2413.48, 18.75, 8.60, 12.15, 0.000, 0.000, 0.000, 16:13:40.974
65, 3009.04, 14.02, 16.20, 21.36, 0.000, 0.000, 0.000, 16:13:40.974
66, 3775.01, -1.56, 14.45, 13.91, 0.000, 0.000, 0.000, 16:13:40.974
67, 2895.63, 14.17, 12.12, 13.15, 0.000, 0.000, 0.000, 16:13:40.975
68, 2533.83, 21.43, 8.97, 13.11, 0.000, 0.000, 0.000, 16:13:40.975
69, 3245.00, 5.42, 19.90, 17.90, 0.000, 0.000, 0.000, 16:13:40.996
70, 2839.60, 4.62, 13.42, 13.65, 0.000, 0.000, 0.000, 16:13:40.996
71, 2730.44, 15.83, 4.52, 7.32, 0.000, 0.000, 0.000, 16:13:40.997
72, 3316.95, 12.56, 20.12, 19.28, 0.000, 0.000, 0.000, 16:13:40.997
73, 3929.34, -3.60, 12.89, 11.78, 0.000, 0.000, 0.000, 16:13:41.018
74, 3081.35, 12.61, 3.81, 10.71, 0.000, 0.000, 0.000, 16:13:41.018
75, 3515.00, 17.32, 12.39, 8.96, 0.000, 0.000, 0.000, 16:13:41.019
76, 3732.84, -7.89, 19.21, 12.42, 0.000, 0.000, 0.000, 16:13:41.019
77, 2881.71, -6.23, -8.93, -9.40, 0.000, 0.000, 0.000, 16:13:41.041
78, 2138.91, -42.98, -62.00, -65.78, 0.000, 0.000, 0.000, 16:13:41.041
79, 2751.27, 6.17, 14.43, 17.52, 0.000, 0.000, 0.000, 16:13:41.042
80, 2219.14, 4.05, 14.44, 14.75, 0.000, 0.000, 0.000, 16:13:41.042
81, 1282.91, -30.58, -37.70, -35.49, 0.000, 0.000, 0.000, 16:13:41.063
82, 1481.35, 7.79, 9.42, 6.54, 0.000, 0.000, 0.000, 16:13:41.063
83, 1715.18, 9.55, 29.31, 30.84, 0.000, 0.000, 0.000, 16:13:41.064
84, 1240.68, 1.24, 15.82, 13.84, 0.000, 0.000, 0.000, 16:13:41.064
85, 1798.70, 16.83, 18.86, 21.07, 0.000, 0.000, 0.000, 16:13:41.065
86, 2289.64, 42.07, 21.10, 10.94, 0.000, 0.000, 0.000, 16:13:41.065
87, 2615.12, 5.26, 21.52, 27.91, 0.000, 0.000, 0.000, 16:13:41.086
88, 2964.22, 8.55, 20.23, 23.57, 0.000, 0.000, 0.000, 16:13:41.086
89, 3307.75, 35.73, 15.11, 11.40, 0.000, 0.000, 0.000, 16:13:41.086
90, 3549.42, 15.43, 17.54, 21.11, 0.000, 0.000, 0.000, 16:13:41.086
91, 3787.81, 6.27, 19.94, 25.05, 0.000, 0.000, 0.000, 16:13:41.108
92, 4021.34, 21.72, 19.05, 12.63, 0.000, 0.000, 0.000, 16:13:41.109
93, 4218.51, 18.58, 18.42, 14.33, 0.000, 0.000, 0.000, 16:13:41.109
94, 4372.58, 2.15, 15.97, 24.86, 0.000, 0.000, 0.000, 16:13:41.109
95, 4539.61, 12.90, 18.73, 22.25, 0.000, 0.000, 0.000, 16:13:41.131
96, 4701.73, 32.26, 10.06, 9.56, 0.000, 0.000, 0.000, 16:13:41.131
97, 4787.36, -3.32, 19.44, 23.98, 0.000, 0.000, 0.000, 16:13:41.132
98, 4910.56, 7.03, 19.67, 21.15, 0.000, 0.000, 0.000, 16:13:41.132
99, 5029.61, 24.28, 8.39, 5.66, 0.000, 0.000, 0.000, 16:13:41.154
100, 5100.39, 14.36, 17.53, 19.20, 0.000, 0.000, 0.000, 16:13:41.154
101, 5171.06, -1.17, 15.97, 22.29, 0.000, 0.000, 0.000, 16:13:41.154
102, 5266.18, 22.78, 11.24, 9.22, 0.000, 0.000, 0.000, 16:13:41.154
103, 5327.78, 17.84, 12.67, 12.58, 0.000, 0.000, 0.000, 16:13:41.154
104, 5365.33, -1.06, 19.05, 21.63, 0.000, 0.000, 0.000, 16:13:41.155
105, 5429.84, 12.58, 13.76, 13.93, 0.000, 0.000, 0.000, 16:13:41.176
106, 5486.75, 20.68, 5.78, 6.32, 0.000, 0.000, 0.000, 16:13:41.177
107, 5506.68, -2.08, 16.14, 19.30, 0.000, 0.000, 0.000, 16:13:41.177
108, 5546.35, -0.23, 16.23, 19.04, 0.000, 0.000, 0.000, 16:13:41.177
109, 5603.89, 23.48, 11.40, 7.38, 0.000, 0.000, 0.000, 16:13:41.198
110, 5611.36, 7.00, 13.26, 13.84, 0.000, 0.000, 0.000, 16:13:41.199
111, 5633.61, 1.65, 16.24, 20.43, 0.000, 0.000, 0.000, 16:13:41.200
112, 5675.25, 17.34, 4.36, 8.06, 0.000, 0.000, 0.000, 16:13:41.200
113, 5697.80, 17.42, 10.34, 4.87, 0.000, 0.000, 0.000, 16:13:41.221
114, 5702.08, 2.14, 16.30, 19.79, 0.000, 0.000, 0.000, 16:13:41.221
115, 5723.71, 0.48, 10.09, 11.91, 0.000, 0.000, 0.000, 16:13:41.221
116, 5755.02, 24.13, 5.91, 2.25, 0.000, 0.000, 0.000, 16:13:41.222
117, 5746.42, -0.90, 14.35, 21.20, 0.000, 0.000, 0.000, 16:13:41.243
118, 5767.33, 1.57, 13.21, 19.52, 0.000, 0.000, 0.000, 16:13:41.243
119, 5794.51, 26.49, 4.49, 2.55, 0.000, 0.000, 0.000, 16:13:41.266
120, 5790.94, 6.84, 15.34, 19.96, 0.000, 0.000, 0.000, 16:13:41.267
121, 5786.73, 0.39, 17.21, 17.72, 0.000, 0.000, 0.000, 16:13:41.267
122, 5818.40, 12.81, 10.01, 7.75, 0.000, 0.000, 0.000, 16:13:41.267
123, 5820.63, 13.70, 6.30, 8.16, 0.000, 0.000, 0.000, 16:13:41.267
124, 5812.32, -0.33, 10.55, 22.57, 0.000, 0.000, 0.000, 16:13:41.267
125, 5827.59, 8.28, 13.24, 14.29, 0.000, 0.000, 0.000, 16:13:41.288
126, 5848.27, 25.17, 1.73, 1.07, 0.000, 0.000, 0.000, 16:13:41.289
127, 5829.57, -3.08, 14.66, 15.37, 0.000, 0.000, 0.000, 16:13:41.289
128, 5833.41, -0.20, 18.03, 15.31, 0.000, 0.000, 0.000, 16:13:41.289
129, 5865.69, 24.02, 7.51, 1.64, 0.000, 0.000, 0.000, 16:13:41.290
130, 5844.18, 2.70, 13.99, 17.12, 0.000, 0.000, 0.000, 16:13:41.290
131, 5842.10, 1.40, 12.28, 17.84, 0.000, 0.000, 0.000, 16:13:41.311
132, 5864.71, 14.93, 9.32, 6.07, 0.000, 0.000, 0.000, 16:13:41.311
133, 5867.51, 11.93, 6.23, 5.51, 0.000, 0.000, 0.000, 16:13:41.311
134, 5851.32, -4.14, 17.71, 24.44, 0.000, 0.000, 0.000, 16:13:41.311
135, 5859.75, 7.26, 14.05, 16.25, 0.000, 0.000, 0.000, 16:13:41.333
136, 5880.60, 21.20, 5.13, 0.70, 0.000, 0.000, 0.000, 16:13:41.334
137, 5853.04, -0.12, 11.76, 20.80, 0.000, 0.000, 0.000, 16:13:41.334
138, 5865.81, 1.65, 14.43, 18.92, 0.000, 0.000, 0.000, 16:13:41.334
139, 5884.96, 25.16, 4.02, 1.11, 0.000, 0.000, 0.000, 16:13:41.335
140, 5873.02, 5.17, 13.36, 13.51, 0.000, 0.000, 0.000, 16:13:41.335
141, 5868.10, -0.04, 17.20, 18.20, 0.000, 0.000, 0.000, 16:13:41.356
142, 5879.21, 12.79, 9.10, 6.45, 0.000, 0.000, 0.000, 16:13:41.356
143, 5879.44, 15.90, 8.74, 6.37, 0.000, 0.000, 0.000, 16:13:41.356
144, 5864.39, -1.94, 15.98, 20.32, 0.000, 0.000, 0.000, 16:13:41.357
145, 5873.76, 8.59, 9.85, 11.29, 0.000, 0.000, 0.000, 16:13:41.378
146, 5892.50, 22.26, 4.70, 1.63, 0.000, 0.000, 0.000, 16:13:41.378
147, 5870.52, -2.21, 18.77, 22.87, 0.000, 0.000, 0.000, 16:13:41.379
148, 5873.38, -1.53, 10.34, 18.23, 0.000, 0.000, 0.000, 16:13:41.379
149, 5891.98, 19.74, -0.27, -1.63, 0.000, 0.000, 0.000, 16:13:41.401
150, 5880.64, 9.79, 16.07, 14.07, 0.000, 0.000, 0.000, 16:13:41.401
151, 5865.13, -8.40, 12.75, 16.23, 0.000, 0.000, 0.000, 16:13:41.401
152, 5888.20, 14.21, 8.56, 8.59, 0.000, 0.000, 0.000, 16:13:41.401
153, 5884.86, 14.82, 7.59, 8.63, 0.000, 0.000, 0.000, 16:13:41.423
154, 5873.54, 1.82, 18.69, 22.86, 0.000, 0.000, 0.000, 16:13:41.424
155, 5877.98, 5.70, 9.58, 11.15, 0.000, 0.000, 0.000, 16:13:41.424
156, 5896.15, 24.18, 4.32, -2.67, 0.000, 0.000, 0.000, 16:13:41.424
157, 5870.95, -3.18, 16.38, 20.52, 0.000, 0.000, 0.000, 16:13:41.446
158, 5876.94, 6.11, 12.31, 19.72, 0.000, 0.000, 0.000, 16:13:41.446
159, 5901.33, 26.21, 1.83, 1.63, 0.000, 0.000, 0.000, 16:13:41.446
160, 5876.06, 4.17, 10.96, 14.13, 0.000, 0.000, 0.000, 16:13:41.446
161, 5876.40, -2.66, 15.13, 19.52, 0.000, 0.000, 0.000, 16:13:41.447
162, 5892.07, 14.30, 7.53, 4.65, 0.000, 0.000, 0.000, 16:13:41.447
163, 5891.47, 16.32, 5.62, 6.78, 0.000, 0.000, 0.000, 16:13:41.468
164, 5872.17, -0.65, 15.38, 17.81, 0.000, 0.000, 0.000, 16:13:41.469
165, 5880.33, 11.35, 15.49, 13.19, 0.000, 0.000, 0.000, 16:13:41.469
166, 5895.86, 23.94, 5.18, 2.31, 0.000, 0.000, 0.000, 16:13:41.469
167, 5871.79, 1.04, 17.02, 23.18, 0.000, 0.000, 0.000, 16:13:41.491
168, 5888.34, 6.54, 16.00, 15.10, 0.000, 0.000, 0.000, 16:13:41.491
169, 5895.53, 15.12, 3.09, 4.04, 0.000, 0.000, 0.000, 16:13:41.492
170, 5878.81, 2.77, 15.46, 13.78, 0.000, 0.000, 0.000, 16:13:41.492
171, 5875.45, -4.04, 17.87, 20.11, 0.000, 0.000, 0.000, 16:13:41.513
172, 5892.55, 13.63, 9.03, 7.50, 0.000, 0.000, 0.000, 16:13:41.513
173, 5889.08, 13.54, 7.86, 3.54, 0.000, 0.000, 0.000, 16:13:41.514
174, 5874.77, -2.98, 19.08, 21.49, 0.000, 0.000, 0.000, 16:13:41.514
175, 5882.74, 6.61, 6.55, 13.13, 0.000, 0.000, 0.000, 16:13:41.514
176, 5899.09, 22.54, 1.30, 1.67, 0.000, 0.000, 0.000, 16:13:41.514
177, 5878.42, 2.51, 20.27, 20.68, 0.000, 0.000, 0.000, 16:13:41.536
178, 5881.94, -4.99, 17.61, 21.92, 0.000, 0.000, 0.000, 16:13:41.536
179, 5898.14, 19.98, 3.22, -0.04, 0.000, 0.000, 0.000, 16:13:41.536
180, 5878.90, 8.29, 13.95, 17.76, 0.000, 0.000, 0.000, 16:13:41.536
181, 5878.30, 2.50, 16.72, 14.59, 0.000, 0.000, 0.000, 16:13:41.581
182, 5891.33, 13.05, 8.87, 6.46, 0.000, 0.000, 0.000, 16:13:41.581
183, 5896.36, 17.14, 5.58, 7.70, 0.000, 0.000, 0.000, 16:13:41.603
184, 5876.77, 0.30, 18.69, 21.24, 0.000, 0.000, 0.000, 16:13:41.604
185, 5884.46, 9.54, 10.31, 14.29, 0.000, 0.000, 0.000, 16:13:41.604
186, 5898.83, 21.98, 0.11, -0.93, 0.000, 0.000, 0.000, 16:13:41.604
187, 5878.34, -1.26, 19.05, 17.54, 0.000, 0.000, 0.000, 16:13:41.605
188, 5881.21, 3.21, 15.96, 19.07, 0.000, 0.000, 0.000, 16:13:41.605
189, 5899.38, 23.88, -0.81, -0.62, 0.000, 0.000, 0.000, 16:13:41.649
190, 5887.11, 4.30, 13.74, 12.35, 0.000, 0.000, 0.000, 16:13:41.649
191, 5879.18, -4.57, 16.22, 22.26, 0.000, 0.000, 0.000, 16:13:41.650
192, 5893.27, 15.90, 4.74, 5.92, 0.000, 0.000, 0.000, 16:13:41.650
193, 5892.11, 10.88, 5.78, 6.44, 0.000, 0.000, 0.000, 16:13:41.671
194, 5878.79, -1.01, 19.05, 24.30, 0.000, 0.000, 0.000, 16:13:41.671
195, 5881.49, 4.92, 11.20, 14.04, 0.000, 0.000, 0.000, 16:13:41.672
196, 5898.67, 22.69, 1.44, -1.34, 0.000, 0.000, 0.000, 16:13:41.672
197, 5876.06, -4.09, 21.07, 18.82, 0.000, 0.000, 0.000, 16:13:41.672
198, 5882.32, 0.56, 16.85, 17.42, 0.000, 0.000, 0.000, 16:13:41.673
199, 5898.60, 20.01, -0.49, 0.37, 0.000, 0.000, 0.000, 16:13:41.693
200, 5881.64, 3.17, 14.71, 16.77, 0.000, 0.000, 0.000, 16:13:41.693
0, -3.70, -1.53, 19.94, 21.93, 0.000, 0.000, 0.000, 16:13:41.694
3, -15.37, -17.50, 32.45, 38.47, 0.000, 0.000, 0.000, 16:13:41.695
4, -8.87, -12.03, 24.73, 32.88, 0.000, 0.000, 0.000, 16:13:41.695
5, 4.86, 11.49, 12.43, 9.85, 0.000, 0.000, 0.000, 16:13:41.716
6, -15.68, -17.29, 34.81, 39.86, 0.000, 0.000, 0.000, 16:13:41.716
7, -15.07, -12.04, 30.33, 33.86, 0.000, 0.000, 0.000, 16:13:41.717
8, 4.42, 4.50, 12.32, 12.51, 0.000, 0.000, 0.000, 16:13:41.717
9, -8.15, -2.96, 25.02, 31.25, 0.000, 0.000, 0.000, 16:13:41.717
10, -9.98, -12.76, 32.73, 36.41, 0.000, 0.000, 0.000, 16:13:41.718
11, -1.11, -3.86, 16.35, 22.97, 0.000, 0.000, 0.000, 16:13:41.739
12, -1.05, -0.60, 16.86, 17.87, 0.000, 0.000, 0.000, 16:13:41.739
13, -18.61, -17.18, 35.09, 36.62, 0.000, 0.000, 0.000, 16:13:41.739
14, -8.21, -8.87, 26.56, 31.22, 0.000, 0.000, 0.000, 16:13:41.740
15, 2.23, 7.80, 10.95, 13.65, 0.000, 0.000, 0.000, 16:13:41.740
16, -15.95, -15.30, 34.52, 41.05, 0.000, 0.000, 0.000, 16:13:41.740
17, -10.93, -14.33, 33.94, 35.14, 0.000, 0.000, 0.000, 16:13:41.761
18, 7.64, 7.82, 9.82, 12.77, 0.000, 0.000, 0.000, 16:13:41.761
19, -9.27, -11.32, 27.07, 31.66, 0.000, 0.000, 0.000, 16:13:41.761
20, -15.83, -17.08, 36.35, 42.48, 0.000, 0.000, 0.000, 16:13:41.761
21, -3.91, -1.82, 18.14, 21.11, 0.000, 0.000, 0.000, 16:13:41.762
22, -1.25, -0.86, 17.75, 20.11, 0.000, 0.000, 0.000, 16:13:41.762
23, -15.86, -17.50, 38.87, 44.63, 0.000, 0.000, 0.000, 16:13:41.784
24, -9.42, -10.04, 29.03, 31.93, 0.000, 0.000, 0.000, 16:13:41.784
25, 6.38, 6.61, 5.05, 12.00, 0.000, 0.000, 0.000, 16:13:41.784
26, -17.53, -18.76, 39.05, 45.39, 0.000, 0.000, 0.000, 16:13:41.785
27, -10.47, -9.33, 37.39, 39.44, 0.000, 0.000, 0.000, 16:13:41.785
28, 9.76, 11.80, 5.48, 10.24, 0.000, 0.000, 0.000, 16:13:41.785
29, -11.02, -11.12, 26.97, 32.46, 0.000, 0.000, 0.000, 16:13:41.806
30, -12.10, -15.30, 34.86, 40.60, 0.000, 0.000, 0.000, 16:13:41.806
31, -0.47, -1.45, 17.61, 17.67, 0.000, 0.000, 0.000, 16:13:41.807
32, 0.43, -0.93, 16.96, 19.73, 0.000, 0.000, 0.000, 16:13:41.807
33, -13.83, -15.33, 43.83, 41.76, 0.000, 0.000, 0.000, 16:13:41.828
34, -6.62, -9.98, 26.69, 32.59, 0.000, 0.000, 0.000, 16:13:41.828
35, 4.16, 3.14, 3.36, 8.78, 0.000, 0.000, 0.000, 16:13:41.829
36, -15.18, -16.78, 41.56, 42.43, 0.000, 0.000, 0.000, 16:13:41.829
37, -14.28, -11.79, 31.85, 38.69, 0.000, 0.000, 0.000, 16:13:41.829
38, 5.06, 5.83, 2.99, 8.88, 0.000, 0.000, 0.000, 16:13:41.830
39, -9.12, -6.38, 26.11, 35.18, 0.000, 0.000, 0.000, 16:13:41.851
40, -20.20, -18.15, 38.78, 41.62, 0.000, 0.000, 0.000, 16:13:41.851
41, -0.73, -0.45, 10.90, 15.79, 0.000, 0.000, 0.000, 16:13:41.851
42, 0.48, 1.40, 12.59, 17.75, 0.000, 0.000, 0.000, 16:13:41.852
43, -17.11, -18.71, 42.76, 44.10, 0.000, 0.000, 0.000, 16:13:41.874
44, -10.48, -12.25, 29.00, 30.34, 0.000, 0.000, 0.000, 16:13:41.874
45, 9.42, 7.18, -0.30, 4.33, 0.000, 0.000, 0.000, 16:13:41.874
46, -14.60, -18.28, 46.67, 41.65, 0.000, 0.000, 0.000, 16:13:41.874
47, -11.72, -14.50, 35.52, 37.91, 0.000, 0.000, 0.000, 16:13:41.896
48, 9.93, 15.76, -4.17, 6.17, 0.000, 0.000, 0.000, 16:13:41.896
49, -14.77, -12.31, 31.27, 33.37, 0.000, 0.000, 0.000, 16:13:41.896
50, -16.45, -15.69, 47.04, 45.78, 0.000, 0.000, 0.000, 16:13:41.896
51, -1.75, -0.91, 9.50, 16.67, 0.000, 0.000, 0.000, 16:13:41.919
52, 0.99, -1.71, 7.34, 20.20, 0.000, 0.000, 0.000, 16:13:41.919
53, -13.79, -21.97, 55.00, 47.50, 0.000, 0.000, 0.000, 16:13:41.920
54, -2.65, -9.96, 33.59, 28.18, 0.000, 0.000, 0.000, 16:13:41.920
55, 2.12, 10.31, -18.90, 9.71, 0.000, 0.000, 0.000, 16:13:41.920
56, -13.96, -17.70, 50.00, -259.55, 0.000, 0.000, 0.000, 16:13:41.920
57, -12.34, -12.68, 14.34, -514.01, 0.000, 0.000, 0.000, 16:13:41.941
58, -29.00, -24.91, -6.40, 443.82, 0.000, 0.000, 0.000, 16:13:41.941
59, -20.45, -21.30, 20.49, -73.76, 0.000, 0.000, 0.000, 16:13:41.945
60, -13.18, -18.59, 17.30, -796.34, 0.000, 0.000, 0.000, 16:13:41.945
61, -9.73, -9.95, 9.75, 4.24, 0.000, 0.000, 0.000, 16:13:41.964
62, -39.46, -37.19, 5.76, 819.47, 0.000, 0.000, 0.000, 16:13:41.964
63, -6.94, -11.95, 27.19, 181.53, 0.000, 0.000, 0.000, 16:13:41.964
64, -7.28, -7.37, 22.89, 630.98, 0.000, 0.000, 0.000, 16:13:41.964
65, -31.20, -31.23, -14.79, 1446.12, 0.000, 0.000, 0.000, 16:13:41.986
66, 2.13, 1.99, 42.27, 916.44, 0.000, 0.000, 0.000, 16:13:41.986
67, -10.84, -13.56, 34.68, 229.33, 0.000, 0.000, 0.000, 16:13:41.986
68, -18.03, -14.08, -26.82, 942.90, 0.000, 0.000, 0.000, 16:13:41.986
69, -6.26, -15.35, -30.71, 796.47, 0.000, 0.000, 0.000, 16:13:42.008
70, 3.81, -3.64, 219.78, 631.25, 0.000, 0.000, 0.000, 16:13:42.009
71, 0.49, -3.17, 18.01, 790.86, 0.000, 0.000, 0.000, 16:13:42.009
72, -20.43, -20.46, -308.41, 975.86, 0.000, 0.000, 0.000, 16:13:42.009
73, -1.63, -0.40, 282.57, 796.49, 0.000, 0.000, 0.000, 16:13:42.009
74, -4.58, -2.63, 183.21, 924.93, 0.000, 0.000, 0.000, 16:13:42.010
75, -21.64, -14.11, -274.00, 1728.01, 0.000, 0.000, 0.000, 16:13:42.031
76, -5.64, -8.68, 103.70, 885.40, 0.000, 0.000, 0.000, 16:13:42.031
77, -0.19, -7.08, 352.69, 746.43, 0.000, 0.000, 0.000, 16:13:42.032
78, -10.13, -8.41, -219.11, 1456.28, 0.000, 0.000, 0.000, 16:13:42.032
79, -6.98, -3.27, -429.80, 947.57, 0.000, 0.000, 0.000, 16:13:42.053
80, -2.48, -6.31, -426.58, 157.77, 0.000, 0.000, 0.000, 16:13:42.053
81, 1.73, 3.30, -1242.69, 373.10, 0.000, 0.000, 0.000, 16:13:42.054
82, -6.10, -4.66, -2093.55, 410.84, 0.000, 0.000, 0.000, 16:13:42.054
83, 7.00, 1.11, -1756.09, 144.44, 0.000, 0.000, 0.000, 16:13:42.076
84, 10.84, 9.45, -1947.27, 511.03, 0.000, 0.000, 0.000, 16:13:42.076
85, -11.79, -6.40, -2606.28, 705.83, 0.000, 0.000, 0.000, 16:13:42.076
86, 3.05, -0.28, -2273.00, 320.34, 0.000, 0.000, 0.000, 16:13:42.076
87, -0.74, 4.93, -1416.96, 9.73, 0.000, 0.000, 0.000, 16:13:42.099
88, -2.38, -6.18, -1518.55, 627.67, 0.000, 0.000, 0.000, 16:13:42.106
89, -1.21, -8.74, -1283.92, -208.87, 0.000, 0.000, 0.000, 16:13:42.106
90, 3.20, 2.74, -906.28, -1046.73, 0.000, 0.000, 0.000, 16:13:42.106
91, -1.06, -1.32, -1853.18, -541.73, 0.000, 0.000, 0.000, 16:13:42.107
92, -14.49, -12.47, -1928.96, -250.85, 0.000, 0.000, 0.000, 16:13:42.107
93, 6.68, 4.07, -1715.64, -899.91, 0.000, 0.000, 0.000, 16:13:42.121
94, 0.38, -2.80, -2632.34, -759.95, 0.000, 0.000, 0.000, 16:13:42.121
95, -15.49, -16.26, -2782.70, -617.36, 0.000, 0.000, 0.000, 16:13:42.121
96, -0.42, 0.93, -2346.82, -819.60, 0.000, 0.000, 0.000, 16:13:42.121
97, 4.84, 2.00, -2082.03, -1331.97, 0.000, 0.000, 0.000, 16:13:42.144
98, -14.93, -15.14, -2528.36, -478.51, 0.000, 0.000, 0.000, 16:13:42.144
99, -8.35, -13.08, -2148.35, -953.05, 0.000, 0.000, 0.000, 16:13:42.145
100, 0.53, 1.55, -1439.06, -1109.24, 0.000, 0.000, 0.000, 16:13:42.145
101, -6.37, -5.59, -2368.31, -638.93, 0.000, 0.000, 0.000, 16:13:42.166
102, -6.40, -8.05, -2520.39, -498.79, 0.000, 0.000, 0.000, 16:13:42.166
103, -2.44, -1.72, -2508.65, -1465.33, 0.000, 0.000, 0.000, 16:13:42.188
104, -1.57, 0.51, -2774.31, -1061.59, 0.000, 0.000, 0.000, 16:13:42.189
105, -13.80, -11.59, -3266.45, -567.48, 0.000, 0.000, 0.000, 16:13:42.189
106, 1.90, -4.02, -3174.89, -568.25, 0.000, 0.000, 0.000, 16:13:42.189
107, 2.64, 1.65, -2893.80, -987.76, 0.000, 0.000, 0.000, 16:13:42.189
108, -11.37, -13.34, -3832.04, -59.80, 0.000, 0.000, 0.000, 16:13:42.190
109, -2.22, -7.61, -2857.83, -454.61, 0.000, 0.000, 0.000, 16:13:42.190
110, 0.24, 1.45, -2512.97, -1347.23, 0.000, 0.000, 0.000, 16:13:42.190
111, -8.72, -5.07, -3342.95, -559.80, 0.000, 0.000, 0.000, 16:13:42.211
112, -15.62, -14.67, -3433.24, -311.65, 0.000, 0.000, 0.000, 16:13:42.211
113, 2.61, -0.09, -2973.56, -528.31, 0.000, 0.000, 0.000, 16:13:42.211
114, -2.97, -4.25, -3117.12, 240.35, 0.000, 0.000, 0.000, 16:13:42.211
115, -16.73, -18.68, -3414.42, 1167.41, 0.000, 0.000, 0.000, 16:13:42.233
116, -2.67, -2.98, -3255.81, 1166.43, 0.000, 0.000, 0.000, 16:13:42.234
117, 2.36, 0.62, -2934.15, 875.54, 0.000, 0.000, 0.000, 16:13:42.234
118, -14.12, -9.75, -3895.47, 1819.25, 0.000, 0.000, 0.000, 16:13:42.234
119, -8.22, -11.75, -3789.06, 1573.70, 0.000, 0.000, 0.000, 16:13:42.256
120, 9.96, 2.50, -3420.60, 730.91, 0.000, 0.000, 0.000, 16:13:42.256
121, -13.87, -16.29, -4157.56, 761.17, 0.000, 0.000, 0.000, 16:13:42.257
122, -13.94, -10.13, -4253.84, 978.76, 0.000, 0.000, 0.000, 16:13:42.257
123, 3.56, 4.21, -3720.04, 921.39, 0.000, 0.000, 0.000, 16:13:42.278
124, -3.74, -3.68, -3851.31, 1702.53, 0.000, 0.000, 0.000, 16:13:42.280
125, -16.80, -14.65, -4128.26, 2667.08, 0.000, 0.000, 0.000, 16:13:42.280
126, 0.26, -3.41, -3996.51, 2651.41, 0.000, 0.000, 0.000, 16:13:42.280
127, 2.37, -0.06, -3753.22, 2180.20, 0.000, 0.000, 0.000, 16:13:42.281
128, -15.47, -15.13, -3826.85, 2890.24, 0.000, 0.000, 0.000, 16:13:42.281
129, -4.61, -2.69, -2943.74, 2330.02, 0.000, 0.000, 0.000, 16:13:42.301
130, -4.48, -2.28, -2392.53, 1882.28, 0.000, 0.000, 0.000, 16:13:42.301
131, -6.23, -10.72, -2494.05, 1975.32, 0.000, 0.000, 0.000, 16:13:42.301
132, -15.38, -16.53, -2904.67, 2723.11, 0.000, 0.000, 0.000, 16:13:42.302
133, 3.63, 0.06, -2308.21, 2002.76, 0.000, 0.000, 0.000, 16:13:42.324
134, -7.74, -11.76, -2893.18, 2576.77, 0.000, 0.000, 0.000, 16:13:42.324
135, 1.50, 2.41, -3764.83, 1599.87, 0.000, 0.000, 0.000, 16:13:42.324
136, -11.25, -16.27, -2878.19, 2423.53, 0.000, 0.000, 0.000, 16:13:42.324
137, -10.39, -10.82, -2891.78, 2377.25, 0.000, 0.000, 0.000, 16:13:42.347
138, 13.30, 12.21, -2964.78, 2291.50, 0.000, 0.000, 0.000, 16:13:42.347
139, -11.84, -11.67, -2908.26, 2293.41, 0.000, 0.000, 0.000, 16:13:42.348
140, -14.87, -18.37, -2891.97, 2272.75, 0.000, 0.000, 0.000, 16:13:42.348
141, 2.96, -0.06, -2934.74, 2215.51, 0.000, 0.000, 0.000, 16:13:42.369
142, 2.94, -1.23, -2939.06, 2186.85, 0.000, 0.000, 0.000, 16:13:42.369
143, -18.33, -19.54, -2890.17, 2201.46, 0.000, 0.000, 0.000, 16:13:42.370
144, -7.92, -8.44, -2914.29, 2162.84, 0.000, 0.000, 0.000, 16:13:42.371
145, 4.92, 8.56, -2951.22, 2115.31, 0.000, 0.000, 0.000, 16:13:42.371
146, -16.34, -16.04, -2896.41, 2142.16, 0.000, 0.000, 0.000, 16:13:42.371
147, -8.76, -9.11, -2906.82, 2121.36, 0.000, 0.000, 0.000, 16:13:42.391
148, 6.12, 4.13, -2939.71, 2075.54, 0.000, 0.000, 0.000, 16:13:42.391
149, -14.34, -7.38, -2910.24, 2089.13, 0.000, 0.000, 0.000, 16:13:42.391
150, -14.31, -16.06, -2895.89, 2093.47, 0.000, 0.000, 0.000, 16:13:42.392
151, -1.09, -0.04, -2924.45, 2058.30, 0.000, 0.000, 0.000, 16:13:42.414
152, -0.88, -2.92, -2927.95, 2053.67, 0.000, 0.000, 0.000, 16:13:42.414
153, -10.45, -19.61, -2895.25, 2068.61, 0.000, 0.000, 0.000, 16:13:42.414
154, -5.23, -7.08, -2912.84, 2051.39, 0.000, 0.000, 0.000, 16:13:42.415
155, 4.73, 8.35, -2939.26, 2022.18, 0.000, 0.000, 0.000, 16:13:42.436
156, -6.10, -7.81, -2899.15, 2049.87, 0.000, 0.000, 0.000, 16:13:42.436
157, -13.81, -16.11, -2905.16, 2040.55, 0.000, 0.000, 0.000, 16:13:42.436
158, 5.35, 2.59, -2936.66, 2008.26, 0.000, 0.000, 0.000, 16:13:42.437
159, -7.38, -8.67, -2914.13, 2029.49, 0.000, 0.000, 0.000, 16:13:42.460
160, -12.43, -12.98, -2901.50, 2032.50, 0.000, 0.000, 0.000, 16:13:42.460
161, 1.17, -4.77, -2923.60, 2008.17, 0.000, 0.000, 0.000, 16:13:42.460
162, 3.77, -0.58, -2926.98, 2004.72, 0.000, 0.000, 0.000, 16:13:42.461
163, -14.44, -18.04, -2899.71, 2027.13, 0.000, 0.000, 0.000, 16:13:42.461
164, -8.69, -9.55, -2916.33, 2013.81, 0.000, 0.000, 0.000, 16:13:42.461
165, 12.42, 4.27, -2932.31, 1987.23, 0.000, 0.000, 0.000, 16:13:42.481
166, -14.79, -17.82, -2905.51, 2019.13, 0.000, 0.000, 0.000, 16:13:42.481
167, -10.44, -12.50, -2909.86, 2010.84, 0.000, 0.000, 0.000, 16:13:42.482
168, 6.51, 4.87, -2932.16, 1985.19, 0.000, 0.000, 0.000, 16:13:42.482
169, -10.44, -7.06, -2911.13, 2005.33, 0.000, 0.000, 0.000, 16:13:42.503
170, -13.94, -11.43, -2903.65, 2010.63, 0.000, 0.000, 0.000, 16:13:42.504
171, 0.25, -0.74, -2924.30, 1992.56, 0.000, 0.000, 0.000, 16:13:42.504
172, -1.44, 2.78, -2924.40, 1989.94, 0.000, 0.000, 0.000, 16:13:42.504
173, -14.16, -16.31, -2900.26, 2013.83, 0.000, 0.000, 0.000, 16:13:42.526
174, -4.77, -1.25, -2914.12, 1996.94, 0.000, 0.000, 0.000, 16:13:42.526
175, -0.52, -1.82, -2934.09, 1979.27, 0.000, 0.000, 0.000, 16:13:42.526
176, -14.16, -16.92, -2905.45, 2008.62, 0.000, 0.000, 0.000, 16:13:42.527
177, -9.17, -13.46, -2905.23, 2004.28, 0.000, 0.000, 0.000, 16:13:42.549
178, 3.95, 3.04, -2933.66, 1976.34, 0.000, 0.000, 0.000, 16:13:42.549
179, -9.30, -9.21, -2914.40, 2001.44, 0.000, 0.000, 0.000, 16:13:42.549
180, -9.91, -9.05, -2905.54, 2004.77, 0.000, 0.000, 0.000, 16:13:42.549
181, -1.34, -1.58, -2920.59, 1987.33, 0.000, 0.000, 0.000, 16:13:42.550
182, 0.47, -3.73, -2924.01, 1986.87, 0.000, 0.000, 0.000, 16:13:42.550
183, -14.62, -9.42, -2901.59, 2003.11, 0.000, 0.000, 0.000, 16:13:42.571
184, -7.83, -15.92, -2915.45, 1996.28, 0.000, 0.000, 0.000, 16:13:42.571
185, 5.43, 0.15, -2935.34, 1977.06, 0.000, 0.000, 0.000, 16:13:42.572
186, -10.89, -15.79, -2902.04, 2003.42, 0.000, 0.000, 0.000, 16:13:42.572
187, -7.85, -10.75, -2909.89, 1999.44, 0.000, 0.000, 0.000, 16:13:42.593
188, 3.86, 0.16, -2934.65, 1976.81, 0.000, 0.000, 0.000, 16:13:42.594
189, -10.18, -9.48, -2909.83, 1997.96, 0.000, 0.000, 0.000, 16:13:42.594
190, -13.24, -11.84, -2904.83, 2004.21, 0.000, 0.000, 0.000, 16:13:42.594
191, -0.47, 0.66, -2926.30, 1980.43, 0.000, 0.000, 0.000, 16:13:42.616
192, 4.60, 1.67, -2927.31, 1980.59, 0.000, 0.000, 0.000, 16:13:42.616
193, -22.32, -23.65, -2899.54, 2006.66, 0.000, 0.000, 0.000, 16:13:42.616
194, -6.31, -11.15, -2914.24, 1994.86, 0.000, 0.000, 0.000, 16:13:42.617
195, 5.52, 2.18, -2937.44, 1972.69, 0.000, 0.000, 0.000, 16:13:42.638
196, -12.12, -13.37, -2901.29, 2003.66, 0.000, 0.000, 0.000, 16:13:42.639
197, -12.46, -11.01, -2909.48, 1999.22, 0.000, 0.000, 0.000, 16:13:42.639
198, -0.13, 5.09, -2935.05, 1967.48, 0.000, 0.000, 0.000, 16:13:42.639
199, -9.27, -7.23, -2912.57, 1995.75, 0.000, 0.000, 0.000, 16:13:42.640
200, -9.53, -14.33, -2902.13, 2000.48, 0.000, 0.000, 0.000, 16:13:42.640
0, 11.71, 13.38, 3.02, 1.82, 0.000, 0.000, 0.000, 16:13:42.661
1, 8.60, 11.40, -0.08, 1.36, 0.000, 0.000, 0.000, 16:13:42.661
2, -1.20, 3.10, 29.16, 30.08, 0.000, 0.000, 0.000, 16:13:42.661
3, 4.15, 7.53, 12.88, 16.83, 0.000, 0.000, 0.000, 16:13:42.683
4, 18.15, 18.49, -14.58, -6.68, 0.000, 0.000, 0.000, 16:13:42.683
5, -4.00, -3.12, 29.59, 29.84, 0.000, 0.000, 0.000, 16:13:42.684
6, 4.14, 3.06, 21.88, 22.76, 0.000, 0.000, 0.000, 16:13:42.684
7, 12.69, 18.77, -13.53, -9.60, 0.000, 0.000, 0.000, 16:13:42.685
8, 3.81, 8.14, 12.29, 13.04, 0.000, 0.000, 0.000, 16:13:42.685
9, 5.48, 4.53, 29.94, 28.42, 0.000, 0.000, 0.000, 16:13:42.706
10, 5.72, 11.29, 2.55, 1.45, 0.000, 0.000, 0.000, 16:13:42.706
11, 10.26, 16.95, -4.76, -0.36, 0.000, 0.000, 0.000, 16:13:42.706
12, -1.18, 1.36, 32.13, 30.86, 0.000, 0.000, 0.000, 16:13:42.706
13, 5.64, 0.85, 15.05, 17.93, 0.000, 0.000, 0.000, 16:13:42.728
14, 17.37, 25.96, -22.10, -15.62, 0.000, 0.000, 0.000, 16:13:42.729
15, 1.59, 0.99, 30.94, 31.66, 0.000, 0.000, 0.000, 16:13:42.729
16, 1.32, 2.52, 28.73, 27.62, 0.000, 0.000, 0.000, 16:13:42.729
17, 17.30, 15.69, -28.50, -20.49, 0.000, 0.000, 0.000, 16:13:42.751
18, 8.40, 13.06, 17.87, 15.80, 0.000, 0.000, 0.000, 16:13:42.751
19, -6.88, -4.17, 41.38, 37.56, 0.000, 0.000, 0.000, 16:13:42.751
20, 12.78, 9.06, -3.52, -4.97, 0.000, 0.000, 0.000, 16:13:42.751
21, 14.28, 14.90, -11.36, -9.58, 0.000, 0.000, 0.000, 16:13:42.773
22, -0.60, -0.91, 49.28, 45.65, 0.000, 0.000, 0.000, 16:13:42.773
23, 2.98, 8.45, 22.27, 20.01, 0.000, 0.000, 0.000, 16:13:42.774
24, 23.27, 23.90, -51.81, -40.89, 0.000, 0.000, 0.000, 16:13:42.774
25, -5.01, -2.88, 51.92, 47.10, 0.000, 0.000, 0.000, 16:13:42.775
26, 3.74, 6.15, 32.29, 30.02, 0.000, 0.000, 0.000, 16:13:42.775
27, 6.09, 9.23, -5.91, -2.50, 0.000, 0.000, 0.000, 16:13:42.796
28, -1.69, 1.17, 32.11, 28.60, 0.000, 0.000, 0.000, 16:13:42.796
29, 15.57, 14.59, 879.44, 873.92, 0.000, 0.000, 0.000, 16:13:42.797
30, -5.57, 3.24, 281.66, 304.11, 0.000, 0.000, 0.000, 16:13:42.797
31, -74.30, -68.92, 19.76, 31.10, 0.000, 0.000, 0.000, 16:13:42.818
32, 13.82, 16.66, 423.90, 421.40, 0.000, 0.000, 0.000, 16:13:42.818
33, 13.50, 13.73, -378.33, -364.90, 0.000, 0.000, 0.000, 16:13:42.864
34, -102.07, -85.51, -515.80, -490.07, 0.000, 0.000, 0.000, 16:13:42.864
35, 2.05, 7.86, -450.39, -454.22, 0.000, 0.000, 0.000, 16:13:42.864
36, 33.17, 37.64, 343.06, 346.71, 0.000, 0.000, 0.000, 16:13:42.864
37, -27.90, -20.83, -126.90, -96.29, 0.000, 0.000, 0.000, 16:13:42.865
38, -8.27, -8.69, 165.14, 164.02, 0.000, 0.000, 0.000, 16:13:42.865
39, 30.05, 30.04, 836.23, 829.61, 0.000, 0.000, 0.000, 16:13:42.886
40, 16.59, 15.86, -55.27, -43.58, 0.000, 0.000, 0.000, 16:13:42.886
41, -14.87, -9.48, -533.98, -523.03, 0.000, 0.000, 0.000, 16:13:42.886
42, 12.18, 16.06, -188.99, -211.68, 0.000, 0.000, 0.000, 16:13:42.886
43, 11.35, 12.77, -776.80, -788.88, 0.000, 0.000, 0.000, 16:13:42.887
44, -8.41, -3.99, -1576.37, -1552.44, 0.000, 0.000, 0.000, 16:13:42.888
45, 19.41, 19.68, -1313.19, -1326.25, 0.000, 0.000, 0.000, 16:13:42.931
46, 27.30, 22.92, -629.74, -635.36, 0.000, 0.000, 0.000, 16:13:42.931
47, 2.45, 5.10, -1213.59, -1197.02, 0.000, 0.000, 0.000, 16:13:42.931
48, 10.57, 13.85, -595.07, -596.27, 0.000, 0.000, 0.000, 16:13:42.932
49, 29.35, 23.99, 9.03, 4.85, 0.000, 0.000, 0.000, 16:13:42.932
50, 7.78, 10.22, -258.97, -245.80, 0.000, 0.000, 0.000, 16:13:42.932
51, -18.85, -8.69, -1231.64, -1218.15, 0.000, 0.000, 0.000, 16:13:42.933
52, 12.66, 12.64, -971.48, -996.94, 0.000, 0.000, 0.000, 16:13:42.933
53, 9.32, 10.68, -1572.57, -1587.19, 0.000, 0.000, 0.000, 16:13:42.953
54, -5.04, -2.22, -2118.01, -2101.27, 0.000, 0.000, 0.000, 16:13:42.954
55, 22.55, 22.48, -1926.32, -1944.11, 0.000, 0.000, 0.000, 16:13:42.954
56, 16.21, 19.48, -1904.16, -1919.09, 0.000, 0.000, 0.000, 16:13:42.954
57, 5.14, 2.35, -2209.23, -2187.51, 0.000, 0.000, 0.000, 16:13:42.954
58, 9.40, 8.93, -1697.58, -1706.20, 0.000, 0.000, 0.000, 16:13:42.955
59, 16.36, 16.16, -954.42, -975.35, 0.000, 0.000, 0.000, 16:13:42.955
60, 10.98, 15.08, -974.18, -1943.41, 0.000, 0.000, 0.000, 16:13:42.955
61, -8.54, -4.00, -1332.18, -2304.58, 0.000, 0.000, 0.000, 16:13:42.976
62, 11.10, 10.11, -794.23, -1796.49, 0.000, 0.000, 0.000, 16:13:42.976
63, -3.65, -0.83, -718.42, -1717.12, 0.000, 0.000, 0.000, 16:13:42.976
64, 6.14, 5.24, -1460.12, -2430.61, 0.000, 0.000, 0.000, 16:13:42.976
65, 20.10, 21.11, -1067.53, -2048.04, 0.000, 0.000, 0.000, 16:13:42.977
66, 19.47, 29.41, -1059.43, -2039.81, 0.000, 0.000, 0.000, 16:13:42.977
67, 10.30, 14.72, -1148.09, -2126.09, 0.000, 0.000, 0.000, 16:13:42.999
68, 9.63, 13.73, -1221.00, -2200.69, 0.000, 0.000, 0.000, 16:13:42.999
69, 11.65, 11.25, -1283.48, -2265.87, 0.000, 0.000, 0.000, 16:13:42.999
70, 20.65, 20.61, -1403.78, -2375.96, 0.000, 0.000, 0.000, 16:13:42.999
71, 18.82, 18.45, -1462.82, -2436.27, 0.000, 0.000, 0.000, 16:13:43.021
72, 6.30, 10.68, -1463.76, -2444.55, 0.000, 0.000, 0.000, 16:13:43.021
73, 5.81, 6.96, -1534.06, -2512.73, 0.000, 0.000, 0.000, 16:13:43.022
74, 22.61, 20.41, -1613.56, -2596.32, 0.000, 0.000, 0.000, 16:13:43.022
75, 1.71, 2.49, -1596.03, -2579.61, 0.000, 0.000, 0.000, 16:13:43.043
76, 6.34, 11.55, -1642.32, -2619.25, 0.000, 0.000, 0.000, 16:13:43.044
77, 17.39, 19.00, -1712.74, -2689.47, 0.000, 0.000, 0.000, 16:13:43.044
78, 10.54, 8.64, -1710.50, -2692.11, 0.000, 0.000, 0.000, 16:13:43.044
79, 5.07, 1.91, -1716.07, -2698.79, 0.000, 0.000, 0.000, 16:13:43.045
80, 13.37, 15.13, -1772.85, -2751.60, 0.000, 0.000, 0.000, 16:13:43.045
81, 18.72, 18.85, -1797.38, -2776.46, 0.000, 0.000, 0.000, 16:13:43.066
82, -2.20, -0.31, -1771.52, -2754.49, 0.000, 0.000, 0.000, 16:13:43.066
83, 5.53, 8.85, -1810.68, -2787.41, 0.000, 0.000, 0.000, 16:13:43.066
84, 19.91, 22.25, -1857.73, -2829.31, 0.000, 0.000, 0.000, 16:13:43.066
85, 3.28, 2.14, -1818.59, -2801.81, 0.000, 0.000, 0.000, 16:13:43.088
86, 0.37, 3.47, -1838.96, -2819.77, 0.000, 0.000, 0.000, 16:13:43.088
87, 16.59, 20.48, -1885.53, -2865.29, 0.000, 0.000, 0.000, 16:13:43.089
88, 7.95, 6.45, -1865.49, -2842.58, 0.000, 0.000, 0.000, 16:13:43.089
89, -2.05, 1.58, -1857.95, -2839.05, 0.000, 0.000, 0.000, 16:13:43.111
90, 17.03, 18.82, -1894.81, -2872.72, 0.000, 0.000, 0.000, 16:13:43.111
91, 10.77, 10.54, -1903.05, -2884.04, 0.000, 0.000, 0.000, 16:13:43.111
92, -1.69, 0.00, -1872.98, -2857.11, 0.000, 0.000, 0.000, 16:13:43.112
93, 9.16, 5.35, -1898.02, -2878.72, 0.000, 0.000, 0.000, 16:13:43.133
94, 15.61, 17.73, -1932.64, -2912.97, 0.000, 0.000, 0.000, 16:13:43.134
95, -6.09, 0.34, -1892.77, -2871.99, 0.000, 0.000, 0.000, 16:13:43.134
96, 0.74, 9.12, -1903.71, -2882.91, 0.000, 0.000, 0.000, 16:13:43.134
97, 20.46, 17.58, -1941.11, -2919.93, 0.000, 0.000, 0.000, 16:13:43.135
98, 6.80, 4.46, -1915.29, -2893.36, 0.000, 0.000, 0.000, 16:13:43.135
99, 0.32, 3.37, -1907.95, -2886.87, 0.000, 0.000, 0.000, 16:13:43.156
100, 10.80, 13.05, -1939.28, -2912.81, 0.000, 0.000, 0.000, 16:13:43.156
101, 11.11, 16.35, -1945.36, -2920.95, 0.000, 0.000, 0.000, 16:13:43.156
102, -0.99, -0.56, -1911.80, -2893.45, 0.000, 0.000, 0.000, 16:13:43.157
103, 4.07, 7.49, -1929.67, -2907.37, 0.000, 0.000, 0.000, 16:13:43.179
104, 17.46, 20.00, -1957.28, -2933.20, 0.000, 0.000, 0.000, 16:13:43.179
105, -3.72, 6.54, -1917.11, -2899.01, 0.000, 0.000, 0.000, 16:13:43.179
106, 5.75, 2.46, -1927.16, -2908.48, 0.000, 0.000, 0.000, 16:13:43.179
107, 19.11, 16.63, -1965.12, -2936.97, 0.000, 0.000, 0.000, 16:13:43.201
108, 11.63, 12.39, -1936.63, -2916.35, 0.000, 0.000, 0.000, 16:13:43.201
109, -6.47, -4.11, -1920.57, -2904.41, 0.000, 0.000, 0.000, 16:13:43.201
110, 12.65, 13.09, -1947.88, -2931.20, 0.000, 0.000, 0.000, 16:13:43.202
111, 14.57, 13.10, -1951.14, -2931.63, 0.000, 0.000, 0.000, 16:13:43.223
112, -3.08, 0.81, -1922.07, -2903.72, 0.000, 0.000, 0.000, 16:13:43.224
113, 3.61, 2.15, -1937.08, -2917.39, 0.000, 0.000, 0.000, 16:13:43.224
114, 17.22, 18.18, -1969.72, -2946.94, 0.000, 0.000, 0.000, 16:13:43.224
115, -0.74, -0.04, -1922.95, -2907.19, 0.000, 0.000, 0.000, 16:13:43.225
116, -2.81, -0.24, -1930.07, -2912.95, 0.000, 0.000, 0.000, 16:13:43.225
117, 20.96, 23.33, -1969.94, -2945.08, 0.000, 0.000, 0.000, 16:13:43.246
118, -1.94, 9.26, -1940.63, -2918.03, 0.000, 0.000, 0.000, 16:13:43.247
119, 1.12, -2.05, -1922.85, -2907.34, 0.000, 0.000, 0.000, 16:13:43.247
120, 9.17, 11.68, -1955.43, -2934.79, 0.000, 0.000, 0.000, 16:13:43.247
121, 10.72, 15.77, -1961.33, -2935.93, 0.000, 0.000, 0.000, 16:13:43.269
122, -3.66, 0.18, -1924.83, -2906.70, 0.000, 0.000, 0.000, 16:13:43.269
123, 5.35, 7.15, -1942.22, -2922.77, 0.000, 0.000, 0.000, 16:13:43.269
124, 19.98, 18.01, -1978.42, -2951.61, 0.000, 0.000, 0.000, 16:13:43.269
125, -3.61, 1.35, -1924.89, -2905.55, 0.000, 0.000, 0.000, 16:13:43.291
126, 4.87, 8.14, -1933.14, -2916.95, 0.000, 0.000, 0.000, 16:13:43.291
127, 11.48, 12.93, -1971.73, -2950.90, 0.000, 0.000, 0.000, 16:13:43.291
128, 7.34, 6.22, -1943.77, -2924.08, 0.000, 0.000, 0.000, 16:13:43.291
129, -0.05, -3.06, -1926.12, -2909.34, 0.000, 0.000, 0.000, 16:13:43.313
130, 10.36, 11.92, -1961.90, -2938.06, 0.000, 0.000, 0.000, 16:13:43.314
131, 8.15, 13.23, -1967.07, -2942.55, 0.000, 0.000, 0.000, 16:13:43.314
132, -1.76, 1.91, -1923.31, -2906.35, 0.000, 0.000, 0.000, 16:13:43.314
133, 5.77, 5.10, -1943.97, -2919.60, 0.000, 0.000, 0.000, 16:13:43.315
134, 17.80, 18.61, -1979.31, -2953.45, 0.000, 0.000, 0.000, 16:13:43.315
135, -1.52, 3.51, -1929.66, -2911.01, 0.000, 0.000, 0.000, 16:13:43.336
136, 0.44, 2.29, -1937.26, -2913.00, 0.000, 0.000, 0.000, 16:13:43.336
137, 16.93, 17.71, -1982.07, -2954.41, 0.000, 0.000, 0.000, 16:13:43.337
138, 4.09, 6.12, -1943.31, -2926.07, 0.000, 0.000, 0.000, 16:13:43.337
139, -1.45, 3.64, -1925.57, -2913.30, 0.000, 0.000, 0.000, 16:13:43.358
140, 12.52, 7.30, -1963.48, -2940.07, 0.000, 0.000, 0.000, 16:13:43.359
141, 11.68, 12.57, -1965.56, -2941.63, 0.000, 0.000, 0.000, 16:13:43.359
142, -3.94, 0.56, -1920.14, -2907.64, 0.000, 0.000, 0.000, 16:13:43.359
143, 7.22, 9.61, -1941.60, -2923.83, 0.000, 0.000, 0.000, 16:13:43.381
144, 22.42, 23.76, -1986.71, -2956.61, 0.000, 0.000, 0.000, 16:13:43.381
145, -7.77, -4.38, -1922.62, -2906.87, 0.000, 0.000, 0.000, 16:13:43.381
146, 1.88, 3.92, -1932.35, -2915.40, 0.000, 0.000, 0.000, 16:13:43.382
147, 15.60, 22.24, -1981.17, -2953.25, 0.000, 0.000, 0.000, 16:13:43.403
148, 6.08, 8.52, -1946.99, -2921.91, 0.000, 0.000, 0.000, 16:13:43.404
149, -3.65, -0.11, -1921.55, -2906.24, 0.000, 0.000, 0.000, 16:13:43.404
150, 9.71, 12.77, -1962.53, -2940.45, 0.000, 0.000, 0.000, 16:13:43.404
151, 8.86, 14.12, -1966.89, -2942.65, 0.000, 0.000, 0.000, 16:13:43.405
152, 0.02, 1.30, -1919.87, -2903.31, 0.000, 0.000, 0.000, 16:13:43.405
153, 11.63, 11.59, -1940.59, -2923.94, 0.000, 0.000, 0.000, 16:13:43.426
154, 15.30, 16.93, -1992.74, -2961.97, 0.000, 0.000, 0.000, 16:13:43.426
155, -0.75, 5.19, -1916.95, -2907.00, 0.000, 0.000, 0.000, 16:13:43.426
156, 1.60, 4.69, -1926.86, -2911.32, 0.000, 0.000, 0.000, 16:13:43.426
157, 20.36, 19.71, -1985.08, -2958.15, 0.000, 0.000, 0.000, 16:13:43.448
158, 2.49, 9.77, -1941.83, -2918.77, 0.000, 0.000, 0.000, 16:13:43.449
159, -0.97, 5.44, -1918.46, -2898.70, 0.000, 0.000, 0.000, 16:13:43.449
160, 4.24, 14.53, -1967.39, -2942.03, 0.000, 0.000, 0.000, 16:13:43.449
161, 11.83, 14.27, -1974.13, -2951.88, 0.000, 0.000, 0.000, 16:13:43.471
162, 4.60, 1.67, -1911.55, -2895.10, 0.000, 0.000, 0.000, 16:13:43.471
163, -0.49, -0.81, -1935.70, -2921.59, 0.000, 0.000, 0.000, 16:13:43.472
164, 16.81, 14.15, -1991.12, -2963.93, 0.000, 0.000, 0.000, 16:13:43.472
165, 10.60, 6.73, -1944.72, -2925.02, 0.000, 0.000, 0.000, 16:13:43.493
166, 15.61, 11.34, -1949.36, -2931.21, 0.000, 0.000, 0.000, 16:13:43.494
167, -1.08, -0.66, -1949.31, -2932.16, 0.000, 0.000, 0.000, 16:13:43.494
168, 1.57, 7.02, -1941.30, -2923.78, 0.000, 0.000, 0.000, 16:13:43.494
169, 13.07, 13.16, -1951.92, -2926.97, 0.000, 0.000, 0.000, 16:13:43.495
170, 4.38, 6.68, -1959.85, -2940.47, 0.000, 0.000, 0.000, 16:13:43.495
171, -5.89, -4.98, -2849.89, -3823.14, 0.000, 0.000, 0.000, 16:13:43.516
172, 8.18, 11.45, -2007.94, -2998.95, 0.000, 0.000, 0.000, 16:13:43.516
173, 7.66, 14.13, -2906.62, -3889.04, 0.000, 0.000, 0.000, 16:13:43.561
174, -59.10, -47.60, -3274.58, -4224.24, 0.000, 0.000, 0.000, 16:13:43.562
175, 1.64, 2.79, -2357.61, -3356.53, 0.000, 0.000, 0.000, 16:13:43.562
176, 15.93, 14.12, -1525.98, -2512.97, 0.000, 0.000, 0.000, 16:13:43.562
177, -20.62, -17.28, -2456.46, -3405.67, 0.000, 0.000, 0.000, 16:13:43.562
178, -14.88, -17.92, -2177.37, -3156.37, 0.000, 0.000, 0.000, 16:13:43.563
179, 14.34, 15.54, -1618.72, -2617.53, 0.000, 0.000, 0.000, 16:13:43.583
180, 0.01, 5.96, -1795.76, -2764.46, 0.000, 0.000, 0.000, 16:13:43.584
181, -25.40, -20.69, -2424.68, -3394.17, 0.000, 0.000, 0.000, 16:13:43.584
182, 22.65, 16.64, -1866.32, -2862.52, 0.000, 0.000, 0.000, 16:13:43.584
183, 14.80, 19.79, -2046.60, -3030.50, 0.000, 0.000, 0.000, 16:13:43.585
184, 6.58, 11.97, -2464.46, -3445.69, 0.000, 0.000, 0.000, 16:13:43.585
185, 18.79, 19.01, -2279.17, -3257.74, 0.000, 0.000, 0.000, 16:13:43.585
186, 24.31, 24.10, -2343.61, -3323.36, 0.000, 0.000, 0.000, 16:13:43.585
187, 8.43, 10.92, -2404.25, -3384.98, 0.000, 0.000, 0.000, 16:13:43.606
188, 11.15, 10.23, -2453.99, -3436.12, 0.000, 0.000, 0.000, 16:13:43.606
189, 5.88, 7.47, -2480.82, -3464.76, 0.000, 0.000, 0.000, 16:13:43.606
190, 19.42, 18.71, -2584.52, -3559.25, 0.000, 0.000, 0.000, 16:13:43.607
191, 14.56, 19.37, -2633.48, -3606.52, 0.000, 0.000, 0.000, 16:13:43.607
192, 2.85, 4.42, -2594.92, -3582.32, 0.000, 0.000, 0.000, 16:13:43.607
193, 12.81, 11.22, -2656.43, -3637.87, 0.000, 0.000, 0.000, 16:13:43.628
194, 19.42, 22.15, -2739.26, -3716.73, 0.000, 0.000, 0.000, 16:13:43.629
195, 5.70, 6.13, -2691.84, -3671.88, 0.000, 0.000, 0.000, 16:13:43.629
196, 5.46, 6.01, -2723.98, -3706.03, 0.000, 0.000, 0.000, 16:13:43.629
197, 19.49, 27.26, -2795.95, -3772.83, 0.000, 0.000, 0.000, 16:13:43.651
198, 12.29, 11.96, -2773.21, -3752.63, 0.000, 0.000, 0.000, 16:13:43.651
199, -2.97, -3.74, -2769.11, -3748.64, 0.000, 0.000, 0.000, 16:13:43.652
200, 14.74, 14.85, -2823.26, -3794.06, 0.000, 0.000, 0.000, 16:13:43.652
0, 15.01, 15.27, 99.71, 104.24, 0.000, 0.000, 0.000, 16:13:43.652
1, 1.14, 1.91, 136.09, 133.09, 0.000, 0.000, 0.000, 16:13:43.673
2, 4.08, 9.47, 106.54, 103.69, 0.000, 0.000, 0.000, 16:13:43.673
3, 15.26, 23.99, 54.71, 57.95, 0.000, 0.000, 0.000, 16:13:43.674
4, 2.85, -0.84, 100.11, 99.98, 0.000, 0.000, 0.000, 16:13:43.674
5, 4.13, 5.04, 86.58, 87.87, 0.000, 0.000, 0.000, 16:13:43.696
6, 22.27, 25.52, 41.80, 45.86, 0.000, 0.000, 0.000, 16:13:43.696
7, -0.93, -2.49, 66.07, 66.86, 0.000, 0.000, 0.000, 16:13:43.697
8, 3.29, 3.28, 74.26, 71.71, 0.000, 0.000, 0.000, 16:13:43.697
9, 9.32, 14.42, 43.47, 45.31, 0.000, 0.000, 0.000, 16:13:43.718
10, 10.74, 18.66, 35.56, 32.91, 0.000, 0.000, 0.000, 16:13:43.719
11, -2.39, 1.11, 61.51, 62.25, 0.000, 0.000, 0.000, 16:13:43.725
12, 3.30, 4.97, 44.25, 44.82, 0.000, 0.000, 0.000, 16:13:43.725
13, 19.13, 22.35, 15.68, 17.38, 0.000, 0.000, 0.000, 16:13:43.726
14, -0.76, 0.56, 48.77, 56.26, 0.000, 0.000, 0.000, 16:13:43.726
15, 4.74, 5.90, 42.14, 43.38, 0.000, 0.000, 0.000, 16:13:43.741
16, 11.39, 15.72, 13.08, 13.76, 0.000, 0.000, 0.000, 16:13:43.741
17, 3.78, 10.14, 30.62, 31.69, 0.000, 0.000, 0.000, 16:13:43.741
18, 2.78, 4.11, 37.79, 38.72, 0.000, 0.000, 0.000, 16:13:43.741
19, 11.84, 15.97, 18.66, 19.76, 0.000, 0.000, 0.000, 16:13:43.765
20, 7.90, 14.88, 13.98, 12.76, 0.000, 0.000, 0.000, 16:13:43.765
21, 3.59, 0.72, 33.98, 38.11, 0.000, 0.000, 0.000, 16:13:43.766
22, 7.53, 10.85, 23.05, 26.79, 0.000, 0.000, 0.000, 16:13:43.766
23, 12.69, 15.84, 5.29, 4.53, 0.000, 0.000, 0.000, 16:13:43.786
24, 4.84, 4.33, 31.60, 29.36, 0.000, 0.000, 0.000, 16:13:43.786
25, -1.19, -4.02, 28.83, 27.14, 0.000, 0.000, 0.000, 16:13:43.786
26, 20.83, 20.29, 6.19, 2.48, 0.000, 0.000, 0.000, 16:13:43.787
27, 2.74, 7.83, 19.94, 19.29, 0.000, 0.000, 0.000, 16:13:43.809
28, -2.89, -0.16, 26.59, 28.78, 0.000, 0.000, 0.000, 16:13:43.809
29, 6.63, 14.50, 9.33, 10.52, 0.000, 0.000, 0.000, 16:13:43.809
30, 8.66, 15.51, 4.87, 8.52, 0.000, 0.000, 0.000, 16:13:43.809
31, -4.08, -3.71, 23.85, 24.94, 0.000, 0.000, 0.000, 16:13:43.809
32, 2.70, 4.96, 16.31, 19.71, 0.000, 0.000, 0.000, 16:13:43.810
33, 19.78, 23.87, -0.05, -0.29, 0.000, 0.000, 0.000, 16:13:43.831
34, -1.75, -3.27, 21.96, 24.16, 0.000, 0.000, 0.000, 16:13:43.831
35, -2.59, 2.53, 19.28, 20.69, 0.000, 0.000, 0.000, 16:13:43.831
36, 17.15, 17.79, 1.38, 0.11, 0.000, 0.000, 0.000, 16:13:43.832
37, 6.60, 6.13, 18.09, 17.39, 0.000, 0.000, 0.000, 16:13:43.853
38, -1.01, 0.97, 25.91, 27.74, 0.000, 0.000, 0.000, 16:13:43.854
39, 14.29, 12.53, 10.08, 13.01, 0.000, 0.000, 0.000, 16:13:43.854
40, 15.00, 13.75, 8.63, 6.35, 0.000, 0.000, 0.000, 16:13:43.854
41, -2.72, -0.46, 26.78, 23.83, 0.000, 0.000, 0.000, 16:13:43.876
42, 10.49, 9.97, 13.68, 11.66, 0.000, 0.000, 0.000, 16:13:43.876
43, 12.45, 18.57, -7.08, -3.73, 0.000, 0.000, 0.000, 16:13:43.877
44, -3.27, -0.40, 20.35, 26.00, 0.000, 0.000, 0.000, 16:13:43.877
45, 1.83, 2.53, 17.70, 16.76, 0.000, 0.000, 0.000, 16:13:43.898
46, 19.00, 20.10, 1.05, -5.15, 0.000, 0.000, 0.000, 16:13:43.899
47, 2.50, 5.64, 14.91, 14.77, 0.000, 0.000, 0.000, 16:13:43.899
48, 0.87, 2.47, 26.72, 24.72, 0.000, 0.000, 0.000, 16:13:43.899
49, 10.27, 13.73, 5.46, 11.13, 0.000, 0.000, 0.000, 16:13:43.899
50, 11.08, 14.21, 4.04, 6.58, 0.000, 0.000, 0.000, 16:13:43.900
51, -1.10, 2.47, 20.42, 25.58, 0.000, 0.000, 0.000, 16:13:43.944
52, 4.86, 7.05, 14.82, 14.18, 0.000, 0.000, 0.000, 16:13:43.944
53, 21.71, 17.93, -0.06, -7.83, 0.000, 0.000, 0.000, 16:13:43.944
54, -1.65, -2.56, 21.37, 24.45, 0.000, 0.000, 0.000, 16:13:43.944
55, 3.25, 1.27, 20.13, 22.41, 0.000, 0.000, 0.000, 16:13:43.945
56, 19.17, 19.44, -1.09, -2.20, 0.000, 0.000, 0.000, 16:13:43.945
57, 1.47, 7.23, 16.81, 17.59, 0.000, 0.000, 0.000, 16:13:43.966
58, -4.28, -1.33, 27.18, 26.22, 0.000, 0.000, 0.000, 16:13:43.966
59, 12.01, 14.70, 1.23, 3.55, 0.000, 0.000, 0.000, 16:13:43.966
60, 11.78, 20.15, 0.31, 0.01, 0.000, 0.000, 0.000, 16:13:43.966
61, -1.85, 0.53, 23.47, 25.95, 0.000, 0.000, 0.000, 16:13:43.967
62, 4.65, 6.97, 15.13, 15.29, 0.000, 0.000, 0.000, 16:13:43.967
63, 15.83, 22.08, -1.83, -8.33, 0.000, 0.000, 0.000, 16:13:43.967
64, -1.67, -3.21, 20.70, 24.86, 0.000, 0.000, 0.000, 16:13:43.968
65, 4.36, -0.23, 19.48, 20.81, 0.000, 0.000, 0.000, 16:13:43.988
66, 24.32, 27.62, -2.42, -6.29, 0.000, 0.000, 0.000, 16:13:43.988
67, 4.10, 2.37, 10.07, 16.28, 0.000, 0.000, 0.000, 16:13:44.011
68, -8.36, 1.64, 21.93, 27.03, 0.000, 0.000, 0.000, 16:13:44.011
69, 17.27, 16.55, 1.31, 2.73, 0.000, 0.000, 0.000, 16:13:44.034
70, 13.28, 11.02, 3.99, 0.84, 0.000, 0.000, 0.000, 16:13:44.034
71, -10.04, -6.69, 21.88, 25.94, 0.000, 0.000, 0.000, 16:13:44.034
72, 3.60, 6.94, 14.48, 12.03, 0.000, 0.000, 0.000, 16:13:44.035
73, 18.40, 26.01, -2.14, -3.13, 0.000, 0.000, 0.000, 16:13:44.035
74, -0.37, -3.83, 18.85, 22.27, 0.000, 0.000, 0.000, 16:13:44.035
75, -1.03, 2.87, 16.88, 20.93, 0.000, 0.000, 0.000, 16:13:44.056
76, 20.34, 24.00, -0.93, -0.38, 0.000, 0.000, 0.000, 16:13:44.056
77, 3.10, 3.50, 14.93, 14.54, 0.000, 0.000, 0.000, 16:13:44.056
78, -3.81, -3.74, 21.99, 22.11, 0.000, 0.000, 0.000, 16:13:44.057
79, 13.09, 15.04, 6.23, 3.85, 0.000, 0.000, 0.000, 16:13:44.057
80, 12.06, 19.45, 4.20, 2.81, 0.000, 0.000, 0.000, 16:13:44.057
81, -3.25, -5.09, 21.38, 27.96, 0.000, 0.000, 0.000, 16:13:44.057
82, 6.40, 6.04, 13.76, 15.20, 0.000, 0.000, 0.000, 16:13:44.058
83, 19.13, 28.91, -3.76, -7.08, 0.000, 0.000, 0.000, 16:13:44.078
84, -6.53, -3.94, 16.70, 23.24, 0.000, 0.000, 0.000, 16:13:44.079
85, -1.13, -3.37, 14.12, 21.20, 0.000, 0.000, 0.000, 16:13:44.079
86, 21.36, 27.83, -0.23, -3.89, 0.000, 0.000, 0.000, 16:13:44.079
87, 7.89, 11.12, 13.47, 10.71, 0.000, 0.000, 0.000, 16:13:44.101
88, -8.61, -12.79, 19.36, 24.16, 0.000, 0.000, 0.000, 16:13:44.101
89, 11.04, 16.64, 8.18, 8.03, 0.000, 0.000, 0.000, 16:13:44.101
90, 13.12, 17.41, 9.39, 8.12, 0.000, 0.000, 0.000, 16:13:44.102
91, -5.31, -6.11, 22.69, 26.83, 0.000, 0.000, 0.000, 16:13:44.124
92, 3.70, 0.57, 11.52, 15.69, 0.000, 0.000, 0.000, 16:13:44.124
93, 23.30, 30.67, 0.39, 0.76, 0.000, 0.000, 0.000, 16:13:44.124
94, -6.75, -4.26, 20.03, 25.39, 0.000, 0.000, 0.000, 16:13:44.124
95, -0.79, -1.24, 16.83, 22.41, 0.000, 0.000, 0.000, 16:13:44.146
96, 28.59, 27.73, -3.16, -4.57, 0.000, 0.000, 0.000, 16:13:44.146
97, -0.47, -0.10, 10.44, 12.85, 0.000, 0.000, 0.000, 16:13:44.146
98, -1.12, -3.93, 20.10, 19.56, 0.000, 0.000, 0.000, 16:13:44.146
99, 8.50, 15.34, 7.61, 5.86, 0.000, 0.000, 0.000, 16:13:44.168
100, 16.92, 17.47, 8.68, 4.22, 0.000, 0.000, 0.000, 16:13:44.169
101, -6.35, -7.78, 22.07, 25.59, 0.000, 0.000, 0.000, 16:13:44.169
102, 4.09, 6.94, 13.07, 11.86, 0.000, 0.000, 0.000, 16:13:44.169
103, 20.69, 32.79, 3.59, -2.59, 0.000, 0.000, 0.000, 16:13:44.170
104, -4.72, -6.70, 17.89, 24.19, 0.000, 0.000, 0.000, 16:13:44.170
105, 0.63, 0.33, 18.92, 16.66, 0.000, 0.000, 0.000, 16:13:44.191
106, 21.56, 25.90, 5.30, -0.94, 0.000, 0.000, 0.000, 16:13:44.191
107, 3.14, 7.18, 9.45, 13.67, 0.000, 0.000, 0.000, 16:13:44.191
108, -1.37, -6.15, 13.55, 23.63, 0.000, 0.000, 0.000, 16:13:44.191
109, 12.49, 19.29, 7.63, 3.79, 0.000, 0.000, 0.000, 16:13:44.213
110, 13.51, 25.11, 14.49, 4.85, 0.000, 0.000, 0.000, 16:13:44.213
111, -1.28, -6.87, -603.78, 22.50, 0.000, 0.000, 0.000, 16:13:44.214
112, 5.07, 9.42, -1355.27, 0.30, 0.000, 0.000, 0.000, 16:13:44.214
113, -7.38, 0.33, -528.50, -20.19, 0.000, 0.000, 0.000, 16:13:44.236
114, 1.11, -1.14, -1197.25, 31.31, 0.000, 0.000, 0.000, 16:13:44.237
115, -8.66, -2.28, -1483.18, 1.99, 0.000, 0.000, 0.000, 16:13:44.237
116, -1.16, 0.59, -1217.62, -21.70, 0.000, 0.000, 0.000, 16:13:44.237
117, -12.25, -9.33, -1272.58, 24.87, 0.000, 0.000, 0.000, 16:13:44.258
118, 4.64, -1.05, -1692.76, -0.77, 0.000, 0.000, 0.000, 16:13:44.258
119, 1.84, 8.36, -1613.95, 77.76, 0.000, 0.000, 0.000, 16:13:44.259
120, -26.89, -22.19, -963.14, 345.32, 0.000, 0.000, 0.000, 16:13:44.259
121, 7.01, 6.07, -1165.03, -562.83, 0.000, 0.000, 0.000, 16:13:44.260
122, 6.95, 5.06, -476.51, -129.68, 0.000, 0.000, 0.000, 16:13:44.260
123, -19.14, 562.95, -102.03, 528.01, 0.000, 0.000, 0.000, 16:13:44.281
124, 3.25, 298.53, -1025.67, 347.48, 0.000, 0.000, 0.000, 16:13:44.281
125, 6.12, -54.78, -1752.63, -292.07, 0.000, 0.000, 0.000, 16:13:44.281
126, -3.13, 855.94, -1252.01, -82.62, 0.000, 0.000, 0.000, 16:13:44.282
127, 0.63, 840.26, -1395.80, -356.76, 0.000, 0.000, 0.000, 16:13:44.303
128, 6.98, 81.59, -1548.51, -747.19, 0.000, 0.000, 0.000, 16:13:44.304
129, 8.73, 580.59, -1130.44, -545.86, 0.000, 0.000, 0.000, 16:13:44.304
130, -19.73, 714.95, -468.86, 19.50, 0.000, 0.000, 0.000, 16:13:44.304
131, 10.18, 242.92, -939.53, -583.18, 0.000, 0.000, 0.000, 16:13:44.326
132, 16.90, 878.93, -656.70, 149.25, 0.000, 0.000, 0.000, 16:13:44.326
133, -21.88, 1363.03, 40.75, 743.60, 0.000, 0.000, 0.000, 16:13:44.327
134, 13.34, 568.72, -70.27, -232.63, 0.000, 0.000, 0.000, 16:13:44.327
135, 7.52, -335.87, -827.09, -1013.40, 0.000, 0.000, 0.000, 16:13:44.348
136, 1.86, 245.44, 58.58, -810.63, 0.000, 0.000, 0.000, 16:13:44.349
137, 3.74, -579.04, -281.11, -1092.59, 0.000, 0.000, 0.000, 16:13:44.349
138, 5.25, -620.69, -1220.33, -1396.71, 0.000, 0.000, 0.000, 16:13:44.349
139, 13.86, -359.04, -633.01, -1205.55, 0.000, 0.000, 0.000, 16:13:44.350
140, -11.56, 326.43, 77.25, -1164.81, 0.000, 0.000, 0.000, 16:13:44.350
141, 15.26, 167.93, -830.18, -1388.59, 0.000, 0.000, 0.000, 16:13:44.371
142, 15.79, 148.88, -372.35, -450.12, 0.000, 0.000, 0.000, 16:13:44.371
143, -13.20, 112.37, 314.82, 465.67, 0.000, 0.000, 0.000, 16:13:44.371
144, 9.44, 119.19, -279.78, -214.77, 0.000, 0.000, 0.000, 16:13:44.371
145, 7.66, 109.42, -1052.18, -231.75, 0.000, 0.000, 0.000, 16:13:44.393
146, 1.22, 89.95, -1036.30, 88.35, 0.000, 0.000, 0.000, 16:13:44.394
147, 3.34, 79.96, -1570.39, -282.48, 0.000, 0.000, 0.000, 16:13:44.416
148, 9.74, 83.46, -1725.25, -360.47, 0.000, 0.000, 0.000, 16:13:44.416
149, 19.15, 83.46, -1100.40, 281.01, 0.000, 0.000, 0.000, 16:13:44.417
150, -9.84, 44.15, -248.12, 367.21, 0.000, 0.000, 0.000, 16:13:44.417
151, 14.54, 65.45, -271.91, 463.76, 0.000, 0.000, 0.000, 16:13:44.417
152, 27.00, 68.74, 181.51, 521.39, 0.000, 0.000, 0.000, 16:13:44.417
153, 37.28, 86.31, 229.14, 557.88, 0.000, 0.000, 0.000, 16:13:44.418
154, 9.08, 40.61, 221.59, 620.38, 0.000, 0.000, 0.000, 16:13:44.418
155, 10.59, 38.02, 199.54, 659.97, 0.000, 0.000, 0.000, 16:13:44.438
156, 29.24, 66.97, 168.67, 676.62, 0.000, 0.000, 0.000, 16:13:44.439
157, 17.43, 41.50, 157.19, 726.17, 0.000, 0.000, 0.000, 16:13:44.439
158, 4.41, 24.67, 150.16, 762.91, 0.000, 0.000, 0.000, 16:13:44.439
159, 27.08, 45.82, 122.31, 774.70, 0.000, 0.000, 0.000, 16:13:44.461
160, 17.57, 35.99, 104.81, 789.96, 0.000, 0.000, 0.000, 16:13:44.461
161, 1.52, 19.10, 119.32, 834.92, 0.000, 0.000, 0.000, 16:13:44.461
162, 10.32, 25.48, 99.18, 842.21, 0.000, 0.000, 0.000, 16:13:44.462
163, 26.12, 46.92, 68.37, 841.44, 0.000, 0.000, 0.000, 16:13:44.483
164, -3.36, 3.38, 90.09, 876.54, 0.000, 0.000, 0.000, 16:13:44.484
165, 4.49, 16.03, 78.53, 890.07, 0.000, 0.000, 0.000, 16:13:44.484
166, 25.79, 38.39, 54.16, 880.19, 0.000, 0.000, 0.000, 16:13:44.484
167, 6.31, 17.36, 62.40, 908.76, 0.000, 0.000, 0.000, 16:13:44.506
168, 8.79, 8.47, 64.79, 921.76, 0.000, 0.000, 0.000, 16:13:44.506
169, 10.22, 16.17, 48.30, 918.15, 0.000, 0.000, 0.000, 16:13:44.506
170, 18.97, 20.09, 37.60, 917.68, 0.000, 0.000, 0.000, 16:13:44.506
171, -3.05, 2.79, 54.04, 946.25, 0.000, 0.000, 0.000, 16:13:44.528
172, 8.16, 15.48, 42.14, 943.90, 0.000, 0.000, 0.000, 16:13:44.529
173, 23.22, 33.94, 25.13, 929.23, 0.000, 0.000, 0.000, 16:13:44.529
174, 0.24, 4.23, 41.71, 958.94, 0.000, 0.000, 0.000, 16:13:44.529
175, 2.63, 6.88, 39.71, 957.97, 0.000, 0.000, 0.000, 16:13:44.530
176, 21.42, 25.74, 13.71, 948.32, 0.000, 0.000, 0.000, 16:13:44.530
177, 6.12, 9.75, 29.75, 960.97, 0.000, 0.000, 0.000, 16:13:44.551
178, -5.79, -0.61, 34.68, 975.61, 0.000, 0.000, 0.000, 16:13:44.551
179, 9.90, 19.15, 21.28, 960.29, 0.000, 0.000, 0.000, 16:13:44.552
180, 13.57, 21.61, 17.58, 963.53, 0.000, 0.000, 0.000, 16:13:44.552
181, -5.50, -0.67, 31.99, 985.13, 0.000, 0.000, 0.000, 16:13:44.573
182, 6.17, 5.60, 24.92, 976.45, 0.000, 0.000, 0.000, 16:13:44.574
183, 23.34, 25.86, 8.99, 963.27, 0.000, 0.000, 0.000, 16:13:44.574
184, 2.50, 3.22, 28.94, 992.54, 0.000, 0.000, 0.000, 16:13:44.574
185, 4.27, 5.71, 21.67, 982.58, 0.000, 0.000, 0.000, 16:13:44.596
186, 19.88, 26.36, 7.11, 969.99, 0.000, 0.000, 0.000, 16:13:44.596
187, -2.59, 5.59, 18.46, 985.77, 0.000, 0.000, 0.000, 16:13:44.597
188, -1.21, 2.57, 25.23, 990.36, 0.000, 0.000, 0.000, 16:13:44.597
189, 12.55, 8.54, 10.60, 980.22, 0.000, 0.000, 0.000, 16:13:44.618
190, 14.31, 13.73, 6.52, 976.88, 0.000, 0.000, 0.000, 16:13:44.619
191, -4.12, -4.30, 23.74, 997.46, 0.000, 0.000, 0.000, 16:13:44.619
192, 5.14, 8.42, 15.80, 989.44, 0.000, 0.000, 0.000, 16:13:44.619
193, 19.53, 24.53, 3.48, 970.86, 0.000, 0.000, 0.000, 16:13:44.619
194, -2.92, 4.51, 23.05, 994.89, 0.000, 0.000, 0.000, 16:13:44.620
195, 3.12, 3.43, 20.73, 994.14, 0.000, 0.000, 0.000, 16:13:44.641
196, 15.95, 16.11, 6.80, 978.05, 0.000, 0.000, 0.000, 16:13:44.642
197, 4.72, 5.14, 16.14, 989.95, 0.000, 0.000, 0.000, 16:13:44.642
198, -2.52, -1.14, 18.18, 996.13, 0.000, 0.000, 0.000, 16:13:44.642
199, 9.43, 15.89, 11.97, 983.24, 0.000, 0.000, 0.000, 16:13:44.663
200, 13.37, 14.36, 7.53, 978.37, 0.000, 0.000, 0.000, 16:13:44.663
0, -3.39, -0.88, 22.11, 21.29, 0.000, 0.000, 0.000, 16:13:44.664
