%OpenBCI Raw EEG Data
%
%Sample Rate = 200.0 Hz
%First Column = SampleIndex
%Last Column = Timestamp 
%Other Columns = EEG data in microvolts followed by Accel Data (in G) interleaved with Aux Data
0, 290.92, 11.01, 3.12, 5.61, 0.000, 0.000, 0.000, 14:32:22.866
1, -7.80, 12.22, 1.08, 5.88, 0.000, 0.000, 0.000, 14:32:22.868
2, -180.28, 5.61, 15.59, 19.92, 0.000, 0.000, 0.000, 14:32:22.869
3, 281.37, 10.80, 17.90, 14.97, 0.000, 0.000, 0.000, 14:32:22.887
4, 124.56, 9.71, 5.70, 2.82, 0.000, 0.000, 0.000, 14:32:22.888
5, -228.34, 5.74, 16.91, 12.95, 0.000, 0.000, 0.000, 14:32:22.888
6, 169.40, 3.33, 19.01, 22.56, 0.000, 0.000, 0.000, 14:32:22.889
7, 242.65, 19.37, 5.34, 9.43, 0.000, 0.000, 0.000, 14:32:22.910
8, -155.62, 11.24, 6.70, 8.34, 0.000, 0.000, 0.000, 14:32:22.910
9, -18.21, 0.43, 18.93, 20.43, 0.000, 0.000, 0.000, 14:32:22.911
10, 291.67, 6.13, 7.24, 9.15, 0.000, 0.000, 0.000, 14:32:22.912
11, -6.10, 13.48, 6.34, 7.46, 0.000, 0.000, 0.000, 14:32:22.932
12, -184.62, 7.49, 19.05, 18.23, 0.000, 0.000, 0.000, 14:32:22.932
13, 284.72, -0.12, 11.32, 18.10, 0.000, 0.000, 0.000, 14:32:22.933
14, 135.00, 15.70, 5.96, 6.12, 0.000, 0.000, 0.000, 14:32:22.933
15, -229.46, 6.24, 12.15, 9.24, 0.000, 0.000, 0.000, 14:32:22.962
16, 158.76, 1.20, 19.22, 17.41, 0.000, 0.000, 0.000, 14:32:22.962
17, 238.86, 14.56, 5.17, 5.86, 0.000, 0.000, 0.000, 14:32:22.963
18, -158.08, 14.15, 6.23, 7.03, 0.000, 0.000, 0.000, 14:32:22.965
19, -26.08, -0.67, 19.28, 20.04, 0.000, 0.000, 0.000, 14:32:22.965
20, 294.11, 10.38, 5.14, 9.52, 0.000, 0.000, 0.000, 14:32:22.966
21, 13.56, 17.54, 1.84, 7.56, 0.000, 0.000, 0.000, 14:32:22.982
22, -196.83, -0.32, 18.03, 17.98, 0.000, 0.000, 0.000, 14:32:22.984
23, 272.63, 6.37, 8.24, 15.80, 0.000, 0.000, 0.000, 14:32:22.985
24, 152.10, 14.94, 7.82, 5.78, 0.000, 0.000, 0.000, 14:32:22.986
25, -220.11, 11.61, 10.16, 14.17, 0.000, 0.000, 0.000, 14:32:22.999
26, 153.43, -1.90, 18.03, 19.45, 0.000, 0.000, 0.000, 14:32:22.999
27, 241.81, 13.19, 7.78, 4.33, 0.000, 0.000, 0.000, 14:32:23.021
28, -152.09, 12.45, 5.28, 6.45, 0.000, 0.000, 0.000, 14:32:23.022
29, -25.12, -2.05, 19.70, 24.17, 0.000, 0.000, 0.000, 14:32:23.022
30, 290.73, 5.60, 6.89, 8.56, 0.000, 0.000, 0.000, 14:32:23.023
31, -1.37, 18.03, 8.84, 8.92, 0.000, 0.000, 0.000, 14:32:23.024
32, -195.41, 3.66, 17.30, 17.83, 0.000, 0.000, 0.000, 14:32:23.024
33, 288.88, 5.78, 9.85, 10.55, 0.000, 0.000, 0.000, 14:32:23.024
34, 147.48, 15.02, 7.99, 5.41, 0.000, 0.000, 0.000, 14:32:23.025
35, -229.54, 5.95, 12.86, 13.49, 0.000, 0.000, 0.000, 14:32:23.044
36, 148.30, 0.44, 20.41, 20.69, 0.000, 0.000, 0.000, 14:32:23.044
37, 237.73, 14.95, 5.48, 8.03, 0.000, 0.000, 0.000, 14:32:23.045
38, -145.65, 12.42, 4.53, 10.77, 0.000, 0.000, 0.000, 14:32:23.045
39, -24.72, 8.91, 18.81, 20.45, 0.000, 0.000, 0.000, 14:32:23.067
40, 287.07, 7.17, 7.18, 10.00, 0.000, 0.000, 0.000, 14:32:23.067
41, -5.90, 14.86, 2.21, 5.33, 0.000, 0.000, 0.000, 14:32:23.067
42, -194.38, 2.86, 16.96, 20.32, 0.000, 0.000, 0.000, 14:32:23.068
43, 281.65, 8.79, 12.22, 12.77, 0.000, 0.000, 0.000, 14:32:23.089
44, 140.59, 14.78, 6.09, 3.05, 0.000, 0.000, 0.000, 14:32:23.089
45, -228.60, 10.53, 10.80, 15.94, 0.000, 0.000, 0.000, 14:32:23.090
46, 148.59, -3.04, 22.31, 15.15, 0.000, 0.000, 0.000, 14:32:23.090
47, 232.64, 13.06, 5.39, 7.55, 0.000, 0.000, 0.000, 14:32:23.111
48, -152.94, 20.70, 4.99, 6.32, 0.000, 0.000, 0.000, 14:32:23.112
49, -31.41, -5.82, 22.51, 22.48, 0.000, 0.000, 0.000, 14:32:23.112
50, 286.98, 10.36, 6.97, 8.49, 0.000, 0.000, 0.000, 14:32:23.112
51, -3.29, 13.30, 2.65, 2.64, 0.000, 0.000, 0.000, 14:32:23.134
52, -192.34, -0.59, 16.51, 17.21, 0.000, 0.000, 0.000, 14:32:23.134
53, 275.66, 5.33, 12.37, 14.42, 0.000, 0.000, 0.000, 14:32:23.134
54, 137.66, 12.16, 2.14, 4.65, 0.000, 0.000, 0.000, 14:32:23.135
55, -232.98, 8.40, 9.68, 9.68, 0.000, 0.000, 0.000, 14:32:23.135
56, 139.88, 2.83, 17.52, 19.42, 0.000, 0.000, 0.000, 14:32:23.136
57, 233.15, 15.04, 1.18, 4.83, 0.000, 0.000, 0.000, 14:32:23.156
58, -146.48, 9.65, 6.78, 7.09, 0.000, 0.000, 0.000, 14:32:23.157
59, -43.02, 0.95, 19.86, 18.65, 0.000, 0.000, 0.000, 14:32:23.157
60, 291.27, 10.11, 9.82, 7.01, 0.000, 0.000, 0.000, 14:32:23.158
61, -4.01, 14.12, 6.16, 8.68, 0.000, 0.000, 0.000, 14:32:23.179
62, -190.93, -2.27, 21.90, 18.74, 0.000, 0.000, 0.000, 14:32:23.179
63, 267.39, 9.86, 12.49, 14.88, 0.000, 0.000, 0.000, 14:32:23.179
64, 128.49, 17.75, 10.04, 9.75, 0.000, 0.000, 0.000, 14:32:23.180
65, -218.63, 12.86, 17.60, 13.39, 0.000, 0.000, 0.000, 14:32:23.201
66, 151.08, 6.33, 22.34, 16.55, 0.000, 0.000, 0.000, 14:32:23.202
67, 244.31, 9.28, 7.30, 2.90, 0.000, 0.000, 0.000, 14:32:23.202
68, -147.89, 10.49, 2.00, 9.03, 0.000, 0.000, 0.000, 14:32:23.202
69, -37.16, 0.26, 17.68, 18.37, 0.000, 0.000, 0.000, 14:32:23.224
70, 292.17, 6.69, 2.71, 8.95, 0.000, 0.000, 0.000, 14:32:23.225
71, 2.38, 13.30, 6.55, 9.52, 0.000, 0.000, 0.000, 14:32:23.225
72, -198.67, -0.03, 17.50, 19.92, 0.000, 0.000, 0.000, 14:32:23.225
73, 283.08, 5.37, 15.04, 15.82, 0.000, 0.000, 0.000, 14:32:23.225
74, 140.96, 12.75, 3.19, 4.85, 0.000, 0.000, 0.000, 14:32:23.226
75, -224.98, 12.13, 11.97, 14.89, 0.000, 0.000, 0.000, 14:32:23.246
76, 144.23, 2.59, 18.83, 15.98, 0.000, 0.000, 0.000, 14:32:23.247
77, 245.58, 13.46, 4.06, 11.50, 0.000, 0.000, 0.000, 14:32:23.247
78, -146.75, 12.25, 4.39, 8.75, 0.000, 0.000, 0.000, 14:32:23.247
79, -43.04, -2.08, 20.18, 19.05, 0.000, 0.000, 0.000, 14:32:23.269
80, 290.99, 9.41, 10.18, 8.11, 0.000, 0.000, 0.000, 14:32:23.269
81, -0.11, 15.12, 6.07, 6.31, 0.000, 0.000, 0.000, 14:32:23.269
82, -183.42, 0.47, 16.90, 19.14, 0.000, 0.000, 0.000, 14:32:23.270
83, 279.83, 4.85, 9.45, 13.06, 0.000, 0.000, 0.000, 14:32:23.291
84, 142.75, 21.85, 0.48, 4.79, 0.000, 0.000, 0.000, 14:32:23.292
85, -230.34, 7.34, 12.81, 13.41, 0.000, 0.000, 0.000, 14:32:23.292
86, 136.83, 0.22, 23.13, 18.55, 0.000, 0.000, 0.000, 14:32:23.292
87, 244.26, 14.60, 9.46, 10.37, 0.000, 0.000, 0.000, 14:32:23.314
88, -144.05, 12.87, 6.66, 10.60, 0.000, 0.000, 0.000, 14:32:23.314
89, -36.03, -2.20, 22.20, 19.17, 0.000, 0.000, 0.000, 14:32:23.314
90, 287.92, 11.35, 8.88, 11.75, 0.000, 0.000, 0.000, 14:32:23.315
91, 7.89, 14.67, 5.83, 1.02, 0.000, 0.000, 0.000, 14:32:23.315
92, -193.56, 1.74, 16.87, 12.53, 0.000, 0.000, 0.000, 14:32:23.315
93, 274.77, 6.85, 13.11, 13.76, 0.000, 0.000, 0.000, 14:32:23.336
94, 140.67, 10.46, 3.84, 9.66, 0.000, 0.000, 0.000, 14:32:23.336
95, -227.71, 10.79, 10.85, 16.10, 0.000, 0.000, 0.000, 14:32:23.337
96, 144.62, 0.87, 16.21, 17.29, 0.000, 0.000, 0.000, 14:32:23.338
97, 246.04, 14.82, 6.81, 6.86, 0.000, 0.000, 0.000, 14:32:23.359
98, -148.43, 15.89, 3.72, 9.28, 0.000, 0.000, 0.000, 14:32:23.360
99, -46.59, 1.36, 25.59, 20.98, 0.000, 0.000, 0.000, 14:32:23.360
100, 300.77, 11.09, 7.66, 10.51, 0.000, 0.000, 0.000, 14:32:23.360
101, 16.56, 15.04, 7.89, 3.12, 0.000, 0.000, 0.000, 14:32:23.381
102, -189.39, 11.21, 17.36, 16.28, 0.000, 0.000, 0.000, 14:32:23.382
103, 270.42, -1.28, 10.20, 16.52, 0.000, 0.000, 0.000, 14:32:23.382
104, 143.48, 14.98, 2.77, 5.95, 0.000, 0.000, 0.000, 14:32:23.382
105, -225.73, 6.09, 7.03, 13.91, 0.000, 0.000, 0.000, 14:32:23.404
106, 143.65, 2.16, 19.81, 20.78, 0.000, 0.000, 0.000, 14:32:23.404
107, 243.50, 12.40, 6.02, 2.87, 0.000, 0.000, 0.000, 14:32:23.405
108, -142.73, 14.60, 9.60, 9.63, 0.000, 0.000, 0.000, 14:32:23.405
109, -52.69, -1.64, 18.96, 19.78, 0.000, 0.000, 0.000, 14:32:23.405
110, 298.97, 7.98, 6.10, 6.01, 0.000, 0.000, 0.000, 14:32:23.405
111, 15.00, 16.05, 4.04, 6.89, 0.000, 0.000, 0.000, 14:32:23.426
112, -191.78, 3.05, 18.38, 15.57, 0.000, 0.000, 0.000, 14:32:23.426
113, 268.49, 4.69, 15.30, 12.79, 0.000, 0.000, 0.000, 14:32:23.427
114, 148.54, 15.63, 6.14, 7.24, 0.000, 0.000, 0.000, 14:32:23.427
115, -219.55, 15.26, 8.85, 13.17, 0.000, 0.000, 0.000, 14:32:23.449
116, 135.61, -2.53, 20.96, 19.31, 0.000, 0.000, 0.000, 14:32:23.449
117, 242.18, 14.10, 4.39, 8.07, 0.000, 0.000, 0.000, 14:32:23.450
118, -142.63, 13.36, 7.65, 3.60, 0.000, 0.000, 0.000, 14:32:23.450
119, -40.68, -1.55, 21.81, 19.34, 0.000, 0.000, 0.000, 14:32:23.471
120, 296.37, 9.46, 5.60, 7.19, 0.000, 0.000, 0.000, 14:32:23.472
121, 5.21, 9.56, 3.48, 6.87, 0.000, 0.000, 0.000, 14:32:23.472
122, -193.27, 4.22, 18.91, 18.53, 0.000, 0.000, 0.000, 14:32:23.472
123, 275.04, 4.69, 10.39, 16.23, 0.000, 0.000, 0.000, 14:32:23.494
124, 146.12, 15.18, 6.26, 8.38, 0.000, 0.000, 0.000, 14:32:23.494
125, -225.90, 8.45, 7.74, 12.57, 0.000, 0.000, 0.000, 14:32:23.495
126, 130.62, -2.91, 17.50, 18.00, 0.000, 0.000, 0.000, 14:32:23.496
127, 250.19, 12.83, 7.62, 7.17, 0.000, 0.000, 0.000, 14:32:23.499
128, -140.60, 15.03, 6.45, 8.27, 0.000, 0.000, 0.000, 14:32:23.499
129, -50.97, 6.97, 15.65, 22.30, 0.000, 0.000, 0.000, 14:32:23.517
130, 294.26, 8.08, 6.51, 10.70, 0.000, 0.000, 0.000, 14:32:23.517
131, 19.64, 16.49, 4.64, 5.04, 0.000, 0.000, 0.000, 14:32:23.518
132, -196.32, 6.28, 15.33, 19.60, 0.000, 0.000, 0.000, 14:32:23.518
133, 266.28, 3.99, 17.86, 16.50, 0.000, 0.000, 0.000, 14:32:23.539
134, 149.05, 15.21, 5.27, 7.90, 0.000, 0.000, 0.000, 14:32:23.539
135, -225.94, 7.45, 11.68, 10.35, 0.000, 0.000, 0.000, 14:32:23.539
136, 138.09, 0.68, 18.13, 20.68, 0.000, 0.000, 0.000, 14:32:23.539
137, 255.08, 15.17, 2.11, 8.01, 0.000, 0.000, 0.000, 14:32:23.561
138, -138.16, 19.98, 8.44, 5.51, 0.000, 0.000, 0.000, 14:32:23.561
139, -51.04, -7.73, 21.21, 20.35, 0.000, 0.000, 0.000, 14:32:23.562
140, 293.29, 8.23, 9.59, 10.05, 0.000, 0.000, 0.000, 14:32:23.562
141, 20.12, 16.16, 3.24, 5.96, 0.000, 0.000, 0.000, 14:32:23.584
142, -201.66, 2.80, 15.99, 18.06, 0.000, 0.000, 0.000, 14:32:23.584
143, 273.69, 2.55, 14.47, 12.54, 0.000, 0.000, 0.000, 14:32:23.585
144, 157.04, 11.76, 5.45, 2.44, 0.000, 0.000, 0.000, 14:32:23.585
145, -225.76, 4.79, 13.88, 13.22, 0.000, 0.000, 0.000, 14:32:23.586
146, 128.48, 0.25, 22.05, 21.50, 0.000, 0.000, 0.000, 14:32:23.586
147, 251.35, 10.80, 4.33, 6.24, 0.000, 0.000, 0.000, 14:32:23.606
148, -133.30, 10.19, 5.72, 7.67, 0.000, 0.000, 0.000, 14:32:23.606
149, -51.54, 2.06, 23.59, 17.92, 0.000, 0.000, 0.000, 14:32:23.607
150, 302.80, 9.51, 10.11, 13.14, 0.000, 0.000, 0.000, 14:32:23.607
151, 20.04, 14.10, 5.50, 6.39, 0.000, 0.000, 0.000, 14:32:23.629
152, -200.21, 6.11, 17.04, 18.64, 0.000, 0.000, 0.000, 14:32:23.629
153, 269.21, 4.99, 20.05, 18.68, 0.000, 0.000, 0.000, 14:32:23.629
154, 162.19, 16.48, 0.39, -0.10, 0.000, 0.000, 0.000, 14:32:23.629
155, -219.92, 8.61, 8.74, 11.81, 0.000, 0.000, 0.000, 14:32:23.652
156, 126.68, 3.15, 17.12, 23.18, 0.000, 0.000, 0.000, 14:32:23.652
157, 253.28, 12.45, 4.25, 8.70, 0.000, 0.000, 0.000, 14:32:23.653
158, -130.44, 9.39, 5.08, 8.43, 0.000, 0.000, 0.000, 14:32:23.653
159, -54.70, 0.03, 24.34, 19.04, 0.000, 0.000, 0.000, 14:32:23.674
160, 296.15, 13.19, 8.05, 6.58, 0.000, 0.000, 0.000, 14:32:23.674
161, 24.79, 16.44, 6.55, 5.46, 0.000, 0.000, 0.000, 14:32:23.674
162, -203.30, 7.31, 20.27, 18.05, 0.000, 0.000, 0.000, 14:32:23.675
163, 263.87, 4.82, 16.62, 13.94, 0.000, 0.000, 0.000, 14:32:23.675
164, 152.56, 17.66, 0.28, 6.74, 0.000, 0.000, 0.000, 14:32:23.675
165, -229.11, 13.96, 15.44, 10.16, 0.000, 0.000, 0.000, 14:32:23.696
166, 121.32, -4.33, 15.34, 16.52, 0.000, 0.000, 0.000, 14:32:23.697
167, 248.48, 13.47, 1.61, 6.89, 0.000, 0.000, 0.000, 14:32:23.697
168, -137.87, 12.20, 8.73, 7.33, 0.000, 0.000, 0.000, 14:32:23.697
169, -57.87, 0.11, 20.30, 20.80, 0.000, 0.000, 0.000, 14:32:23.719
170, 298.50, 7.94, 8.79, 8.46, 0.000, 0.000, 0.000, 14:32:23.720
171, 21.69, 13.37, 4.60, 6.69, 0.000, 0.000, 0.000, 14:32:23.720
172, -207.02, 3.92, 19.34, 14.87, 0.000, 0.000, 0.000, 14:32:23.720
173, 262.71, 4.35, 11.84, 11.09, 0.000, 0.000, 0.000, 14:32:23.742
174, 164.63, 19.97, 2.72, 7.24, 0.000, 0.000, 0.000, 14:32:23.742
175, -229.26, 8.79, 5.70, 12.75, 0.000, 0.000, 0.000, 14:32:23.743
176, 123.08, 0.19, 20.58, 18.42, 0.000, 0.000, 0.000, 14:32:23.743
177, 262.12, 15.08, 12.54, 6.01, 0.000, 0.000, 0.000, 14:32:23.764
178, -140.42, 14.24, 9.49, 7.41, 0.000, 0.000, 0.000, 14:32:23.765
179, -59.17, -2.50, 22.55, 20.01, 0.000, 0.000, 0.000, 14:32:23.765
180, 306.10, 10.43, 3.80, 7.51, 0.000, 0.000, 0.000, 14:32:23.765
181, 20.52, 15.90, 0.40, 9.38, 0.000, 0.000, 0.000, 14:32:23.766
182, -205.85, 5.38, 15.69, 17.02, 0.000, 0.000, 0.000, 14:32:23.766
183, 275.45, 5.76, 17.68, 15.61, 0.000, 0.000, 0.000, 14:32:23.786
184, 164.87, 10.92, 7.91, 3.29, 0.000, 0.000, 0.000, 14:32:23.787
185, -215.91, 6.01, 8.54, 14.23, 0.000, 0.000, 0.000, 14:32:23.787
186, 144.85, -2.11, 20.74, 17.63, 0.000, 0.000, 0.000, 14:32:23.788
187, 255.24, 12.93, 2.50, 11.59, 0.000, 0.000, 0.000, 14:32:23.810
188, -141.37, 8.50, 7.11, 7.06, 0.000, 0.000, 0.000, 14:32:23.810
189, -71.35, 2.12, 17.35, 18.31, 0.000, 0.000, 0.000, 14:32:23.810
190, 284.41, 7.77, 10.82, 7.58, 0.000, 0.000, 0.000, 14:32:23.811
191, 8.60, 14.90, 3.42, 7.94, 0.000, 0.000, 0.000, 14:32:23.832
192, -221.47, 11.82, 17.76, 16.82, 0.000, 0.000, 0.000, 14:32:23.832
193, 257.66, -1.01, 17.75, 13.48, 0.000, 0.000, 0.000, 14:32:23.833
194, 147.00, 14.86, 0.34, 6.69, 0.000, 0.000, 0.000, 14:32:23.834
195, -228.56, 9.22, 6.95, 11.38, 0.000, 0.000, 0.000, 14:32:23.854
196, 149.31, 0.91, 23.75, 18.60, 0.000, 0.000, 0.000, 14:32:23.855
197, 256.91, 12.17, 2.36, 8.48, 0.000, 0.000, 0.000, 14:32:23.855
198, -142.84, 13.34, 4.78, 9.92, 0.000, 0.000, 0.000, 14:32:23.855
199, -47.82, 1.03, 22.47, 20.38, 0.000, 0.000, 0.000, 14:32:23.856
200, 318.32, 10.90, 7.06, 9.56, 0.000, 0.000, 0.000, 14:32:23.856
0, 5.07, 18.11, 3.73, 6.23, 0.000, 0.000, 0.000, 14:32:23.877
1, -207.02, 0.10, 20.50, 18.30, 0.000, 0.000, 0.000, 14:32:23.878
2, 294.38, 5.22, 10.61, 17.95, 0.000, 0.000, 0.000, 14:32:23.878
3, 147.96, 17.80, 1.50, 3.40, 0.000, 0.000, 0.000, 14:32:23.902
4, -233.60, 4.19, 12.11, 13.52, 0.000, 0.000, 0.000, 14:32:23.902
5, 145.19, -0.88, 19.22, 19.31, 0.000, 0.000, 0.000, 14:32:23.902
6, 250.94, 15.01, 3.89, 7.83, 0.000, 0.000, 0.000, 14:32:23.902
7, -140.91, 11.41, 13.09, 10.76, 0.000, 0.000, 0.000, 14:32:23.903
8, -54.09, -3.07, 24.03, 22.56, 0.000, 0.000, 0.000, 14:32:23.903
9, 316.65, 16.67, 10.44, 11.80, 0.000, 0.000, 0.000, 14:32:23.922
10, 12.77, 12.43, 2.00, 5.53, 0.000, 0.000, 0.000, 14:32:23.922
11, -210.38, 7.12, 16.10, 15.23, 0.000, 0.000, 0.000, 14:32:23.944
12, 285.00, 4.92, 15.47, 11.89, 0.000, 0.000, 0.000, 14:32:23.944
13, 156.31, 16.54, 1.26, 4.25, 0.000, 0.000, 0.000, 14:32:23.945
14, -238.16, 8.33, 9.86, 11.76, 0.000, 0.000, 0.000, 14:32:23.945
15, 133.75, -4.73, 21.93, 19.80, 0.000, 0.000, 0.000, 14:32:23.945
16, 257.84, 9.30, 2.17, 8.07, 0.000, 0.000, 0.000, 14:32:23.946
17, -141.51, 14.81, 3.80, 6.74, 0.000, 0.000, 0.000, 14:32:23.966
18, -58.56, 6.51, 22.26, 19.99, 0.000, 0.000, 0.000, 14:32:23.967
19, 314.87, 4.68, 9.73, 9.58, 0.000, 0.000, 0.000, 14:32:23.968
20, 19.89, 13.80, -0.45, 7.18, 0.000, 0.000, 0.000, 14:32:23.968
21, -208.96, 6.84, 19.46, 16.65, 0.000, 0.000, 0.000, 14:32:23.989
22, 280.97, 1.57, 12.43, 15.26, 0.000, 0.000, 0.000, 14:32:23.990
23, 149.19, 12.90, 3.52, 7.19, 0.000, 0.000, 0.000, 14:32:23.991
24, -236.31, 13.87, 6.19, 6.69, 0.000, 0.000, 0.000, 14:32:23.991
25, 142.87, -0.85, 22.27, 15.22, 0.000, 0.000, 0.000, 14:32:23.991
26, 258.52, 12.47, 8.35, 9.25, 0.000, 0.000, 0.000, 14:32:23.992
27, -138.45, 21.42, 5.57, 4.44, 0.000, 0.000, 0.000, 14:32:24.017
28, -58.69, -2.85, 21.81, 20.09, 0.000, 0.000, 0.000, 14:32:24.017
29, 314.35, 11.53, 14.13, 9.48, 0.000, 0.000, 0.000, 14:32:24.018
30, 18.59, 18.95, 8.77, 7.00, 0.000, 0.000, 0.000, 14:32:24.018
31, -212.84, 4.02, 18.74, 16.91, 0.000, 0.000, 0.000, 14:32:24.035
32, 283.85, 3.02, 15.52, 16.60, 0.000, 0.000, 0.000, 14:32:24.035
33, 154.80, 14.30, 5.53, 6.32, 0.000, 0.000, 0.000, 14:32:24.036
34, -233.06, 10.37, 11.81, 7.03, 0.000, 0.000, 0.000, 14:32:24.036
35, 141.10, 1.11, 21.81, 20.87, 0.000, 0.000, 0.000, 14:32:24.057
36, 257.12, 18.88, -0.43, 8.11, 0.000, 0.000, 0.000, 14:32:24.057
37, -135.17, 6.13, 7.81, 6.72, 0.000, 0.000, 0.000, 14:32:24.057
38, -62.70, -0.23, 18.60, 16.32, 0.000, 0.000, 0.000, 14:32:24.058
39, 306.92, 8.16, 7.53, 10.29, 0.000, 0.000, 0.000, 14:32:24.079
40, 4.43, 15.67, 4.19, 3.92, 0.000, 0.000, 0.000, 14:32:24.079
41, -216.56, -1.43, 18.59, 14.36, 0.000, 0.000, 0.000, 14:32:24.079
42, 278.39, 0.75, 11.84, 13.94, 0.000, 0.000, 0.000, 14:32:24.080
43, 156.27, 12.93, 7.00, 7.81, 0.000, 0.000, 0.000, 14:32:24.080
44, -238.14, 7.72, 9.81, 11.96, 0.000, 0.000, 0.000, 14:32:24.080
45, 121.60, 6.80, 20.48, 23.68, 0.000, 0.000, 0.000, 14:32:24.101
46, 252.82, 10.97, 4.14, 7.99, 0.000, 0.000, 0.000, 14:32:24.102
47, -140.56, 12.17, 2.28, 5.32, 0.000, 0.000, 0.000, 14:32:24.102
48, -77.99, -4.04, 20.51, 20.55, 0.000, 0.000, 0.000, 14:32:24.102
49, 305.40, 9.77, 7.16, 12.76, 0.000, 0.000, 0.000, 14:32:24.124
50, 13.41, 18.62, 2.87, 5.27, 0.000, 0.000, 0.000, 14:32:24.124
51, -214.22, 5.59, 15.16, 16.84, 0.000, 0.000, 0.000, 14:32:24.125
52, 282.87, 5.74, 16.50, 17.45, 0.000, 0.000, 0.000, 14:32:24.125
53, 171.29, 13.85, 4.43, 8.79, 0.000, 0.000, 0.000, 14:32:24.146
54, -230.43, 13.95, 9.08, 12.10, 0.000, 0.000, 0.000, 14:32:24.147
55, 142.04, -4.01, 21.05, 23.61, 0.000, 0.000, 0.000, 14:32:24.147
56, 261.46, 8.87, 9.77, 6.76, 0.000, 0.000, 0.000, 14:32:24.147
57, -136.77, 19.03, 6.91, 10.55, 0.000, 0.000, 0.000, 14:32:24.169
58, -66.13, -1.86, 21.87, 20.70, 0.000, 0.000, 0.000, 14:32:24.169
59, 311.34, 8.52, 9.16, 11.55, 0.000, 0.000, 0.000, 14:32:24.170
60, 16.73, 16.22, -2.87, 2.87, 0.000, 0.000, 0.000, 14:32:24.171
61, -212.54, 4.12, 20.29, 17.55, 0.000, 0.000, 0.000, 14:32:24.171
62, 280.07, 2.59, 18.16, 16.03, 0.000, 0.000, 0.000, 14:32:24.171
63, 157.03, 19.14, 1.71, 6.94, 0.000, 0.000, 0.000, 14:32:24.191
64, -238.57, 7.71, 9.15, 13.18, 0.000, 0.000, 0.000, 14:32:24.191
65, 127.41, -2.94, 18.30, 22.99, 0.000, 0.000, 0.000, 14:32:24.192
66, 257.54, 12.26, 3.67, 11.51, 0.000, 0.000, 0.000, 14:32:24.192
67, -141.71, 11.42, 7.34, 7.74, 0.000, 0.000, 0.000, 14:32:24.213
68, -77.76, 0.00, 21.65, 21.26, 0.000, 0.000, 0.000, 14:32:24.214
69, 321.82, 10.95, 7.86, 9.16, 0.000, 0.000, 0.000, 14:32:24.214
70, 24.51, 14.33, 5.28, 5.03, 0.000, 0.000, 0.000, 14:32:24.215
71, -210.80, 7.31, 21.51, 15.76, 0.000, 0.000, 0.000, 14:32:24.236
72, 268.93, 5.16, 16.91, 11.33, 0.000, 0.000, 0.000, 14:32:24.237
73, 157.65, 13.73, 4.81, 5.01, 0.000, 0.000, 0.000, 14:32:24.237
74, -245.26, 12.93, 8.05, 6.77, 0.000, 0.000, 0.000, 14:32:24.237
75, 125.14, -1.80, 23.58, 18.02, 0.000, 0.000, 0.000, 14:32:24.259
76, 265.06, 14.03, 7.42, 8.74, 0.000, 0.000, 0.000, 14:32:24.259
77, -123.24, 13.13, 3.31, 4.81, 0.000, 0.000, 0.000, 14:32:24.260
78, -78.09, 2.16, 24.73, 17.66, 0.000, 0.000, 0.000, 14:32:24.260
79, 326.40, 7.17, 9.13, 11.46, 0.000, 0.000, 0.000, 14:32:24.260
80, 19.91, 17.86, 1.15, 6.57, 0.000, 0.000, 0.000, 14:32:24.260
81, -222.64, 5.88, 19.65, 19.54, 0.000, 0.000, 0.000, 14:32:24.281
82, 274.07, -0.97, 13.98, 15.41, 0.000, 0.000, 0.000, 14:32:24.282
83, 158.54, 16.39, 4.42, 3.84, 0.000, 0.000, 0.000, 14:32:24.282
84, -240.37, 8.82, 7.25, 13.02, 0.000, 0.000, 0.000, 14:32:24.283
85, 126.16, -1.21, 16.28, 19.25, 0.000, 0.000, 0.000, 14:32:24.304
86, 257.03, 11.45, 4.16, 5.81, 0.000, 0.000, 0.000, 14:32:24.305
87, -131.95, 13.76, 1.28, 4.34, 0.000, 0.000, 0.000, 14:32:24.305
88, -72.60, -2.63, 18.76, 18.35, 0.000, 0.000, 0.000, 14:32:24.305
89, 312.34, 8.08, 11.45, 8.22, 0.000, 0.000, 0.000, 14:32:24.326
90, 27.97, 21.02, 5.68, 5.25, 0.000, 0.000, 0.000, 14:32:24.327
91, -214.98, -0.62, 20.11, 16.94, 0.000, 0.000, 0.000, 14:32:24.327
92, 265.98, 3.02, 17.63, 15.24, 0.000, 0.000, 0.000, 14:32:24.327
93, 154.73, 11.12, 5.34, 3.94, 0.000, 0.000, 0.000, 14:32:24.349
94, -223.91, 15.98, 13.80, 12.55, 0.000, 0.000, 0.000, 14:32:24.350
95, 114.36, -3.58, 21.82, 23.10, 0.000, 0.000, 0.000, 14:32:24.350
96, 263.11, 11.54, 4.22, 3.57, 0.000, 0.000, 0.000, 14:32:24.351
97, -114.23, 14.43, 4.18, 7.55, 0.000, 0.000, 0.000, 14:32:24.351
98, -83.15, -2.20, 18.78, 18.80, 0.000, 0.000, 0.000, 14:32:24.351
99, 302.88, 11.56, 2.74, 10.03, 0.000, 0.000, 0.000, 14:32:24.371
100, 37.46, 12.74, 3.65, 6.45, 0.000, 0.000, 0.000, 14:32:24.372
101, -220.52, 3.75, 18.20, 17.72, 0.000, 0.000, 0.000, 14:32:24.372
102, 285.03, 6.07, 11.64, 18.04, 0.000, 0.000, 0.000, 14:32:24.372
103, 161.10, 15.56, 3.81, 7.04, 0.000, 0.000, 0.000, 14:32:24.395
104, -233.80, 12.48, 12.82, 7.45, 0.000, 0.000, 0.000, 14:32:24.395
105, 119.02, -1.01, 24.60, 22.62, 0.000, 0.000, 0.000, 14:32:24.395
106, 262.71, 14.48, 4.72, 8.25, 0.000, 0.000, 0.000, 14:32:24.396
107, -124.23, 16.18, 7.47, 4.62, 0.000, 0.000, 0.000, 14:32:24.417
108, -80.13, 2.94, 21.05, 20.93, 0.000, 0.000, 0.000, 14:32:24.417
109, 312.24, 2.23, 6.61, 10.55, 0.000, 0.000, 0.000, 14:32:24.418
110, 30.52, 15.25, 0.04, 5.54, 0.000, 0.000, 0.000, 14:32:24.418
111, -219.63, 2.94, 17.22, 15.54, 0.000, 0.000, 0.000, 14:32:24.439
112, 264.32, 1.73, 18.26, 14.08, 0.000, 0.000, 0.000, 14:32:24.440
113, 165.80, 16.48, 0.55, 6.22, 0.000, 0.000, 0.000, 14:32:24.440
114, -236.85, 10.09, 12.70, 9.84, 0.000, 0.000, 0.000, 14:32:24.440
115, 99.57, -1.88, 21.17, 18.94, 0.000, 0.000, 0.000, 14:32:24.441
116, 275.91, 15.06, 4.60, 5.93, 0.000, 0.000, 0.000, 14:32:24.441
117, -113.49, 18.03, 0.71, 6.48, 0.000, 0.000, 0.000, 14:32:24.462
118, -94.48, -0.38, 23.58, 21.55, 0.000, 0.000, 0.000, 14:32:24.463
119, 302.44, 9.66, 12.07, 9.27, 0.000, 0.000, 0.000, 14:32:24.463
120, 48.75, 15.10, 2.34, 4.87, 0.000, 0.000, 0.000, 14:32:24.463
121, -216.93, 5.49, 14.82, 17.06, 0.000, 0.000, 0.000, 14:32:24.485
122, 266.72, 3.81, 12.62, 17.04, 0.000, 0.000, 0.000, 14:32:24.485
123, 173.75, 20.95, 5.99, 3.60, 0.000, 0.000, 0.000, 14:32:24.485
124, -239.58, 10.71, 8.58, 9.74, 0.000, 0.000, 0.000, 14:32:24.486
125, 107.37, 0.76, 23.11, 21.65, 0.000, 0.000, 0.000, 14:32:24.506
126, 264.86, 19.17, 4.80, 6.49, 0.000, 0.000, 0.000, 14:32:24.507
127, -127.50, 8.58, -0.01, 9.97, 0.000, 0.000, 0.000, 14:32:24.507
128, -93.92, -4.28, 22.66, 22.35, 0.000, 0.000, 0.000, 14:32:24.507
129, 316.28, 9.94, 12.54, 10.19, 0.000, 0.000, 0.000, 14:32:24.531
130, 43.71, 14.78, 7.20, 4.07, 0.000, 0.000, 0.000, 14:32:24.531
131, -228.14, 6.39, 16.44, 15.43, 0.000, 0.000, 0.000, 14:32:24.531
132, 256.09, 4.95, 15.84, 21.59, 0.000, 0.000, 0.000, 14:32:24.533
133, 176.15, 12.49, 0.40, 4.82, 0.000, 0.000, 0.000, 14:32:24.533
134, -216.67, 6.45, 7.24, 10.01, 0.000, 0.000, 0.000, 14:32:24.533
135, 98.55, 1.78, 18.49, 16.92, 0.000, 0.000, 0.000, 14:32:24.552
136, 266.94, 11.67, 5.76, 8.63, 0.000, 0.000, 0.000, 14:32:24.553
137, -125.01, 13.02, 5.09, 2.56, 0.000, 0.000, 0.000, 14:32:24.553
138, -102.14, 0.36, 20.56, 18.69, 0.000, 0.000, 0.000, 14:32:24.553
139, 319.00, 9.11, 6.64, 11.19, 0.000, 0.000, 0.000, 14:32:24.575
140, 45.88, 16.56, 2.09, 5.83, 0.000, 0.000, 0.000, 14:32:24.576
141, -229.48, 3.53, 16.11, 15.85, 0.000, 0.000, 0.000, 14:32:24.576
142, 262.21, 2.68, 18.26, 15.96, 0.000, 0.000, 0.000, 14:32:24.576
143, 176.17, 13.65, 4.17, 7.69, 0.000, 0.000, 0.000, 14:32:24.596
144, -230.60, 15.06, 12.08, 12.77, 0.000, 0.000, 0.000, 14:32:24.597
145, 94.54, -5.66, 23.30, 21.06, 0.000, 0.000, 0.000, 14:32:24.597
146, 259.07, 14.99, 4.88, 10.19, 0.000, 0.000, 0.000, 14:32:24.597
147, -106.45, 18.38, 3.26, 5.88, 0.000, 0.000, 0.000, 14:32:24.621
148, -97.00, -3.61, 23.35, 22.53, 0.000, 0.000, 0.000, 14:32:24.621
149, 312.80, 5.23, 12.01, 12.80, 0.000, 0.000, 0.000, 14:32:24.621
150, 55.48, 15.43, 2.03, 8.67, 0.000, 0.000, 0.000, 14:32:24.621
151, -238.58, 5.12, 12.91, 19.02, 0.000, 0.000, 0.000, 14:32:24.622
152, 247.27, 1.30, 17.19, 14.43, 0.000, 0.000, 0.000, 14:32:24.622
153, 190.91, 16.66, 3.25, 4.46, 0.000, 0.000, 0.000, 14:32:24.641
154, -229.77, 7.82, 8.01, 10.27, 0.000, 0.000, 0.000, 14:32:24.642
155, 97.44, -1.72, 23.51, 20.51, 0.000, 0.000, 0.000, 14:32:24.643
156, 283.82, 13.10, 4.90, 6.95, 0.000, 0.000, 0.000, 14:32:24.643
157, -108.66, 13.56, 7.65, 6.05, 0.000, 0.000, 0.000, 14:32:24.665
158, -95.61, -1.57, 17.88, 19.31, 0.000, 0.000, 0.000, 14:32:24.665
159, 322.06, 12.11, 12.85, 9.99, 0.000, 0.000, 0.000, 14:32:24.665
160, 41.72, 15.48, 4.17, 1.60, 0.000, 0.000, 0.000, 14:32:24.665
161, -236.73, 4.57, 14.07, 15.13, 0.000, 0.000, 0.000, 14:32:24.688
162, 262.01, 6.46, 12.97, 15.93, 0.000, 0.000, 0.000, 14:32:24.688
163, 185.62, 9.97, 7.49, 6.97, 0.000, 0.000, 0.000, 14:32:24.688
164, -236.30, 13.82, 10.93, 12.13, 0.000, 0.000, 0.000, 14:32:24.688
165, 86.08, 1.32, 16.23, 21.91, 0.000, 0.000, 0.000, 14:32:24.709
166, 267.76, 15.61, 3.65, 9.13, 0.000, 0.000, 0.000, 14:32:24.709
167, -114.47, 14.64, 5.98, 4.84, 0.000, 0.000, 0.000, 14:32:24.710
168, -108.85, -1.32, 17.11, 20.65, 0.000, 0.000, 0.000, 14:32:24.710
169, 315.02, 8.47, 9.61, 11.26, 0.000, 0.000, 0.000, 14:32:24.711
170, 44.35, 13.76, 1.97, 4.80, 0.000, 0.000, 0.000, 14:32:24.711
171, -241.71, 8.98, 19.46, 18.73, 0.000, 0.000, 0.000, 14:32:24.731
172, 251.81, -0.50, 14.98, 16.25, 0.000, 0.000, 0.000, 14:32:24.731
173, 185.75, 13.68, 4.69, 5.45, 0.000, 0.000, 0.000, 14:32:24.732
174, -225.41, 11.15, 10.80, 11.14, 0.000, 0.000, 0.000, 14:32:24.732
175, 82.42, -0.48, 19.97, 20.02, 0.000, 0.000, 0.000, 14:32:24.754
176, 278.10, 14.09, 6.43, 7.85, 0.000, 0.000, 0.000, 14:32:24.754
177, -109.75, 15.14, 2.18, 7.50, 0.000, 0.000, 0.000, 14:32:24.755
178, -110.02, 2.35, 21.64, 22.38, 0.000, 0.000, 0.000, 14:32:24.757
179, 312.93, 6.70, 8.57, 11.51, 0.000, 0.000, 0.000, 14:32:24.777
180, 60.14, 20.71, 3.56, 4.93, 0.000, 0.000, 0.000, 14:32:24.777
181, -227.67, 0.22, 15.79, 17.08, 0.000, 0.000, 0.000, 14:32:24.777
182, 255.81, 2.72, 15.69, 15.92, 0.000, 0.000, 0.000, 14:32:24.777
183, 188.86, 13.64, 1.05, 0.86, 0.000, 0.000, 0.000, 14:32:24.799
184, -232.14, 11.92, 11.28, 12.93, 0.000, 0.000, 0.000, 14:32:24.799
185, 93.27, -4.43, 22.74, 19.86, 0.000, 0.000, 0.000, 14:32:24.799
186, 292.30, 11.55, 4.62, 9.38, 0.000, 0.000, 0.000, 14:32:24.800
187, -88.01, 12.62, 4.77, 9.10, 0.000, 0.000, 0.000, 14:32:24.801
188, -102.08, 0.86, 18.67, 19.34, 0.000, 0.000, 0.000, 14:32:24.801
189, 321.26, 9.50, 8.94, 9.37, 0.000, 0.000, 0.000, 14:32:24.821
190, 48.73, 16.44, 5.08, 7.10, 0.000, 0.000, 0.000, 14:32:24.822
191, -248.10, 7.34, 16.96, 19.09, 0.000, 0.000, 0.000, 14:32:24.822
192, 237.87, 2.60, 16.18, 15.67, 0.000, 0.000, 0.000, 14:32:24.822
193, 180.51, 15.77, 4.15, 4.44, 0.000, 0.000, 0.000, 14:32:24.844
194, -236.27, 8.68, 9.67, 10.77, 0.000, 0.000, 0.000, 14:32:24.844
195, 76.92, 1.22, 25.93, 25.77, 0.000, 0.000, 0.000, 14:32:24.844
196, 274.60, 12.47, 5.79, 9.33, 0.000, 0.000, 0.000, 14:32:24.844
197, -100.60, 15.42, 5.43, 7.63, 0.000, 0.000, 0.000, 14:32:24.866
198, -108.72, 6.09, 21.10, 15.66, 0.000, 0.000, 0.000, 14:32:24.866
199, 317.69, 4.46, 9.28, 10.50, 0.000, 0.000, 0.000, 14:32:24.867
200, 54.39, 14.74, 6.57, 4.02, 0.000, 0.000, 0.000, 14:32:24.867
0, -234.65, 4.96, 17.32, 16.30, 0.000, 0.000, 0.000, 14:32:24.869
1, 252.34, -0.34, 17.79, 15.45, 0.000, 0.000, 0.000, 14:32:24.889
2, 195.30, 14.83, 1.98, 5.29, 0.000, 0.000, 0.000, 14:32:24.889
3, -231.86, 9.08, 5.63, 13.04, 0.000, 0.000, 0.000, 14:32:24.889
4, 80.94, -1.69, 17.80, 19.84, 0.000, 0.000, 0.000, 14:32:24.890
5, 280.75, 15.89, 3.57, 9.19, 0.000, 0.000, 0.000, 14:32:24.911
6, -96.81, 22.12, 1.54, 2.67, 0.000, 0.000, 0.000, 14:32:24.911
7, -100.58, -4.42, 28.50, 19.11, 0.000, 0.000, 0.000, 14:32:24.912
8, 317.43, 9.30, 11.95, 11.89, 0.000, 0.000, 0.000, 14:32:24.913
9, 54.52, 17.63, -0.51, 3.38, 0.000, 0.000, 0.000, 14:32:24.934
10, -226.67, 2.85, 16.79, 15.44, 0.000, 0.000, 0.000, 14:32:24.934
11, 245.83, -1.00, 15.41, 16.26, 0.000, 0.000, 0.000, 14:32:24.935
12, 193.46, 12.29, 1.80, 8.02, 0.000, 0.000, 0.000, 14:32:24.935
13, -222.88, 11.94, 15.81, 12.72, 0.000, 0.000, 0.000, 14:32:24.935
14, 76.48, 0.28, 20.40, 18.82, 0.000, 0.000, 0.000, 14:32:24.935
15, 286.23, 14.69, 4.44, 3.84, 0.000, 0.000, 0.000, 14:32:24.956
16, -100.47, 12.66, 5.11, 5.11, 0.000, 0.000, 0.000, 14:32:24.956
17, -109.23, -1.37, 20.39, 16.21, 0.000, 0.000, 0.000, 14:32:24.957
18, 319.06, 5.77, 7.71, 12.03, 0.000, 0.000, 0.000, 14:32:24.957
19, 48.70, 15.00, 2.18, 7.16, 0.000, 0.000, 0.000, 14:32:24.979
20, -226.25, 4.21, 18.14, 13.86, 0.000, 0.000, 0.000, 14:32:24.979
21, 245.11, 7.08, 11.68, 16.81, 0.000, 0.000, 0.000, 14:32:24.979
22, 202.50, 12.20, 6.30, 8.12, 0.000, 0.000, 0.000, 14:32:24.979
23, -228.19, 10.11, 9.53, 10.00, 0.000, 0.000, 0.000, 14:32:25.001
24, 82.07, 3.81, 20.60, 18.24, 0.000, 0.000, 0.000, 14:32:25.001
25, 283.17, 9.55, 4.77, 10.32, 0.000, 0.000, 0.000, 14:32:25.002
26, -102.28, 13.00, 3.96, 5.41, 0.000, 0.000, 0.000, 14:32:25.002
27, -104.07, 2.08, 24.69, 21.86, 0.000, 0.000, 0.000, 14:32:25.024
28, 316.82, 8.35, 12.03, 11.67, 0.000, 0.000, 0.000, 14:32:25.024
29, 55.05, 15.18, 4.22, 9.18, 0.000, 0.000, 0.000, 14:32:25.024
30, -228.09, 3.07, 17.65, 13.41, 0.000, 0.000, 0.000, 14:32:25.025
31, 246.48, 1.99, 20.38, 13.94, 0.000, 0.000, 0.000, 14:32:25.025
32, 200.56, 15.23, -0.50, 7.00, 0.000, 0.000, 0.000, 14:32:25.025
33, -222.08, 17.81, 8.02, 11.00, 0.000, 0.000, 0.000, 14:32:25.046
34, 92.76, -7.22, 24.29, 21.90, 0.000, 0.000, 0.000, 14:32:25.046
35, 289.52, 12.46, 3.42, 5.25, 0.000, 0.000, 0.000, 14:32:25.047
36, -88.64, 13.83, 7.72, 8.65, 0.000, 0.000, 0.000, 14:32:25.047
37, -112.02, 1.49, 22.19, 17.08, 0.000, 0.000, 0.000, 14:32:25.068
38, 323.44, 7.84, 6.95, 11.83, 0.000, 0.000, 0.000, 14:32:25.069
39, 58.27, 14.39, 0.70, 5.79, 0.000, 0.000, 0.000, 14:32:25.069
40, -234.25, -0.25, 14.14, 14.68, 0.000, 0.000, 0.000, 14:32:25.069
41, 244.17, -0.91, 18.25, 16.85, 0.000, 0.000, 0.000, 14:32:25.091
42, 185.27, 20.98, 1.43, 1.90, 0.000, 0.000, 0.000, 14:32:25.091
43, -225.37, 7.43, 9.20, 11.46, 0.000, 0.000, 0.000, 14:32:25.092
44, 84.47, -4.15, 24.09, 20.98, 0.000, 0.000, 0.000, 14:32:25.092
45, 280.79, 13.46, 4.13, 9.70, 0.000, 0.000, 0.000, 14:32:25.114
46, -91.34, 17.18, 1.82, 7.15, 0.000, 0.000, 0.000, 14:32:25.114
47, -115.52, -0.83, 22.67, 19.55, 0.000, 0.000, 0.000, 14:32:25.114
48, 308.91, 6.94, 12.03, 12.57, 0.000, 0.000, 0.000, 14:32:25.115
49, 57.82, 14.42, 1.38, 3.88, 0.000, 0.000, 0.000, 14:32:25.115
50, -236.72, 6.88, 12.31, 15.53, 0.000, 0.000, 0.000, 14:32:25.115
51, 244.72, 2.19, 14.93, 17.24, 0.000, 0.000, 0.000, 14:32:25.136
52, 192.94, 12.06, 7.65, 4.20, 0.000, 0.000, 0.000, 14:32:25.136
53, -225.91, 11.05, 12.09, 9.53, 0.000, 0.000, 0.000, 14:32:25.137
54, 79.01, 1.91, 21.47, 23.27, 0.000, 0.000, 0.000, 14:32:25.137
55, 277.89, 10.44, 1.51, 8.40, 0.000, 0.000, 0.000, 14:32:25.160
56, -100.32, 15.36, 3.12, 6.20, 0.000, 0.000, 0.000, 14:32:25.160
57, -118.06, 1.00, 22.69, 18.72, 0.000, 0.000, 0.000, 14:32:25.160
58, 322.34, 8.29, 16.20, 13.74, 0.000, 0.000, 0.000, 14:32:25.160
59, 58.13, 15.49, 1.20, 7.30, 0.000, 0.000, 0.000, 14:32:25.181
60, -236.79, 10.57, 13.59, 15.61, 0.000, 0.000, 0.000, 14:32:25.182
61, 246.96, -2.22, 19.87, 17.96, 0.000, 0.000, 0.000, 14:32:25.182
62, 189.87, 12.55, 3.26, 8.33, 0.000, 0.000, 0.000, 14:32:25.182
63, -229.22, 13.09, 10.71, 9.99, 0.000, 0.000, 0.000, 14:32:25.204
64, 74.42, -3.80, 26.03, 19.67, 0.000, 0.000, 0.000, 14:32:25.204
65, 278.57, 10.08, 6.47, 7.93, 0.000, 0.000, 0.000, 14:32:25.205
66, -93.54, 16.94, 7.46, 7.53, 0.000, 0.000, 0.000, 14:32:25.205
67, -126.44, 1.38, 19.93, 21.27, 0.000, 0.000, 0.000, 14:32:25.205
68, 306.30, 9.32, 8.19, 11.62, 0.000, 0.000, 0.000, 14:32:25.206
69, 64.10, 21.75, 2.92, 1.38, 0.000, 0.000, 0.000, 14:32:25.226
70, -224.19, 2.46, 15.12, 17.32, 0.000, 0.000, 0.000, 14:32:25.227
71, 246.92, 4.71, 14.32, 16.88, 0.000, 0.000, 0.000, 14:32:25.227
72, 196.06, 16.31, 1.97, 7.20, 0.000, 0.000, 0.000, 14:32:25.227
73, -222.90, 12.29, 9.02, 11.83, 0.000, 0.000, 0.000, 14:32:25.249
74, 77.11, -4.39, 24.48, 20.62, 0.000, 0.000, 0.000, 14:32:25.249
75, 277.25, 11.76, 3.85, 8.69, 0.000, 0.000, 0.000, 14:32:25.249
76, -91.45, 15.90, 1.29, 10.36, 0.000, 0.000, 0.000, 14:32:25.250
77, -120.73, -1.39, 23.34, 17.22, 0.000, 0.000, 0.000, 14:32:25.271
78, 314.29, 11.97, 12.97, 10.11, 0.000, 0.000, 0.000, 14:32:25.271
79, 56.43, 14.26, 6.30, 3.02, 0.000, 0.000, 0.000, 14:32:25.272
80, -231.85, 8.19, 14.79, 16.79, 0.000, 0.000, 0.000, 14:32:25.272
81, 244.66, 2.54, 14.50, 15.05, 0.000, 0.000, 0.000, 14:32:25.294
82, 190.51, 16.18, 2.72, 5.60, 0.000, 0.000, 0.000, 14:32:25.294
83, -220.77, 10.44, 10.79, 8.69, 0.000, 0.000, 0.000, 14:32:25.295
84, 73.18, -5.28, 26.88, 17.17, 0.000, 0.000, 0.000, 14:32:25.295
85, 272.09, 11.30, 4.05, 8.05, 0.000, 0.000, 0.000, 14:32:25.295
86, -83.16, 16.56, 5.39, 8.42, 0.000, 0.000, 0.000, 14:32:25.296
87, -105.97, 3.44, 24.18, 19.26, 0.000, 0.000, 0.000, 14:32:25.316
88, 318.79, 3.83, 12.81, 14.48, 0.000, 0.000, 0.000, 14:32:25.316
89, 61.21, 17.29, -0.22, 6.57, 0.000, 0.000, 0.000, 14:32:25.317
90, -232.63, 7.03, 21.04, 17.18, 0.000, 0.000, 0.000, 14:32:25.317
91, 237.83, -1.02, 19.35, 17.04, 0.000, 0.000, 0.000, 14:32:25.339
92, 181.60, 15.93, 3.09, 6.79, 0.000, 0.000, 0.000, 14:32:25.339
93, -220.53, 14.95, 7.86, 6.28, 0.000, 0.000, 0.000, 14:32:25.339
94, 81.76, -1.41, 19.02, 21.55, 0.000, 0.000, 0.000, 14:32:25.341
95, 282.86, 11.94, 5.92, 10.11, 0.000, 0.000, 0.000, 14:32:25.361
96, -78.87, 25.81, 1.29, 11.62, 0.000, 0.000, 0.000, 14:32:25.362
97, -120.45, -5.18, 18.65, 16.56, 0.000, 0.000, 0.000, 14:32:25.362
98, 309.43, 8.08, 8.50, 11.94, 0.000, 0.000, 0.000, 14:32:25.362
99, 58.03, 13.42, -0.30, 5.29, 0.000, 0.000, 0.000, 14:32:25.384
100, -240.93, 6.75, 19.69, 18.15, 0.000, 0.000, 0.000, 14:32:25.384
101, 236.04, -1.40, 17.45, 17.13, 0.000, 0.000, 0.000, 14:32:25.384
102, 200.81, 14.82, 1.16, 4.29, 0.000, 0.000, 0.000, 14:32:25.385
103, -218.13, 7.23, 12.16, 5.55, 0.000, 0.000, 0.000, 14:32:25.385
104, 63.76, -2.42, 18.36, 21.11, 0.000, 0.000, 0.000, 14:32:25.385
105, 276.60, 15.09, 2.97, 5.04, 0.000, 0.000, 0.000, 14:32:25.406
106, -84.68, 11.04, 3.93, 8.87, 0.000, 0.000, 0.000, 14:32:25.407
107, -124.45, -0.37, 23.08, 18.96, 0.000, 0.000, 0.000, 14:32:25.407
108, 313.17, 7.40, 12.77, 13.81, 0.000, 0.000, 0.000, 14:32:25.407
109, 62.20, 14.81, -0.11, 2.17, 0.000, 0.000, 0.000, 14:32:25.429
110, -240.78, 6.83, 19.94, 10.97, 0.000, 0.000, 0.000, 14:32:25.429
111, 238.76, 5.27, 13.75, 18.23, 0.000, 0.000, 0.000, 14:32:25.429
112, 198.99, 12.60, 1.46, 6.57, 0.000, 0.000, 0.000, 14:32:25.430
113, -210.46, 10.77, 2.68, 14.34, 0.000, 0.000, 0.000, 14:32:25.451
114, 65.75, -0.39, 20.87, 22.83, 0.000, 0.000, 0.000, 14:32:25.451
115, 291.70, 11.29, 3.83, 8.33, 0.000, 0.000, 0.000, 14:32:25.452
116, -74.97, 16.61, 1.22, 2.93, 0.000, 0.000, 0.000, 14:32:25.452
117, -137.52, -0.89, 21.32, 22.24, 0.000, 0.000, 0.000, 14:32:25.474
118, 316.86, 9.49, 9.84, 7.44, 0.000, 0.000, 0.000, 14:32:25.474
119, 60.21, 15.38, 1.74, 5.29, 0.000, 0.000, 0.000, 14:32:25.475
120, -230.93, 5.89, 20.91, 15.00, 0.000, 0.000, 0.000, 14:32:25.475
121, 234.56, -1.95, 16.19, 19.34, 0.000, 0.000, 0.000, 14:32:25.476
122, 184.22, 13.20, -0.33, 9.79, 0.000, 0.000, 0.000, 14:32:25.476
123, -225.13, 13.90, 11.85, 11.37, 0.000, 0.000, 0.000, 14:32:25.496
124, 72.02, -4.68, 19.69, 22.72, 0.000, 0.000, 0.000, 14:32:25.496
125, 286.42, 15.22, 2.89, 8.62, 0.000, 0.000, 0.000, 14:32:25.497
126, -85.92, 13.91, 4.44, 4.17, 0.000, 0.000, 0.000, 14:32:25.497
127, -127.15, 1.11, 18.76, 18.91, 0.000, 0.000, 0.000, 14:32:25.519
128, 315.43, 8.22, 12.12, 10.14, 0.000, 0.000, 0.000, 14:32:25.519
129, 81.37, 15.15, 3.96, 5.78, 0.000, 0.000, 0.000, 14:32:25.519
130, -233.29, 4.47, 20.78, 14.01, 0.000, 0.000, 0.000, 14:32:25.519
131, 229.63, 3.86, 18.78, 17.09, 0.000, 0.000, 0.000, 14:32:25.541
132, 186.47, 22.10, 3.18, 6.67, 0.000, 0.000, 0.000, 14:32:25.541
133, -206.88, 5.91, 7.47, 14.38, 0.000, 0.000, 0.000, 14:32:25.542
134, 63.43, -3.76, 19.36, 18.75, 0.000, 0.000, 0.000, 14:32:25.542
135, 294.09, 11.61, 8.00, 6.70, 0.000, 0.000, 0.000, 14:32:25.564
136, -66.26, 14.36, 4.91, 7.80, 0.000, 0.000, 0.000, 14:32:25.564
137, -136.58, -3.13, 18.56, 19.87, 0.000, 0.000, 0.000, 14:32:25.564
138, 313.39, 6.40, 11.12, 12.22, 0.000, 0.000, 0.000, 14:32:25.564
139, 75.09, 14.99, -3.31, 7.18, 0.000, 0.000, 0.000, 14:32:25.565
140, -235.90, 4.64, 17.20, 13.18, 0.000, 0.000, 0.000, 14:32:25.565
141, 227.66, 5.60, 18.26, 15.28, 0.000, 0.000, 0.000, 14:32:25.586
142, 217.83, 14.34, 4.52, 2.99, 0.000, 0.000, 0.000, 14:32:25.587
143, -224.82, 15.60, 9.56, 13.81, 0.000, 0.000, 0.000, 14:32:25.587
144, 50.79, -0.17, 23.69, 19.83, 0.000, 0.000, 0.000, 14:32:25.587
145, 287.82, 10.88, 5.76, 8.95, 0.000, 0.000, 0.000, 14:32:25.609
146, -61.52, 14.90, 2.28, 7.61, 0.000, 0.000, 0.000, 14:32:25.609
147, -136.51, 0.67, 20.57, 18.22, 0.000, 0.000, 0.000, 14:32:25.609
148, 312.62, 9.34, 12.44, 8.05, 0.000, 0.000, 0.000, 14:32:25.609
149, 78.16, 20.02, 4.72, 5.25, 0.000, 0.000, 0.000, 14:32:25.631
150, -244.73, 9.45, 15.03, 13.97, 0.000, 0.000, 0.000, 14:32:25.631
151, 220.50, -2.25, 18.99, 17.72, 0.000, 0.000, 0.000, 14:32:25.632
152, 204.69, 15.35, 2.47, 4.71, 0.000, 0.000, 0.000, 14:32:25.632
153, -219.30, 7.83, 8.90, 5.68, 0.000, 0.000, 0.000, 14:32:25.654
154, 59.15, -0.85, 19.50, 21.31, 0.000, 0.000, 0.000, 14:32:25.654
155, 279.45, 7.71, 7.45, 8.89, 0.000, 0.000, 0.000, 14:32:25.654
156, -78.07, 12.57, 8.03, 7.01, 0.000, 0.000, 0.000, 14:32:25.654
157, -139.39, 1.76, 17.16, 21.64, 0.000, 0.000, 0.000, 14:32:25.655
158, 311.77, 7.86, 12.73, 12.20, 0.000, 0.000, 0.000, 14:32:25.655
159, 76.49, 21.45, 5.93, 3.67, 0.000, 0.000, 0.000, 14:32:25.676
160, -250.60, 5.39, 13.56, 14.01, 0.000, 0.000, 0.000, 14:32:25.676
161, 220.77, 0.43, 19.29, 17.59, 0.000, 0.000, 0.000, 14:32:25.677
162, 198.84, 12.30, 5.13, 5.36, 0.000, 0.000, 0.000, 14:32:25.677
163, -212.39, 14.47, 7.47, 9.07, 0.000, 0.000, 0.000, 14:32:25.699
164, 47.49, -7.65, 23.56, 20.65, 0.000, 0.000, 0.000, 14:32:25.699
165, 304.68, 12.06, 2.51, 7.83, 0.000, 0.000, 0.000, 14:32:25.699
166, -68.76, 14.67, 5.46, 8.69, 0.000, 0.000, 0.000, 14:32:25.700
167, -141.73, -2.98, 20.28, 18.37, 0.000, 0.000, 0.000, 14:32:25.721
168, 321.06, 11.32, 9.34, 9.58, 0.000, 0.000, 0.000, 14:32:25.722
169, 76.72, 12.13, 0.48, 7.43, 0.000, 0.000, 0.000, 14:32:25.722
170, -235.07, 9.85, 16.24, 10.64, 0.000, 0.000, 0.000, 14:32:25.722
171, 215.41, 0.02, 18.67, 14.92, 0.000, 0.000, 0.000, 14:32:25.744
172, 214.47, 16.14, 3.16, 6.37, 0.000, 0.000, 0.000, 14:32:25.744
173, -212.77, 14.04, 9.99, 13.71, 0.000, 0.000, 0.000, 14:32:25.745
174, 52.18, -4.85, 24.16, 20.66, 0.000, 0.000, 0.000, 14:32:25.745
175, 297.89, 11.72, 6.08, 8.85, 0.000, 0.000, 0.000, 14:32:25.745
176, -50.66, 18.07, 8.39, 9.28, 0.000, 0.000, 0.000, 14:32:25.746
177, -125.69, 5.76, 23.15, 19.59, 0.000, 0.000, 0.000, 14:32:25.767
178, 317.06, 4.59, 10.30, 11.02, 0.000, 0.000, 0.000, 14:32:25.767
179, 76.29, 14.76, 1.89, 7.77, 0.000, 0.000, 0.000, 14:32:25.768
180, -242.49, 5.43, 10.25, 15.30, 0.000, 0.000, 0.000, 14:32:25.768
181, 207.82, 0.11, 16.64, 18.54, 0.000, 0.000, 0.000, 14:32:25.789
182, 198.46, 12.73, 1.60, 5.90, 0.000, 0.000, 0.000, 14:32:25.789
183, -225.82, 13.11, 9.87, 10.23, 0.000, 0.000, 0.000, 14:32:25.789
184, 40.17, 1.27, 23.98, 20.92, 0.000, 0.000, 0.000, 14:32:25.789
185, 277.30, 12.54, 8.91, 11.34, 0.000, 0.000, 0.000, 14:32:25.811
186, -66.82, 17.49, 0.87, 6.05, 0.000, 0.000, 0.000, 14:32:25.811
187, -145.75, -0.34, 20.82, 20.64, 0.000, 0.000, 0.000, 14:32:25.812
188, 311.03, 6.89, 8.94, 10.49, 0.000, 0.000, 0.000, 14:32:25.812
189, 86.43, 12.27, 0.18, 6.82, 0.000, 0.000, 0.000, 14:32:25.834
190, -234.02, 10.27, 13.76, 16.91, 0.000, 0.000, 0.000, 14:32:25.834
191, 230.33, -1.66, 20.34, 21.38, 0.000, 0.000, 0.000, 14:32:25.834
192, 221.03, 14.91, 2.13, 5.55, 0.000, 0.000, 0.000, 14:32:25.835
193, -205.37, 10.51, 8.13, 4.84, 0.000, 0.000, 0.000, 14:32:25.835
194, 30.70, -2.17, 24.98, 18.82, 0.000, 0.000, 0.000, 14:32:25.835
195, 293.69, 18.75, 4.92, 7.28, 0.000, 0.000, 0.000, 14:32:25.857
196, -57.85, 14.49, 2.58, 0.73, 0.000, 0.000, 0.000, 14:32:25.857
197, -145.90, 0.25, 19.48, 14.84, 0.000, 0.000, 0.000, 14:32:25.857
198, 308.90, 3.10, 8.02, 10.08, 0.000, 0.000, 0.000, 14:32:25.857
199, 85.81, 16.69, 2.24, 2.30, 0.000, 0.000, 0.000, 14:32:25.879
200, -240.52, 4.19, 13.59, 15.13, 0.000, 0.000, 0.000, 14:32:25.879
0, 217.70, -1.41, 14.01, 17.44, 0.000, 0.000, 0.000, 14:32:25.880
1, 220.53, 14.60, 5.17, 7.01, 0.000, 0.000, 0.000, 14:32:25.880
2, -210.21, 12.95, 10.88, 11.90, 0.000, 0.000, 0.000, 14:32:25.880
3, 39.80, 2.53, 21.40, 19.40, 0.000, 0.000, 0.000, 14:32:25.901
4, 288.70, 14.10, 4.39, 8.24, 0.000, 0.000, 0.000, 14:32:25.901
5, -48.63, 15.68, 3.36, 7.50, 0.000, 0.000, 0.000, 14:32:25.902
6, -140.63, 3.61, 19.63, 18.86, 0.000, 0.000, 0.000, 14:32:25.902
7, 300.85, 5.31, 13.10, 13.85, 0.000, 0.000, 0.000, 14:32:25.924
8, 78.59, 14.02, 6.47, 6.67, 0.000, 0.000, 0.000, 14:32:25.924
9, -241.69, 6.73, 12.16, 15.23, 0.000, 0.000, 0.000, 14:32:25.924
10, 215.81, 0.38, 15.81, 19.74, 0.000, 0.000, 0.000, 14:32:25.925
11, 220.95, 14.21, 6.94, 7.74, 0.000, 0.000, 0.000, 14:32:25.946
12, -210.12, 13.92, 9.00, 12.79, 0.000, 0.000, 0.000, 14:32:25.947
13, 35.02, -5.94, 20.08, 20.37, 0.000, 0.000, 0.000, 14:32:25.947
14, 290.47, 17.73, 5.68, 3.96, 0.000, 0.000, 0.000, 14:32:25.947
15, -59.47, 14.55, 5.38, 7.43, 0.000, 0.000, 0.000, 14:32:25.969
16, -150.39, 2.64, 19.88, 21.59, 0.000, 0.000, 0.000, 14:32:25.969
17, 314.13, 6.08, 14.69, 9.79, 0.000, 0.000, 0.000, 14:32:25.969
18, 93.27, 17.05, 3.40, 1.37, 0.000, 0.000, 0.000, 14:32:25.970
19, -241.11, 3.34, 8.80, 12.67, 0.000, 0.000, 0.000, 14:32:25.970
20, 210.62, 0.03, 14.39, 18.45, 0.000, 0.000, 0.000, 14:32:25.970
21, 229.92, 17.40, -0.30, 4.42, 0.000, 0.000, 0.000, 14:32:25.991
22, -211.46, 7.89, 9.26, 9.93, 0.000, 0.000, 0.000, 14:32:25.992
23, 39.91, -4.10, 23.75, 19.46, 0.000, 0.000, 0.000, 14:32:25.992
24, 290.38, 12.89, 3.76, 4.31, 0.000, 0.000, 0.000, 14:32:25.992
25, -51.13, 21.07, 6.78, 5.05, 0.000, 0.000, 0.000, 14:32:26.014
26, -158.41, -1.73, 17.02, 19.03, 0.000, 0.000, 0.000, 14:32:26.014
27, 322.14, 8.35, 11.23, 11.51, 0.000, 0.000, 0.000, 14:32:26.014
28, 94.62, 14.45, 3.32, 7.40, 0.000, 0.000, 0.000, 14:32:26.015
29, -254.02, 6.43, 16.07, 12.84, 0.000, 0.000, 0.000, 14:32:26.036
30, 205.46, 6.84, 17.85, 13.96, 0.000, 0.000, 0.000, 14:32:26.036
31, 215.99, 7.57, 4.57, 9.22, 0.000, 0.000, 0.000, 14:32:26.037
32, -202.81, 13.35, 10.38, 11.28, 0.000, 0.000, 0.000, 14:32:26.037
33, 28.01, -0.12, 24.73, 19.80, 0.000, 0.000, 0.000, 14:32:26.059
34, 290.39, 8.52, 7.03, 8.56, 0.000, 0.000, 0.000, 14:32:26.059
35, -60.46, 14.18, 4.47, 10.00, 0.000, 0.000, 0.000, 14:32:26.059
36, -154.13, 5.38, 27.26, 19.66, 0.000, 0.000, 0.000, 14:32:26.059
37, 304.54, 8.89, 8.56, 11.12, 0.000, 0.000, 0.000, 14:32:26.060
38, 79.30, 17.90, -0.13, 7.41, 0.000, 0.000, 0.000, 14:32:26.060
39, -245.57, 11.57, 14.74, 17.05, 0.000, 0.000, 0.000, 14:32:26.081
40, 203.01, -4.10, 20.92, 15.13, 0.000, 0.000, 0.000, 14:32:26.082
41, 222.40, 12.94, 5.22, 6.71, 0.000, 0.000, 0.000, 14:32:26.082
42, -203.28, 10.98, 12.26, 11.57, 0.000, 0.000, 0.000, 14:32:26.082
43, 36.75, -1.87, 18.03, 18.59, 0.000, 0.000, 0.000, 14:32:26.104
44, 282.83, 9.87, 1.64, 7.51, 0.000, 0.000, 0.000, 14:32:26.104
45, -63.50, 16.70, 4.08, 5.66, 0.000, 0.000, 0.000, 14:32:26.104
46, -166.49, 0.44, 22.61, 20.10, 0.000, 0.000, 0.000, 14:32:26.104
47, 308.80, 5.26, 16.80, 13.89, 0.000, 0.000, 0.000, 14:32:26.126
48, 102.23, 19.93, 1.50, 3.04, 0.000, 0.000, 0.000, 14:32:26.127
49, -247.19, 2.00, 12.70, 11.03, 0.000, 0.000, 0.000, 14:32:26.127
50, 208.44, 0.24, 17.33, 19.59, 0.000, 0.000, 0.000, 14:32:26.127
51, 221.00, 14.37, 0.86, 4.43, 0.000, 0.000, 0.000, 14:32:26.149
52, -203.58, 15.50, 4.55, 7.09, 0.000, 0.000, 0.000, 14:32:26.149
53, 19.55, -3.11, 22.41, 22.49, 0.000, 0.000, 0.000, 14:32:26.149
54, 295.17, 14.62, 2.55, 6.49, 0.000, 0.000, 0.000, 14:32:26.149
55, -36.98, 19.13, 3.49, 10.67, 0.000, 0.000, 0.000, 14:32:26.150
56, -169.56, -2.23, 17.85, 22.74, 0.000, 0.000, 0.000, 14:32:26.150
57, 306.31, 8.14, 12.27, 11.63, 0.000, 0.000, 0.000, 14:32:26.171
58, 104.41, 12.23, 8.53, 9.13, 0.000, 0.000, 0.000, 14:32:26.171
59, -244.93, 6.94, 23.42, 11.25, 0.000, 0.000, 0.000, 14:32:26.172
60, 201.23, 0.19, 20.75, 16.09, 0.000, 0.000, 0.000, 14:32:26.172
61, 224.26, 13.46, 5.48, 11.25, 0.000, 0.000, 0.000, 14:32:26.194
62, -199.76, 11.32, 9.55, 11.69, 0.000, 0.000, 0.000, 14:32:26.194
63, 15.29, -1.23, 19.88, 20.98, 0.000, 0.000, 0.000, 14:32:26.194
64, 299.20, 14.09, 2.82, 8.09, 0.000, 0.000, 0.000, 14:32:26.195
65, -60.16, 13.56, 2.30, 2.60, 0.000, 0.000, 0.000, 14:32:26.216
66, -166.65, 2.97, 18.29, 15.99, 0.000, 0.000, 0.000, 14:32:26.216
67, 312.12, 2.82, 6.78, 8.16, 0.000, 0.000, 0.000, 14:32:26.217
68, 107.45, 16.13, 6.41, 5.32, 0.000, 0.000, 0.000, 14:32:26.217
69, -248.64, 6.12, 12.40, 13.01, 0.000, 0.000, 0.000, 14:32:26.239
70, 187.55, 4.64, 18.89, 20.49, 0.000, 0.000, 0.000, 14:32:26.239
71, 234.13, 13.42, 3.95, 10.18, 0.000, 0.000, 0.000, 14:32:26.240
72, -196.80, 15.37, 6.00, 7.55, 0.000, 0.000, 0.000, 14:32:26.240
73, 19.28, -4.32, 22.81, 24.13, 0.000, 0.000, 0.000, 14:32:26.242
74, 293.12, 10.94, 4.20, 9.06, 0.000, 0.000, 0.000, 14:32:26.242
75, -44.81, 18.02, 5.32, 4.14, 0.000, 0.000, 0.000, 14:32:26.262
76, -155.69, -2.55, 18.94, 19.93, 0.000, 0.000, 0.000, 14:32:26.262
77, 317.76, 7.51, 16.45, 13.37, 0.000, 0.000, 0.000, 14:32:26.263
78, 98.48, 15.55, 3.54, 7.06, 0.000, 0.000, 0.000, 14:32:26.263
79, -247.51, 8.17, 9.89, 17.42, 0.000, 0.000, 0.000, 14:32:26.284
80, 195.47, -3.67, 20.11, 18.20, 0.000, 0.000, 0.000, 14:32:26.284
81, 246.15, 15.23, 3.40, 9.60, 0.000, 0.000, 0.000, 14:32:26.284
82, -174.76, 15.68, 5.43, 7.50, 0.000, 0.000, 0.000, 14:32:26.285
83, -12.54, -1.90, 21.12, 20.05, 0.000, 0.000, 0.000, 14:32:26.306
84, 289.77, 17.88, 4.77, 7.94, 0.000, 0.000, 0.000, 14:32:26.307
85, 13.86, 8.60, -0.06, 1.71, 0.000, 0.000, 0.000, 14:32:26.307
86, -184.61, 3.60, 23.56, 19.10, 0.000, 0.000, 0.000, 14:32:26.307
87, 304.80, 6.11, 15.37, 11.53, 0.000, 0.000, 0.000, 14:32:26.331
88, 134.84, 19.60, 3.51, 8.22, 0.000, 0.000, 0.000, 14:32:26.331
89, -260.87, 1.41, 15.19, 15.01, 0.000, 0.000, 0.000, 14:32:26.331
90, 82.67, 2.56, 15.02, 16.20, 0.000, 0.000, 0.000, 14:32:26.331
91, 212.78, 14.28, 2.86, 3.82, 0.000, 0.000, 0.000, 14:32:26.331
92, -161.23, 10.71, 7.59, 6.38, 0.000, 0.000, 0.000, 14:32:26.332
93, 60.87, -1.27, 22.11, 21.08, 0.000, 0.000, 0.000, 14:32:26.353
94, 281.72, 9.20, 4.58, 7.02, 0.000, 0.000, 0.000, 14:32:26.353
95, -60.28, 15.93, 3.86, 8.51, 0.000, 0.000, 0.000, 14:32:26.353
96, -189.48, -0.31, 23.23, 18.86, 0.000, 0.000, 0.000, 14:32:26.353
97, 359.50, 5.96, 13.87, 14.30, 0.000, 0.000, 0.000, 14:32:26.374
98, 230.71, 17.02, 9.09, 6.57, 0.000, 0.000, 0.000, 14:32:26.374
99, -206.51, 8.61, 12.44, 14.50, 0.000, 0.000, 0.000, 14:32:26.376
100, 67.64, -0.05, 20.87, 18.01, 0.000, 0.000, 0.000, 14:32:26.376
101, 29.23, 9.67, 5.34, 5.49, 0.000, 0.000, 0.000, 14:32:26.396
102, -207.88, 18.31, 4.35, 7.19, 0.000, 0.000, 0.000, 14:32:26.397
103, 190.06, -5.31, 23.03, 23.06, 0.000, 0.000, 0.000, 14:32:26.397
104, 260.54, 13.39, 6.44, 8.62, 0.000, 0.000, 0.000, 14:32:26.397
105, -295.92, 19.62, 3.28, 4.75, 0.000, 0.000, 0.000, 14:32:26.419
106, -143.08, -1.57, 17.79, 18.49, 0.000, 0.000, 0.000, 14:32:26.419
107, 372.03, -0.26, 9.18, 12.25, 0.000, 0.000, 0.000, 14:32:26.419
108, 148.66, 13.55, 2.65, 1.97, 0.000, 0.000, 0.000, 14:32:26.419
109, -206.41, 8.83, 16.25, 14.30, 0.000, 0.000, 0.000, 14:32:26.420
110, 253.98, -1.44, 21.09, 19.48, 0.000, 0.000, 0.000, 14:32:26.420
111, 337.26, 19.98, 0.84, 1.13, 0.000, 0.000, 0.000, 14:32:26.441
112, -80.13, 14.26, 5.16, 6.73, 0.000, 0.000, 0.000, 14:32:26.442
113, 126.84, -4.99, 22.95, 20.55, 0.000, 0.000, 0.000, 14:32:26.442
114, 323.88, 12.94, 6.90, 8.71, 0.000, 0.000, 0.000, 14:32:26.442
115, -169.34, 20.20, 10.09, 7.37, 0.000, 0.000, 0.000, 14:32:26.464
116, -275.42, 1.57, 19.28, 22.68, 0.000, 0.000, 0.000, 14:32:26.464
117, 234.87, 5.80, 9.81, 14.45, 0.000, 0.000, 0.000, 14:32:26.464
118, -123.29, 15.62, 2.50, 7.00, 0.000, 0.000, 0.000, 14:32:26.464
119, -267.31, 9.23, 15.40, 14.19, 0.000, 0.000, 0.000, 14:32:26.486
120, 11.57, 7.35, 18.51, 20.44, 0.000, 0.000, 0.000, 14:32:26.486
121, 45.41, 9.65, 5.07, 6.27, 0.000, 0.000, 0.000, 14:32:26.487
122, -82.91, 12.67, 5.42, 10.81, 0.000, 0.000, 0.000, 14:32:26.487
123, 294.33, -0.11, 19.86, 18.83, 0.000, 0.000, 0.000, 14:32:26.509
124, 308.89, 13.03, 1.58, 6.05, 0.000, 0.000, 0.000, 14:32:26.509
125, 83.76, 13.90, 5.80, 6.75, 0.000, 0.000, 0.000, 14:32:26.531
126, -130.71, 7.45, 18.54, 19.61, 0.000, 0.000, 0.000, 14:32:26.531
127, 532.98, 6.34, 10.74, 14.28, 0.000, 0.000, 0.000, 14:32:26.531
128, 309.83, 16.41, 1.16, 6.15, 0.000, 0.000, 0.000, 14:32:26.532
129, -287.09, 4.25, 13.46, 14.55, 0.000, 0.000, 0.000, 14:32:26.532
130, 93.28, 3.61, 23.36, 17.59, 0.000, 0.000, 0.000, 14:32:26.533
131, 53.97, 14.84, 5.95, 4.60, 0.000, 0.000, 0.000, 14:32:26.554
132, -364.49, 12.27, 7.15, 7.14, 0.000, 0.000, 0.000, 14:32:26.554
133, -168.93, -1.91, 21.38, 23.05, 0.000, 0.000, 0.000, 14:32:26.554
134, 147.60, 10.20, 6.52, 5.92, 0.000, 0.000, 0.000, 14:32:26.555
135, -143.17, 15.45, 3.62, 7.86, 0.000, 0.000, 0.000, 14:32:26.555
136, -252.18, 3.47, 19.65, 17.01, 0.000, 0.000, 0.000, 14:32:26.555
137, 539.71, 9.20, 8.24, 12.45, 0.000, 0.000, 0.000, 14:32:26.577
138, 297.16, 17.52, 2.20, 7.04, 0.000, 0.000, 0.000, 14:32:26.577
139, -342.25, 6.17, 11.87, 14.05, 0.000, 0.000, 0.000, 14:32:26.577
140, 156.78, -3.99, 20.57, 13.62, 0.000, 0.000, 0.000, 14:32:26.577
141, 346.46, 13.82, 0.86, 5.04, 0.000, 0.000, 0.000, 14:32:26.599
142, 5.72, 14.15, 7.55, 10.72, 0.000, 0.000, 0.000, 14:32:26.599
143, 146.14, -2.47, 17.54, 22.11, 0.000, 0.000, 0.000, 14:32:26.599
144, 326.58, 12.03, 2.15, 7.25, 0.000, 0.000, 0.000, 14:32:26.599
145, -108.61, 14.50, 2.81, 6.19, 0.000, 0.000, 0.000, 14:32:26.600
146, -250.26, -0.88, 21.31, 19.68, 0.000, 0.000, 0.000, 14:32:26.600
147, 252.22, 5.04, 16.40, 15.69, 0.000, 0.000, 0.000, 14:32:26.621
148, 32.00, 11.61, 2.31, 5.76, 0.000, 0.000, 0.000, 14:32:26.621
149, -271.72, 9.12, 16.04, 13.06, 0.000, 0.000, 0.000, 14:32:26.622
150, 20.51, -1.87, 21.57, 19.82, 0.000, 0.000, 0.000, 14:32:26.622
151, 269.58, 11.48, 10.18, 8.91, 0.000, 0.000, 0.000, 14:32:26.645
152, -167.97, 10.36, 5.93, 7.93, 0.000, 0.000, 0.000, 14:32:26.645
153, 46.43, -4.41, 21.87, 22.98, 0.000, 0.000, 0.000, 14:32:26.645
154, 245.89, 12.44, 5.47, 8.85, 0.000, 0.000, 0.000, 14:32:26.646
155, 34.06, 18.64, 0.08, 4.76, 0.000, 0.000, 0.000, 14:32:26.666
156, -94.46, 10.93, 19.04, 17.77, 0.000, 0.000, 0.000, 14:32:26.666
157, 363.49, 0.61, 10.94, 14.36, 0.000, 0.000, 0.000, 14:32:26.667
158, 145.51, 17.01, 4.55, 4.63, 0.000, 0.000, 0.000, 14:32:26.667
159, -334.81, 7.12, 12.23, 11.05, 0.000, 0.000, 0.000, 14:32:26.689
160, 156.18, 5.36, 18.36, 21.37, 0.000, 0.000, 0.000, 14:32:26.689
161, 202.59, 12.85, 6.06, 7.42, 0.000, 0.000, 0.000, 14:32:26.689
162, -130.75, 18.25, 9.01, 10.85, 0.000, 0.000, 0.000, 14:32:26.689
163, 128.49, -5.34, 20.72, 23.06, 0.000, 0.000, 0.000, 14:32:26.712
164, 289.91, 8.36, 10.53, 6.08, 0.000, 0.000, 0.000, 14:32:26.712
165, -133.47, 22.68, 1.82, 4.00, 0.000, 0.000, 0.000, 14:32:26.713
166, -304.14, -7.54, 17.76, 15.20, 0.000, 0.000, 0.000, 14:32:26.713
167, 357.70, 6.67, 12.89, 13.33, 0.000, 0.000, 0.000, 14:32:26.713
168, 312.29, 13.98, -0.90, 3.84, 0.000, 0.000, 0.000, 14:32:26.713
169, -314.65, 6.59, 15.36, 10.33, 0.000, 0.000, 0.000, 14:32:26.734
170, 100.20, -1.60, 24.15, 17.37, 0.000, 0.000, 0.000, 14:32:26.734
171, 96.95, 13.50, 7.78, 6.54, 0.000, 0.000, 0.000, 14:32:26.734
172, -181.92, 10.44, 3.73, 6.35, 0.000, 0.000, 0.000, 14:32:26.735
173, 66.22, -4.08, 21.99, 24.50, 0.000, 0.000, 0.000, 14:32:26.756
174, 308.68, 19.29, 6.00, 5.69, 0.000, 0.000, 0.000, 14:32:26.757
175, 25.18, 12.08, 5.46, 6.44, 0.000, 0.000, 0.000, 14:32:26.757
176, -215.88, 5.36, 23.46, 20.09, 0.000, 0.000, 0.000, 14:32:26.757
177, 295.16, 4.59, 12.38, 13.65, 0.000, 0.000, 0.000, 14:32:26.779
178, 234.46, 17.44, 1.81, 6.20, 0.000, 0.000, 0.000, 14:32:26.779
179, -138.17, 6.07, 16.31, 13.56, 0.000, 0.000, 0.000, 14:32:26.781
180, 161.57, 3.25, 20.01, 15.74, 0.000, 0.000, 0.000, 14:32:26.781
181, 149.30, 14.12, 4.98, 4.44, 0.000, 0.000, 0.000, 14:32:26.781
182, -274.43, 15.04, 5.98, 6.50, 0.000, 0.000, 0.000, 14:32:26.782
183, 47.78, 0.02, 20.18, 21.36, 0.000, 0.000, 0.000, 14:32:26.801
184, 385.25, 11.54, 7.05, 11.81, 0.000, 0.000, 0.000, 14:32:26.801
185, -36.56, 15.47, 6.85, 5.03, 0.000, 0.000, 0.000, 14:32:26.802
186, -268.38, 3.27, 18.34, 17.06, 0.000, 0.000, 0.000, 14:32:26.802
187, 235.23, 6.85, 8.23, 13.24, 0.000, 0.000, 0.000, 14:32:26.824
188, -108.29, 14.39, -1.55, 8.20, 0.000, 0.000, 0.000, 14:32:26.824
189, -198.01, 6.30, 13.76, 13.92, 0.000, 0.000, 0.000, 14:32:26.825
190, 71.93, -0.49, 21.22, 18.20, 0.000, 0.000, 0.000, 14:32:26.825
191, 369.69, 13.42, 3.82, 6.98, 0.000, 0.000, 0.000, 14:32:26.846
192, 105.52, 15.53, 5.57, 9.75, 0.000, 0.000, 0.000, 14:32:26.847
193, 46.24, -6.74, 21.62, 23.84, 0.000, 0.000, 0.000, 14:32:26.847
194, 322.51, 12.75, 9.18, 8.04, 0.000, 0.000, 0.000, 14:32:26.847
195, -182.50, 16.08, 5.23, 5.91, 0.000, 0.000, 0.000, 14:32:26.869
196, -229.31, -1.04, 20.56, 16.95, 0.000, 0.000, 0.000, 14:32:26.869
197, 291.24, 7.05, 12.32, 14.67, 0.000, 0.000, 0.000, 14:32:26.869
198, 277.60, 12.73, 3.81, 6.68, 0.000, 0.000, 0.000, 14:32:26.869
199, -416.87, 6.74, 12.02, 11.74, 0.000, 0.000, 0.000, 14:32:26.870
200, 182.96, 0.83, 19.80, 18.47, 0.000, 0.000, 0.000, 14:32:26.870
0, 363.86, 16.49, 6.24, 6.57, 0.000, 0.000, 0.000, 14:32:26.891
1, -136.15, 9.20, 4.77, 8.32, 0.000, 0.000, 0.000, 14:32:26.892
2, 23.22, -3.19, 21.41, 21.44, 0.000, 0.000, 0.000, 14:32:26.892
3, 228.64, 9.15, 1.24, 9.49, 0.000, 0.000, 0.000, 14:32:26.914
4, -286.91, 11.95, 5.02, 9.15, 0.000, 0.000, 0.000, 14:32:26.914
5, -64.54, -0.56, 19.96, 18.94, 0.000, 0.000, 0.000, 14:32:26.918
6, 344.06, 7.87, 14.23, 14.87, 0.000, 0.000, 0.000, 14:32:26.918
7, 19.40, 19.76, 1.78, 5.42, 0.000, 0.000, 0.000, 14:32:26.918
8, -152.31, 8.44, 7.39, 16.11, 0.000, 0.000, 0.000, 14:32:26.918
9, 197.23, 3.56, 16.18, 14.85, 0.000, 0.000, 0.000, 14:32:26.936
10, 289.66, 11.18, 2.29, 4.86, 0.000, 0.000, 0.000, 14:32:26.937
11, -140.56, 12.11, 4.45, 11.87, 0.000, 0.000, 0.000, 14:32:26.937
12, -34.63, -1.88, 20.17, 17.27, 0.000, 0.000, 0.000, 14:32:26.937
13, 195.72, 10.16, 6.76, 5.67, 0.000, 0.000, 0.000, 14:32:26.959
14, -14.89, 15.82, 7.53, 6.20, 0.000, 0.000, 0.000, 14:32:26.959
15, -138.21, -2.09, 21.51, 15.08, 0.000, 0.000, 0.000, 14:32:26.959
16, 300.79, 8.80, 15.48, 14.85, 0.000, 0.000, 0.000, 14:32:26.960
17, 81.57, 19.02, 4.21, 6.20, 0.000, 0.000, 0.000, 14:32:26.981
18, -331.60, 10.30, 11.64, 13.71, 0.000, 0.000, 0.000, 14:32:26.981
19, 321.42, -5.59, 19.74, 22.12, 0.000, 0.000, 0.000, 14:32:26.982
20, 283.69, 14.47, 1.85, 4.30, 0.000, 0.000, 0.000, 14:32:26.982
21, -210.26, 11.88, 3.11, 7.36, 0.000, 0.000, 0.000, 14:32:27.004
22, 86.83, 0.16, 19.15, 19.68, 0.000, 0.000, 0.000, 14:32:27.004
23, 291.31, 8.07, 5.13, 8.61, 0.000, 0.000, 0.000, 14:32:27.004
24, -35.71, 18.97, 5.50, 6.86, 0.000, 0.000, 0.000, 14:32:27.004
25, -112.30, 0.54, 21.67, 15.77, 0.000, 0.000, 0.000, 14:32:27.005
26, 315.19, 3.47, 16.43, 15.12, 0.000, 0.000, 0.000, 14:32:27.005
27, 71.54, 23.07, 4.31, 5.47, 0.000, 0.000, 0.000, 14:32:27.027
28, -389.02, 7.61, 17.15, 14.31, 0.000, 0.000, 0.000, 14:32:27.027
29, 138.82, -1.59, 16.45, 21.51, 0.000, 0.000, 0.000, 14:32:27.027
30, 349.86, 15.16, 0.22, 4.60, 0.000, 0.000, 0.000, 14:32:27.027
31, -215.04, 15.55, 9.34, 7.06, 0.000, 0.000, 0.000, 14:32:27.049
32, -30.60, -4.12, 25.10, 19.81, 0.000, 0.000, 0.000, 14:32:27.049
33, 323.30, 11.78, 8.08, 10.28, 0.000, 0.000, 0.000, 14:32:27.049
34, -11.34, 16.17, 4.79, 5.64, 0.000, 0.000, 0.000, 14:32:27.049
35, -127.74, 0.14, 18.30, 18.54, 0.000, 0.000, 0.000, 14:32:27.071
36, 273.87, 11.96, 11.65, 12.84, 0.000, 0.000, 0.000, 14:32:27.071
37, 100.60, 7.95, 0.63, 5.81, 0.000, 0.000, 0.000, 14:32:27.072
38, -274.71, 9.31, 10.90, 14.80, 0.000, 0.000, 0.000, 14:32:27.072
39, 145.82, 1.90, 20.15, 16.07, 0.000, 0.000, 0.000, 14:32:27.094
40, 272.35, 12.87, 5.79, 8.89, 0.000, 0.000, 0.000, 14:32:27.094
41, -159.89, 13.29, 8.06, 6.91, 0.000, 0.000, 0.000, 14:32:27.094
42, 19.34, 1.21, 24.09, 21.17, 0.000, 0.000, 0.000, 14:32:27.095
43, 194.69, 14.30, 9.71, 8.68, 0.000, 0.000, 0.000, 14:32:27.095
44, 54.56, 14.47, 2.20, 5.28, 0.000, 0.000, 0.000, 14:32:27.095
45, -152.04, 0.78, 19.29, 17.54, 0.000, 0.000, 0.000, 14:32:27.116
46, 213.87, 3.10, 11.31, 11.51, 0.000, 0.000, 0.000, 14:32:27.116
47, -17.69, 17.20, 1.49, 5.96, 0.000, 0.000, 0.000, 14:32:27.117
48, -88.71, 6.01, 11.16, 11.71, 0.000, 0.000, 0.000, 14:32:27.117
49, 210.66, 2.80, 18.17, 16.38, 0.000, 0.000, 0.000, 14:32:27.139
50, 272.84, 14.31, 4.93, 6.05, 0.000, 0.000, 0.000, 14:32:27.139
51, -203.99, 13.47, 4.32, 8.31, 0.000, 0.000, 0.000, 14:32:27.139
52, 5.05, -3.30, 19.10, 21.89, 0.000, 0.000, 0.000, 14:32:27.139
53, 352.33, 9.62, 8.33, 9.26, 0.000, 0.000, 0.000, 14:32:27.161
54, -32.92, 21.01, 3.95, 7.15, 0.000, 0.000, 0.000, 14:32:27.161
55, -263.30, -3.26, 17.45, 18.68, 0.000, 0.000, 0.000, 14:32:27.162
56, 278.41, 4.10, 12.52, 11.23, 0.000, 0.000, 0.000, 14:32:27.162
57, 95.31, 17.90, 1.12, 7.91, 0.000, 0.000, 0.000, 14:32:27.184
58, -281.37, 6.59, 8.93, 16.62, 0.000, 0.000, 0.000, 14:32:27.184
59, 220.34, -0.43, 22.26, 19.20, 0.000, 0.000, 0.000, 14:32:27.185
60, 191.52, 14.29, 2.67, 9.42, 0.000, 0.000, 0.000, 14:32:27.185
61, -170.50, 14.55, 8.06, 9.49, 0.000, 0.000, 0.000, 14:32:27.185
62, -75.36, -5.65, 20.77, 22.33, 0.000, 0.000, 0.000, 14:32:27.186
63, 281.61, 18.62, 6.01, 8.70, 0.000, 0.000, 0.000, 14:32:27.206
64, 133.13, 15.29, 7.33, 6.31, 0.000, 0.000, 0.000, 14:32:27.206
65, -146.23, 3.55, 18.68, 21.57, 0.000, 0.000, 0.000, 14:32:27.207
66, 296.56, 5.88, 21.46, 11.70, 0.000, 0.000, 0.000, 14:32:27.207
67, 166.49, 15.09, 6.95, 5.93, 0.000, 0.000, 0.000, 14:32:27.229
68, -101.51, 8.26, 10.68, 10.73, 0.000, 0.000, 0.000, 14:32:27.229
69, 158.76, 0.90, 21.08, 15.79, 0.000, 0.000, 0.000, 14:32:27.230
70, 206.76, 13.07, 0.53, 6.01, 0.000, 0.000, 0.000, 14:32:27.230
71, -283.55, 13.80, 7.86, 8.20, 0.000, 0.000, 0.000, 14:32:27.251
72, -90.53, 2.04, 22.47, 19.60, 0.000, 0.000, 0.000, 14:32:27.251
73, 289.55, 3.70, 4.58, 7.14, 0.000, 0.000, 0.000, 14:32:27.252
74, 4.69, 14.23, 5.28, 5.25, 0.000, 0.000, 0.000, 14:32:27.252
75, -310.86, 0.14, 19.17, 19.54, 0.000, 0.000, 0.000, 14:32:27.274
76, 297.91, 6.09, 9.47, 14.68, 0.000, 0.000, 0.000, 14:32:27.274
77, 112.59, 10.74, 2.63, 6.07, 0.000, 0.000, 0.000, 14:32:27.274
78, -217.40, 8.44, 10.67, 12.00, 0.000, 0.000, 0.000, 14:32:27.274
79, 94.35, 1.68, 17.04, 18.76, 0.000, 0.000, 0.000, 14:32:27.275
80, 542.47, 16.71, 7.06, 5.54, 0.000, 0.000, 0.000, 14:32:27.275
81, -211.57, 18.33, 7.27, 6.95, 0.000, 0.000, 0.000, 14:32:27.296
82, -113.27, -3.94, 24.14, 22.89, 0.000, 0.000, 0.000, 14:32:27.297
83, 401.87, 11.75, 8.72, 12.63, 0.000, 0.000, 0.000, 14:32:27.297
84, 74.96, 10.27, 3.13, 4.67, 0.000, 0.000, 0.000, 14:32:27.297
85, -256.41, 1.57, 16.77, 19.08, 0.000, 0.000, 0.000, 14:32:27.319
86, 295.58, 2.11, 12.69, 12.67, 0.000, 0.000, 0.000, 14:32:27.319
87, 59.65, 19.15, 5.90, 7.56, 0.000, 0.000, 0.000, 14:32:27.320
88, -291.42, 6.74, 14.22, 10.03, 0.000, 0.000, 0.000, 14:32:27.320
89, 189.20, 2.46, 19.18, 16.24, 0.000, 0.000, 0.000, 14:32:27.342
90, 276.74, 20.71, 5.02, 7.64, 0.000, 0.000, 0.000, 14:32:27.342
91, -241.52, 9.37, 7.64, 3.34, 0.000, 0.000, 0.000, 14:32:27.342
92, 23.97, -4.00, 20.60, 20.70, 0.000, 0.000, 0.000, 14:32:27.342
93, 217.53, 10.54, 5.16, 7.50, 0.000, 0.000, 0.000, 14:32:27.364
94, -147.75, 17.86, 2.72, 8.27, 0.000, 0.000, 0.000, 14:32:27.364
95, -66.85, 0.30, 19.20, 16.53, 0.000, 0.000, 0.000, 14:32:27.365
96, 319.30, 8.62, 8.52, 12.95, 0.000, 0.000, 0.000, 14:32:27.365
97, 180.93, 19.05, -3.04, 5.13, 0.000, 0.000, 0.000, 14:32:27.365
98, -195.03, 10.80, 12.88, 13.87, 0.000, 0.000, 0.000, 14:32:27.365
99, 218.61, 1.89, 19.53, 18.49, 0.000, 0.000, 0.000, 14:32:27.387
100, 309.48, 9.54, 4.84, 9.43, 0.000, 0.000, 0.000, 14:32:27.387
101, -161.15, 11.38, 15.00, 7.13, 0.000, 0.000, 0.000, 14:32:27.388
102, -213.65, 0.05, 28.31, 20.41, 0.000, 0.000, 0.000, 14:32:27.388
103, 242.06, 10.65, 7.97, 8.17, 0.000, 0.000, 0.000, 14:32:27.409
104, 77.37, 14.15, 7.02, 7.29, 0.000, 0.000, 0.000, 14:32:27.409
105, -241.57, 0.97, 16.72, 18.71, 0.000, 0.000, 0.000, 14:32:27.410
106, 273.77, 6.18, 18.16, 13.89, 0.000, 0.000, 0.000, 14:32:27.410
107, 17.21, 16.44, 5.88, 8.14, 0.000, 0.000, 0.000, 14:32:27.431
108, -132.59, 12.89, 11.00, 10.09, 0.000, 0.000, 0.000, 14:32:27.432
109, 263.43, -4.99, 12.02, 20.41, 0.000, 0.000, 0.000, 14:32:27.432
110, 221.69, 13.37, 3.15, 7.49, 0.000, 0.000, 0.000, 14:32:27.432
111, -215.40, 14.00, 7.57, 6.64, 0.000, 0.000, 0.000, 14:32:27.454
112, -32.67, -1.12, 24.09, 22.33, 0.000, 0.000, 0.000, 14:32:27.454
113, 363.42, 9.30, 6.55, 6.33, 0.000, 0.000, 0.000, 14:32:27.454
114, 33.97, 18.62, 6.89, 4.69, 0.000, 0.000, 0.000, 14:32:27.454
115, -174.64, 1.73, 22.47, 19.03, 0.000, 0.000, 0.000, 14:32:27.455
116, 272.70, 3.24, 16.75, 15.43, 0.000, 0.000, 0.000, 14:32:27.455
117, 70.51, 16.83, 4.72, 5.61, 0.000, 0.000, 0.000, 14:32:27.476
118, -226.33, 8.44, 18.71, 13.47, 0.000, 0.000, 0.000, 14:32:27.477
119, 139.37, -1.66, 19.31, 22.75, 0.000, 0.000, 0.000, 14:32:27.477
120, 163.32, 12.08, -0.57, 6.62, 0.000, 0.000, 0.000, 14:32:27.477
121, -158.36, 16.86, 4.09, 5.80, 0.000, 0.000, 0.000, 14:32:27.499
122, 50.53, -4.94, 20.63, 21.10, 0.000, 0.000, 0.000, 14:32:27.499
123, 370.01, 10.34, 5.98, 9.46, 0.000, 0.000, 0.000, 14:32:27.499
124, -26.18, 14.45, 2.67, 7.01, 0.000, 0.000, 0.000, 14:32:27.499
125, -230.75, 3.47, 16.02, 17.17, 0.000, 0.000, 0.000, 14:32:27.521
126, 271.45, 7.78, 11.09, 11.63, 0.000, 0.000, 0.000, 14:32:27.521
127, 138.69, 10.38, 10.08, 6.94, 0.000, 0.000, 0.000, 14:32:27.522
128, -228.06, 13.50, 9.95, 13.08, 0.000, 0.000, 0.000, 14:32:27.522
129, 168.44, -0.02, 21.21, 19.08, 0.000, 0.000, 0.000, 14:32:27.544
130, 278.27, 13.22, 0.30, 5.74, 0.000, 0.000, 0.000, 14:32:27.544
131, -219.78, 10.75, 7.56, 6.94, 0.000, 0.000, 0.000, 14:32:27.544
132, -38.12, 0.11, 24.60, 17.36, 0.000, 0.000, 0.000, 14:32:27.544
133, 273.49, 4.94, 10.73, 8.91, 0.000, 0.000, 0.000, 14:32:27.545
134, 66.88, 18.81, 5.66, 4.39, 0.000, 0.000, 0.000, 14:32:27.545
135, -138.06, 5.62, 17.95, 16.00, 0.000, 0.000, 0.000, 14:32:27.566
136, 291.68, -0.53, 8.63, 15.91, 0.000, 0.000, 0.000, 14:32:27.566
137, 38.87, 17.12, -2.76, 5.76, 0.000, 0.000, 0.000, 14:32:27.567
138, -264.46, 11.89, 13.27, 10.86, 0.000, 0.000, 0.000, 14:32:27.567
139, 174.57, 2.50, 19.02, 16.57, 0.000, 0.000, 0.000, 14:32:27.589
140, 257.77, 13.50, 3.87, 7.81, 0.000, 0.000, 0.000, 14:32:27.589
141, -153.84, 8.64, 2.58, 7.70, 0.000, 0.000, 0.000, 14:32:27.589
142, -23.69, -3.19, 20.46, 24.47, 0.000, 0.000, 0.000, 14:32:27.589
143, 266.94, 10.68, 6.20, 10.33, 0.000, 0.000, 0.000, 14:32:27.611
144, -7.00, 21.00, -0.06, 10.02, 0.000, 0.000, 0.000, 14:32:27.611
145, -119.66, -3.82, 19.17, 17.07, 0.000, 0.000, 0.000, 14:32:27.612
146, 315.23, 2.08, 16.64, 14.92, 0.000, 0.000, 0.000, 14:32:27.612
147, 128.82, 13.56, 5.70, 6.43, 0.000, 0.000, 0.000, 14:32:27.634
148, -306.44, 9.64, 9.41, 11.10, 0.000, 0.000, 0.000, 14:32:27.634
149, 163.89, -0.67, 17.95, 20.60, 0.000, 0.000, 0.000, 14:32:27.634
150, 286.43, 13.73, 3.84, 3.32, 0.000, 0.000, 0.000, 14:32:27.634
151, -127.10, 17.53, 9.88, 11.52, 0.000, 0.000, 0.000, 14:32:27.635
152, -48.94, -2.63, 20.40, 21.73, 0.000, 0.000, 0.000, 14:32:27.635
153, 297.91, 13.87, 4.74, 8.24, 0.000, 0.000, 0.000, 14:32:27.656
154, -49.13, 15.86, 10.60, 7.22, 0.000, 0.000, 0.000, 14:32:27.657
155, -198.69, 4.61, 17.49, 19.97, 0.000, 0.000, 0.000, 14:32:27.657
156, 281.09, 5.95, 14.28, 15.09, 0.000, 0.000, 0.000, 14:32:27.657
157, 132.93, 14.31, 4.77, 5.89, 0.000, 0.000, 0.000, 14:32:27.679
158, -284.92, 9.14, 21.06, 11.34, 0.000, 0.000, 0.000, 14:32:27.679
159, 264.89, 1.64, 15.85, 18.69, 0.000, 0.000, 0.000, 14:32:27.679
160, 181.97, 13.83, 4.15, 8.21, 0.000, 0.000, 0.000, 14:32:27.679
161, -183.66, 10.62, 4.58, 9.53, 0.000, 0.000, 0.000, 14:32:27.701
162, 20.32, 2.33, 23.49, 19.23, 0.000, 0.000, 0.000, 14:32:27.701
163, 377.36, 7.47, 4.78, 7.59, 0.000, 0.000, 0.000, 14:32:27.702
164, -9.11, 14.57, 3.18, 0.96, 0.000, 0.000, 0.000, 14:32:27.702
165, -308.19, 2.35, 21.35, 20.45, 0.000, 0.000, 0.000, 14:32:27.724
166, 221.11, 4.07, 11.80, 14.86, 0.000, 0.000, 0.000, 14:32:27.724
167, 311.20, 15.31, 1.73, 8.45, 0.000, 0.000, 0.000, 14:32:27.725
168, -267.81, 9.67, 12.07, 12.47, 0.000, 0.000, 0.000, 14:32:27.725
169, 77.99, -0.77, 20.61, 19.75, 0.000, 0.000, 0.000, 14:32:27.725
170, 145.99, 15.04, -0.15, 5.11, 0.000, 0.000, 0.000, 14:32:27.725
171, -195.41, 17.05, 2.93, 6.12, 0.000, 0.000, 0.000, 14:32:27.746
172, -71.43, -1.89, 22.31, 21.04, 0.000, 0.000, 0.000, 14:32:27.746
173, 503.16, 6.97, 11.41, 8.17, 0.000, 0.000, 0.000, 14:32:27.747
174, 40.22, 15.93, 7.34, 7.67, 0.000, 0.000, 0.000, 14:32:27.747
175, -266.82, 0.42, 18.27, 20.23, 0.000, 0.000, 0.000, 14:32:27.769
176, 435.73, 3.92, 15.11, 16.35, 0.000, 0.000, 0.000, 14:32:27.769
177, 179.92, 19.40, 6.62, 4.04, 0.000, 0.000, 0.000, 14:32:27.769
178, -308.12, 9.96, 9.10, 9.82, 0.000, 0.000, 0.000, 14:32:27.769
179, 174.54, -1.30, 21.56, 20.25, 0.000, 0.000, 0.000, 14:32:27.792
180, 223.83, 15.47, 2.18, 5.14, 0.000, 0.000, 0.000, 14:32:27.792
181, -150.13, 12.53, 2.45, 11.14, 0.000, 0.000, 0.000, 14:32:27.792
182, -42.98, -3.15, 23.32, 23.22, 0.000, 0.000, 0.000, 14:32:27.792
183, 144.58, 10.82, 8.11, 7.14, 0.000, 0.000, 0.000, 14:32:27.814
184, -75.45, 14.30, 2.25, 5.44, 0.000, 0.000, 0.000, 14:32:27.814
185, -0.16, -0.97, 16.96, 21.11, 0.000, 0.000, 0.000, 14:32:27.814
186, 223.32, 3.55, 14.16, 14.82, 0.000, 0.000, 0.000, 14:32:27.814
187, 72.34, 19.05, 11.43, 6.29, 0.000, 0.000, 0.000, 14:32:27.815
188, -163.81, 15.32, 13.61, 13.20, 0.000, 0.000, 0.000, 14:32:27.815
189, 141.19, 0.47, 18.38, 18.82, 0.000, 0.000, 0.000, 14:32:27.837
190, 280.58, 14.26, 4.01, 5.40, 0.000, 0.000, 0.000, 14:32:27.837
191, -115.60, 10.43, 7.73, 6.79, 0.000, 0.000, 0.000, 14:32:27.837
192, -29.92, -1.44, 20.01, 19.79, 0.000, 0.000, 0.000, 14:32:27.837
193, 374.42, 8.92, 8.52, 11.69, 0.000, 0.000, 0.000, 14:32:27.859
194, -243.76, 15.00, 5.51, 5.61, 0.000, 0.000, 0.000, 14:32:27.859
195, -183.34, 3.00, 17.39, 19.40, 0.000, 0.000, 0.000, 14:32:27.859
196, 433.72, 3.78, 11.65, 15.50, 0.000, 0.000, 0.000, 14:32:27.860
197, 70.00, 16.93, 0.88, 7.31, 0.000, 0.000, 0.000, 14:32:27.882
198, -262.33, 13.93, 22.23, 10.51, 0.000, 0.000, 0.000, 14:32:27.882
199, 52.24, -4.38, 19.60, 19.29, 0.000, 0.000, 0.000, 14:32:27.882
200, 290.57, 14.00, 2.61, 4.10, 0.000, 0.000, 0.000, 14:32:27.882
0, -29.34, 13.90, 5.36, 7.24, 0.000, 0.000, 0.000, 14:32:27.883
1, 11.45, 1.45, 23.67, 21.68, 0.000, 0.000, 0.000, 14:32:27.904
2, 203.69, 6.11, 13.04, 9.51, 0.000, 0.000, 0.000, 14:32:27.904
3, -20.49, 15.93, -1.47, 6.71, 0.000, 0.000, 0.000, 14:32:27.904
4, -168.91, 1.37, 14.96, 15.33, 0.000, 0.000, 0.000, 14:32:27.904
5, 236.49, 1.46, 14.22, 11.95, 0.000, 0.000, 0.000, 14:32:27.926
6, 166.29, 20.01, -0.08, 6.50, 0.000, 0.000, 0.000, 14:32:27.927
7, -241.68, 6.96, 9.41, 11.73, 0.000, 0.000, 0.000, 14:32:27.927
8, 124.02, -2.26, 23.41, 18.51, 0.000, 0.000, 0.000, 14:32:27.927
9, 363.31, 12.79, 7.44, 3.71, 0.000, 0.000, 0.000, 14:32:27.949
10, -88.70, 16.85, 7.16, 9.81, 0.000, 0.000, 0.000, 14:32:27.949
11, -125.95, -7.19, 25.61, 18.97, 0.000, 0.000, 0.000, 14:32:27.949
12, 281.83, 10.39, 9.54, 8.20, 0.000, 0.000, 0.000, 14:32:27.949
13, -12.00, 14.59, 3.34, 10.33, 0.000, 0.000, 0.000, 14:32:27.950
14, -205.26, -0.43, 17.62, 15.87, 0.000, 0.000, 0.000, 14:32:27.950
15, 322.93, 5.40, 8.25, 14.97, 0.000, 0.000, 0.000, 14:32:27.971
16, 158.99, 14.09, 2.73, 5.40, 0.000, 0.000, 0.000, 14:32:27.972
17, -304.87, 14.03, 13.54, 11.92, 0.000, 0.000, 0.000, 14:32:27.972
18, 44.98, 0.90, 19.60, 16.05, 0.000, 0.000, 0.000, 14:32:27.972
19, 318.19, 15.93, 1.92, 3.95, 0.000, 0.000, 0.000, 14:32:27.994
20, -40.61, 14.88, 7.87, 7.88, 0.000, 0.000, 0.000, 14:32:27.994
21, -28.67, -0.64, 17.60, 19.77, 0.000, 0.000, 0.000, 14:32:27.994
22, 305.10, 13.25, 6.64, 10.15, 0.000, 0.000, 0.000, 14:32:27.995
23, -55.20, 13.49, 6.24, 5.19, 0.000, 0.000, 0.000, 14:32:28.016
24, -312.76, 2.36, 16.81, 14.10, 0.000, 0.000, 0.000, 14:32:28.016
25, 229.91, -0.26, 16.38, 15.04, 0.000, 0.000, 0.000, 14:32:28.017
26, 351.63, 17.32, 0.89, 5.19, 0.000, 0.000, 0.000, 14:32:28.017
27, -160.80, 12.53, 8.15, 13.34, 0.000, 0.000, 0.000, 14:32:28.039
28, 30.91, 0.06, 21.57, 20.06, 0.000, 0.000, 0.000, 14:32:28.039
29, 259.57, 13.91, 2.05, 5.81, 0.000, 0.000, 0.000, 14:32:28.039
30, -197.14, 14.91, 6.32, 10.16, 0.000, 0.000, 0.000, 14:32:28.040
31, 16.68, 1.05, 18.91, 20.78, 0.000, 0.000, 0.000, 14:32:28.040
32, 299.92, 7.82, 9.85, 10.96, 0.000, 0.000, 0.000, 14:32:28.040
33, 10.56, 14.82, 5.55, 1.23, 0.000, 0.000, 0.000, 14:32:28.061
34, -207.11, 2.13, 23.08, 16.85, 0.000, 0.000, 0.000, 14:32:28.061
35, 298.03, 6.14, 7.74, 16.62, 0.000, 0.000, 0.000, 14:32:28.062
36, 201.80, 13.59, 4.56, 8.13, 0.000, 0.000, 0.000, 14:32:28.062
37, -215.85, 8.95, 11.23, 12.82, 0.000, 0.000, 0.000, 14:32:28.084
38, 115.16, -4.61, 17.97, 20.02, 0.000, 0.000, 0.000, 14:32:28.084
39, 143.39, 14.41, -0.17, 4.25, 0.000, 0.000, 0.000, 14:32:28.084
40, -210.25, 17.06, 9.22, 6.82, 0.000, 0.000, 0.000, 14:32:28.084
41, -20.03, -1.65, 19.46, 18.08, 0.000, 0.000, 0.000, 14:32:28.106
42, 322.82, 13.88, 4.87, 8.19, 0.000, 0.000, 0.000, 14:32:28.107
43, -87.48, 8.63, 3.03, 2.86, 0.000, 0.000, 0.000, 14:32:28.107
44, -53.92, 3.28, 17.30, 14.18, 0.000, 0.000, 0.000, 14:32:28.107
45, 325.17, 2.29, 12.44, 16.22, 0.000, 0.000, 0.000, 14:32:28.129
46, 14.20, 13.73, 5.13, 9.11, 0.000, 0.000, 0.000, 14:32:28.129
47, -280.05, 11.48, 15.74, 12.95, 0.000, 0.000, 0.000, 14:32:28.129
48, 219.82, -3.16, 17.00, 20.36, 0.000, 0.000, 0.000, 14:32:28.130
49, 347.05, 13.57, 3.43, 6.82, 0.000, 0.000, 0.000, 14:32:28.130
50, -90.90, 16.12, 6.81, 9.44, 0.000, 0.000, 0.000, 14:32:28.130
51, -183.29, 0.59, 26.62, 21.78, 0.000, 0.000, 0.000, 14:32:28.151
52, 274.22, 7.95, 10.85, 6.54, 0.000, 0.000, 0.000, 14:32:28.151
53, 176.24, 16.05, 1.98, 10.02, 0.000, 0.000, 0.000, 14:32:28.152
54, -236.00, 5.85, 19.83, 20.77, 0.000, 0.000, 0.000, 14:32:28.152
55, 159.05, 2.84, 12.67, 13.61, 0.000, 0.000, 0.000, 14:32:28.174
56, 152.74, 13.43, 2.82, 7.31, 0.000, 0.000, 0.000, 14:32:28.174
57, -371.95, 12.29, 6.96, 12.53, 0.000, 0.000, 0.000, 14:32:28.175
58, 197.47, -1.07, 23.91, 21.08, 0.000, 0.000, 0.000, 14:32:28.175
59, 337.45, 13.07, 6.98, 7.43, 0.000, 0.000, 0.000, 14:32:28.196
60, -213.52, 21.87, 5.06, 6.39, 0.000, 0.000, 0.000, 14:32:28.196
61, -78.50, -3.44, 25.27, 22.31, 0.000, 0.000, 0.000, 14:32:28.197
62, 373.61, 10.23, 2.39, 10.25, 0.000, 0.000, 0.000, 14:32:28.197
63, 0.59, 14.55, 9.27, 8.08, 0.000, 0.000, 0.000, 14:32:28.219
64, -171.10, 4.53, 21.52, 18.19, 0.000, 0.000, 0.000, 14:32:28.219
65, 436.24, 2.06, 12.67, 15.41, 0.000, 0.000, 0.000, 14:32:28.219
66, 115.53, 16.03, 4.78, 3.02, 0.000, 0.000, 0.000, 14:32:28.219
67, -371.44, 11.29, 14.04, 15.87, 0.000, 0.000, 0.000, 14:32:28.220
68, 126.16, -3.95, 19.15, 17.56, 0.000, 0.000, 0.000, 14:32:28.220
69, 230.55, 18.08, 2.98, 6.94, 0.000, 0.000, 0.000, 14:32:28.241
70, -135.06, 10.02, 5.95, 6.49, 0.000, 0.000, 0.000, 14:32:28.242
71, -19.69, -2.60, 19.24, 18.57, 0.000, 0.000, 0.000, 14:32:28.242
72, 414.48, 8.22, 6.78, 6.68, 0.000, 0.000, 0.000, 14:32:28.242
73, -170.31, 17.41, -0.12, 7.09, 0.000, 0.000, 0.000, 14:32:28.264
74, -219.96, 2.98, 15.50, 16.15, 0.000, 0.000, 0.000, 14:32:28.264
75, 424.50, 3.60, 15.69, 13.16, 0.000, 0.000, 0.000, 14:32:28.264
76, 116.53, 13.03, 4.13, 5.23, 0.000, 0.000, 0.000, 14:32:28.264
77, -318.82, 13.75, 16.87, 12.17, 0.000, 0.000, 0.000, 14:32:28.286
78, 86.85, 2.68, 18.63, 18.99, 0.000, 0.000, 0.000, 14:32:28.287
79, 289.26, 8.06, 2.03, 9.77, 0.000, 0.000, 0.000, 14:32:28.287
80, 40.02, 16.50, 5.72, 8.23, 0.000, 0.000, 0.000, 14:32:28.287
81, -90.56, 1.52, 21.56, 19.06, 0.000, 0.000, 0.000, 14:32:28.309
82, 336.69, 10.05, 3.50, 10.63, 0.000, 0.000, 0.000, 14:32:28.309
83, -56.51, 13.47, 2.02, 7.16, 0.000, 0.000, 0.000, 14:32:28.309
84, -248.84, -0.83, 21.78, 18.17, 0.000, 0.000, 0.000, 14:32:28.309
85, 236.72, 1.65, 17.73, 10.94, 0.000, 0.000, 0.000, 14:32:28.310
86, 244.92, 16.92, 3.33, 8.67, 0.000, 0.000, 0.000, 14:32:28.310
87, -212.53, 9.69, 9.19, 11.41, 0.000, 0.000, 0.000, 14:32:28.331
88, 106.97, -3.33, 16.04, 17.50, 0.000, 0.000, 0.000, 14:32:28.332
89, 225.96, 15.18, 1.75, 7.49, 0.000, 0.000, 0.000, 14:32:28.332
90, -172.01, 17.78, 2.69, 6.02, 0.000, 0.000, 0.000, 14:32:28.332
91, -60.27, -1.64, 25.01, 20.23, 0.000, 0.000, 0.000, 14:32:28.354
92, 231.58, 8.42, 8.91, 13.15, 0.000, 0.000, 0.000, 14:32:28.354
93, -46.72, 14.51, 7.20, 10.19, 0.000, 0.000, 0.000, 14:32:28.354
94, -157.32, -0.11, 23.91, 19.90, 0.000, 0.000, 0.000, 14:32:28.354
95, 405.59, 4.46, 10.46, 13.13, 0.000, 0.000, 0.000, 14:32:28.376
96, 133.50, 23.28, -0.36, 3.63, 0.000, 0.000, 0.000, 14:32:28.376
97, -271.09, 5.43, 13.19, 15.63, 0.000, 0.000, 0.000, 14:32:28.377
98, 169.37, 0.62, 22.76, 20.68, 0.000, 0.000, 0.000, 14:32:28.377
99, 270.70, 14.74, 8.30, 5.91, 0.000, 0.000, 0.000, 14:32:28.399
100, -150.03, 17.76, 6.73, 11.22, 0.000, 0.000, 0.000, 14:32:28.399
101, -100.67, -2.70, 19.82, 18.00, 0.000, 0.000, 0.000, 14:32:28.399
102, 433.00, 4.19, 6.58, 8.81, 0.000, 0.000, 0.000, 14:32:28.400
103, 5.94, 15.40, 3.63, 6.88, 0.000, 0.000, 0.000, 14:32:28.400
104, -210.36, 4.05, 18.78, 14.67, 0.000, 0.000, 0.000, 14:32:28.400
105, 255.48, 7.91, 14.51, 14.37, 0.000, 0.000, 0.000, 14:32:28.422
106, 25.54, 10.56, 2.55, 6.18, 0.000, 0.000, 0.000, 14:32:28.422
107, -399.49, 7.90, 8.73, 9.78, 0.000, 0.000, 0.000, 14:32:28.423
108, 327.70, 1.41, 20.45, 18.83, 0.000, 0.000, 0.000, 14:32:28.423
109, 339.11, 16.43, 0.40, 8.12, 0.000, 0.000, 0.000, 14:32:28.444
110, -139.84, 17.60, 4.42, 8.62, 0.000, 0.000, 0.000, 14:32:28.444
111, -93.24, 1.08, 20.89, 18.04, 0.000, 0.000, 0.000, 14:32:28.444
112, 320.24, 11.92, 7.97, 9.25, 0.000, 0.000, 0.000, 14:32:28.444
113, 79.64, 17.13, 3.58, 4.03, 0.000, 0.000, 0.000, 14:32:28.466
114, -267.40, 6.64, 16.08, 15.86, 0.000, 0.000, 0.000, 14:32:28.467
115, 217.06, -0.09, 16.67, 16.59, 0.000, 0.000, 0.000, 14:32:28.467
116, 220.79, 12.24, 4.29, 4.31, 0.000, 0.000, 0.000, 14:32:28.467
117, -304.78, 8.89, 13.79, 12.32, 0.000, 0.000, 0.000, 14:32:28.489
118, 210.49, -2.27, 20.76, 20.18, 0.000, 0.000, 0.000, 14:32:28.489
119, 144.12, 13.85, 2.15, 9.53, 0.000, 0.000, 0.000, 14:32:28.489
120, -64.48, 16.63, 6.87, 8.39, 0.000, 0.000, 0.000, 14:32:28.490
121, -246.41, 1.02, 21.34, 15.92, 0.000, 0.000, 0.000, 14:32:28.490
122, 320.01, 7.98, 10.45, 10.04, 0.000, 0.000, 0.000, 14:32:28.490
123, 211.88, 17.10, 5.01, 3.39, 0.000, 0.000, 0.000, 14:32:28.511
124, -228.14, 1.72, 20.24, 12.98, 0.000, 0.000, 0.000, 14:32:28.511
125, 350.87, 3.53, 15.17, 18.24, 0.000, 0.000, 0.000, 14:32:28.512
126, 89.26, 15.24, 0.14, 4.10, 0.000, 0.000, 0.000, 14:32:28.512
127, -262.93, 5.54, 6.52, 11.40, 0.000, 0.000, 0.000, 14:32:28.534
128, 131.03, -1.19, 19.27, 19.63, 0.000, 0.000, 0.000, 14:32:28.534
129, 238.59, 15.74, 4.55, 6.40, 0.000, 0.000, 0.000, 14:32:28.556
130, 10.00, 12.44, 6.25, 9.32, 0.000, 0.000, 0.000, 14:32:28.557
131, -218.63, -4.98, 28.59, 21.56, 0.000, 0.000, 0.000, 14:32:28.557
132, 170.53, 8.93, 10.91, 9.12, 0.000, 0.000, 0.000, 14:32:28.557
133, 126.42, 20.40, 7.32, 9.72, 0.000, 0.000, 0.000, 14:32:28.558
134, -246.17, 1.94, 19.02, 14.52, 0.000, 0.000, 0.000, 14:32:28.558
135, 454.20, 3.32, 12.31, 16.17, 0.000, 0.000, 0.000, 14:32:28.558
136, 217.76, 18.48, -0.88, 4.60, 0.000, 0.000, 0.000, 14:32:28.558
137, -369.05, 12.54, 8.60, 14.49, 0.000, 0.000, 0.000, 14:32:28.579
138, 11.45, -0.90, 20.73, 17.13, 0.000, 0.000, 0.000, 14:32:28.579
139, 281.08, 15.78, 5.79, 7.00, 0.000, 0.000, 0.000, 14:32:28.579
140, -13.51, 16.78, 6.29, 5.59, 0.000, 0.000, 0.000, 14:32:28.579
141, -29.56, 1.26, 23.27, 20.59, 0.000, 0.000, 0.000, 14:32:28.601
142, 257.09, 5.17, 6.40, 9.93, 0.000, 0.000, 0.000, 14:32:28.602
143, -76.13, 13.04, 0.24, 8.49, 0.000, 0.000, 0.000, 14:32:28.602
144, -218.43, 2.95, 17.10, 15.89, 0.000, 0.000, 0.000, 14:32:28.602
145, 118.01, 4.30, 14.33, 17.14, 0.000, 0.000, 0.000, 14:32:28.624
146, 265.83, 11.04, 7.34, 7.23, 0.000, 0.000, 0.000, 14:32:28.624
147, 23.79, 8.74, 10.08, 13.63, 0.000, 0.000, 0.000, 14:32:28.625
148, 40.44, -3.15, 15.64, 19.40, 0.000, 0.000, 0.000, 14:32:28.625
149, 145.93, 12.61, 4.71, 9.21, 0.000, 0.000, 0.000, 14:32:28.646
150, -36.01, 21.20, 10.57, 6.98, 0.000, 0.000, 0.000, 14:32:28.647
151, -111.79, -5.91, 22.13, 20.41, 0.000, 0.000, 0.000, 14:32:28.647
152, 328.21, 11.02, 8.20, 10.73, 0.000, 0.000, 0.000, 14:32:28.647
153, 76.66, 16.40, 5.02, 2.86, 0.000, 0.000, 0.000, 14:32:28.669
154, -250.61, 2.89, 14.45, 13.26, 0.000, 0.000, 0.000, 14:32:28.669
155, 189.22, 1.23, 15.95, 16.24, 0.000, 0.000, 0.000, 14:32:28.669
156, 145.84, 16.09, 4.51, 3.54, 0.000, 0.000, 0.000, 14:32:28.669
157, -441.31, 11.31, 9.19, 11.15, 0.000, 0.000, 0.000, 14:32:28.670
158, 320.27, -0.93, 20.12, 20.49, 0.000, 0.000, 0.000, 14:32:28.670
159, 409.29, 16.33, 2.57, 6.86, 0.000, 0.000, 0.000, 14:32:28.691
160, -190.19, 12.80, 1.80, 8.91, 0.000, 0.000, 0.000, 14:32:28.691
161, -103.60, -3.00, 21.86, 20.41, 0.000, 0.000, 0.000, 14:32:28.692
162, 169.24, 5.75, 7.82, 11.92, 0.000, 0.000, 0.000, 14:32:28.692
163, 17.44, 17.15, 3.87, 9.53, 0.000, 0.000, 0.000, 14:32:28.714
164, -132.01, 5.02, 19.10, 22.75, 0.000, 0.000, 0.000, 14:32:28.714
165, 309.22, 3.57, 14.75, 14.18, 0.000, 0.000, 0.000, 14:32:28.714
166, 215.93, 15.52, 2.47, 5.75, 0.000, 0.000, 0.000, 14:32:28.714
167, -129.15, 8.92, 10.47, 12.09, 0.000, 0.000, 0.000, 14:32:28.736
168, -23.54, 5.58, 22.73, 19.93, 0.000, 0.000, 0.000, 14:32:28.737
169, 186.86, 10.42, 4.12, 4.32, 0.000, 0.000, 0.000, 14:32:28.737
170, -8.76, 17.22, 2.67, 2.10, 0.000, 0.000, 0.000, 14:32:28.737
171, -13.56, 2.88, 19.73, 20.03, 0.000, 0.000, 0.000, 14:32:28.759
172, 282.12, 8.81, 4.36, 7.95, 0.000, 0.000, 0.000, 14:32:28.759
173, -12.11, 13.90, 1.77, 3.34, 0.000, 0.000, 0.000, 14:32:28.759
174, -273.24, 6.65, 19.00, 16.19, 0.000, 0.000, 0.000, 14:32:28.759
175, 152.55, 1.82, 14.91, 15.79, 0.000, 0.000, 0.000, 14:32:28.760
176, 185.09, 15.64, 7.61, 6.13, 0.000, 0.000, 0.000, 14:32:28.760
177, -118.07, 11.96, 12.29, 11.17, 0.000, 0.000, 0.000, 14:32:28.781
178, 115.76, -4.83, 26.51, 21.76, 0.000, 0.000, 0.000, 14:32:28.782
179, 135.83, 12.19, 6.98, 9.23, 0.000, 0.000, 0.000, 14:32:28.782
180, -30.40, 13.54, 0.31, 7.97, 0.000, 0.000, 0.000, 14:32:28.782
181, -66.34, -3.01, 17.56, 17.81, 0.000, 0.000, 0.000, 14:32:28.804
182, 208.80, 10.08, 7.11, 7.30, 0.000, 0.000, 0.000, 14:32:28.804
183, 115.44, 18.76, 1.31, 4.96, 0.000, 0.000, 0.000, 14:32:28.804
184, -18.72, 4.70, 15.30, 14.11, 0.000, 0.000, 0.000, 14:32:28.804
185, 89.21, 2.37, 21.97, 15.02, 0.000, 0.000, 0.000, 14:32:28.826
186, 109.61, 18.92, 5.54, 0.30, 0.000, 0.000, 0.000, 14:32:28.826
187, -261.72, 7.04, 11.30, 12.04, 0.000, 0.000, 0.000, 14:32:28.827
188, 145.83, -4.19, 23.00, 20.49, 0.000, 0.000, 0.000, 14:32:28.827
189, 255.90, 14.89, 4.17, 7.93, 0.000, 0.000, 0.000, 14:32:28.849
190, -54.12, 15.19, 2.39, 11.19, 0.000, 0.000, 0.000, 14:32:28.849
191, -27.40, 0.96, 22.04, 23.21, 0.000, 0.000, 0.000, 14:32:28.849
192, 92.54, 8.65, 3.28, 10.41, 0.000, 0.000, 0.000, 14:32:28.850
193, 159.77, 19.26, 3.14, 8.09, 0.000, 0.000, 0.000, 14:32:28.850
194, -195.37, 3.67, 20.35, 15.65, 0.000, 0.000, 0.000, 14:32:28.850
195, 280.75, 1.63, 14.59, 10.45, 0.000, 0.000, 0.000, 14:32:28.872
196, 201.58, 13.53, 3.30, 3.29, 0.000, 0.000, 0.000, 14:32:28.872
197, -317.96, 9.59, 8.87, 9.79, 0.000, 0.000, 0.000, 14:32:28.872
198, 133.37, -1.63, 22.07, 20.19, 0.000, 0.000, 0.000, 14:32:28.872
199, 424.99, 12.94, 7.58, 8.65, 0.000, 0.000, 0.000, 14:32:28.894
200, -185.18, 12.93, 1.65, 7.41, 0.000, 0.000, 0.000, 14:32:28.894
0, -148.04, 2.31, 21.84, 24.73, 0.000, 0.000, 0.000, 14:32:28.894
1, 211.19, 5.84, 8.81, 12.66, 0.000, 0.000, 0.000, 14:32:28.895
2, -33.65, 17.53, 5.33, 4.24, 0.000, 0.000, 0.000, 14:32:28.895
3, -51.90, 7.47, 15.69, 18.02, 0.000, 0.000, 0.000, 14:32:28.916
4, 318.53, 0.27, 16.80, 19.09, 0.000, 0.000, 0.000, 14:32:28.917
5, 297.47, 14.92, 3.36, 6.73, 0.000, 0.000, 0.000, 14:32:28.917
6, -264.46, 8.74, 7.63, 11.79, 0.000, 0.000, 0.000, 14:32:28.917
7, 5.66, -2.37, 19.55, 17.98, 0.000, 0.000, 0.000, 14:32:28.939
8, 202.68, 12.96, 8.20, 6.94, 0.000, 0.000, 0.000, 14:32:28.939
9, -77.19, 16.22, 0.00, 7.67, 0.000, 0.000, 0.000, 14:32:28.939
10, -129.54, -1.03, 23.03, 18.69, 0.000, 0.000, 0.000, 14:32:28.940
11, 192.29, 8.63, 9.17, 8.35, 0.000, 0.000, 0.000, 14:32:28.961
12, -63.34, 19.74, 9.65, 6.59, 0.000, 0.000, 0.000, 14:32:28.961
13, -115.90, -1.03, 20.18, 17.81, 0.000, 0.000, 0.000, 14:32:28.962
14, 385.55, 3.29, 13.45, 15.23, 0.000, 0.000, 0.000, 14:32:28.962
15, 393.71, 16.93, 4.92, 7.35, 0.000, 0.000, 0.000, 14:32:28.984
16, -307.53, 11.38, 9.51, 10.52, 0.000, 0.000, 0.000, 14:32:28.984
17, 19.42, -4.59, 20.24, 20.06, 0.000, 0.000, 0.000, 14:32:28.984
18, 307.96, 14.83, 2.58, 9.93, 0.000, 0.000, 0.000, 14:32:28.984
19, -53.26, 17.72, 4.04, 9.36, 0.000, 0.000, 0.000, 14:32:28.985
20, -79.95, 0.05, 25.56, 23.62, 0.000, 0.000, 0.000, 14:32:28.985
21, 183.34, 6.53, 6.55, 7.85, 0.000, 0.000, 0.000, 14:32:29.006
22, -137.26, 13.60, 3.83, 1.22, 0.000, 0.000, 0.000, 14:32:29.006
23, -167.12, 5.71, 15.41, 14.84, 0.000, 0.000, 0.000, 14:32:29.007
24, 255.32, 3.89, 16.07, 14.67, 0.000, 0.000, 0.000, 14:32:29.007
25, 275.57, 15.81, 3.20, 5.53, 0.000, 0.000, 0.000, 14:32:29.029
26, -260.79, 11.95, 3.63, 10.79, 0.000, 0.000, 0.000, 14:32:29.029
27, -26.04, -0.81, 23.74, 16.86, 0.000, 0.000, 0.000, 14:32:29.029
28, 433.06, 14.06, 5.53, 3.97, 0.000, 0.000, 0.000, 14:32:29.029
29, -8.14, 13.76, 3.55, 10.70, 0.000, 0.000, 0.000, 14:32:29.051
30, -97.52, -0.96, 23.09, 18.56, 0.000, 0.000, 0.000, 14:32:29.051
31, 213.57, 1.66, 7.31, 14.39, 0.000, 0.000, 0.000, 14:32:29.051
32, -29.58, 13.98, 3.46, 7.46, 0.000, 0.000, 0.000, 14:32:29.052
33, -261.15, 9.31, 15.14, 14.55, 0.000, 0.000, 0.000, 14:32:29.074
34, 367.37, 3.19, 19.93, 17.12, 0.000, 0.000, 0.000, 14:32:29.074
35, 153.17, 12.43, 2.95, 8.05, 0.000, 0.000, 0.000, 14:32:29.074
36, -192.83, 11.67, 11.73, 9.09, 0.000, 0.000, 0.000, 14:32:29.074
37, 157.15, -4.10, 25.32, 20.35, 0.000, 0.000, 0.000, 14:32:29.075
38, 143.23, 15.65, 6.04, 4.96, 0.000, 0.000, 0.000, 14:32:29.075
39, -95.14, 19.45, 6.20, 8.19, 0.000, 0.000, 0.000, 14:32:29.096
40, -107.98, -0.81, 25.23, 20.95, 0.000, 0.000, 0.000, 14:32:29.097
41, 252.30, 9.62, 9.72, 11.97, 0.000, 0.000, 0.000, 14:32:29.119
42, 87.70, 16.46, 4.73, 5.95, 0.000, 0.000, 0.000, 14:32:29.119
43, -167.92, 6.92, 20.56, 17.84, 0.000, 0.000, 0.000, 14:32:29.119
44, 219.79, 4.16, 9.68, 15.49, 0.000, 0.000, 0.000, 14:32:29.119
45, 194.13, 13.88, 2.59, 7.49, 0.000, 0.000, 0.000, 14:32:29.120
46, -208.70, 10.64, 7.67, 11.50, 0.000, 0.000, 0.000, 14:32:29.120
47, 9.76, 1.20, 23.79, 16.97, 0.000, 0.000, 0.000, 14:32:29.141
48, 211.53, 16.37, 2.45, 8.08, 0.000, 0.000, 0.000, 14:32:29.141
49, 81.44, 13.76, 10.94, 6.00, 0.000, 0.000, 0.000, 14:32:29.141
50, -11.03, -4.44, 17.30, 21.81, 0.000, 0.000, 0.000, 14:32:29.142
51, 267.27, 7.00, 9.86, 8.18, 0.000, 0.000, 0.000, 14:32:29.164
52, -16.35, 15.92, 7.62, 7.06, 0.000, 0.000, 0.000, 14:32:29.164
53, -343.99, 5.38, 17.39, 16.89, 0.000, 0.000, 0.000, 14:32:29.165
54, 159.43, 3.24, 14.59, 14.36, 0.000, 0.000, 0.000, 14:32:29.165
55, 207.79, 18.95, 0.06, 1.36, 0.000, 0.000, 0.000, 14:32:29.165
56, -55.04, 11.55, 12.13, 12.14, 0.000, 0.000, 0.000, 14:32:29.165
57, 15.95, 1.13, 19.53, 23.87, 0.000, 0.000, 0.000, 14:32:29.186
58, 285.50, 8.69, 1.61, 7.59, 0.000, 0.000, 0.000, 14:32:29.187
59, -115.87, 11.11, 6.28, 5.42, 0.000, 0.000, 0.000, 14:32:29.187
60, -129.75, -1.22, 20.91, 23.51, 0.000, 0.000, 0.000, 14:32:29.187
61, 274.10, 8.14, 14.35, 7.42, 0.000, 0.000, 0.000, 14:32:29.209
62, 226.40, 19.23, 2.23, 5.16, 0.000, 0.000, 0.000, 14:32:29.209
63, -181.69, 3.35, 18.32, 16.64, 0.000, 0.000, 0.000, 14:32:29.209
64, 153.76, 0.61, 18.47, 16.97, 0.000, 0.000, 0.000, 14:32:29.209
65, -24.39, 17.60, 1.18, 5.51, 0.000, 0.000, 0.000, 14:32:29.231
66, -120.39, 14.98, 10.95, 12.79, 0.000, 0.000, 0.000, 14:32:29.231
67, 334.44, -7.31, 21.10, 20.18, 0.000, 0.000, 0.000, 14:32:29.232
68, 231.62, 9.07, 4.64, 6.75, 0.000, 0.000, 0.000, 14:32:29.232
69, -234.96, 14.41, 2.17, 10.73, 0.000, 0.000, 0.000, 14:32:29.254
70, -252.00, 0.78, 23.40, 19.44, 0.000, 0.000, 0.000, 14:32:29.254
71, 260.33, 8.37, 8.43, 11.80, 0.000, 0.000, 0.000, 14:32:29.255
72, 187.98, 14.55, -2.19, 6.00, 0.000, 0.000, 0.000, 14:32:29.255
73, -87.14, 1.96, 18.19, 14.04, 0.000, 0.000, 0.000, 14:32:29.255
74, 248.57, 2.65, 11.29, 12.82, 0.000, 0.000, 0.000, 14:32:29.255
75, 93.98, 20.84, 0.27, 9.20, 0.000, 0.000, 0.000, 14:32:29.276
76, -422.54, 7.36, 13.81, 13.29, 0.000, 0.000, 0.000, 14:32:29.278
77, 211.17, -0.45, 26.16, 17.71, 0.000, 0.000, 0.000, 14:32:29.299
78, 430.15, 13.10, 3.56, 9.34, 0.000, 0.000, 0.000, 14:32:29.299
79, -101.49, 12.26, 5.52, 6.17, 0.000, 0.000, 0.000, 14:32:29.299
80, -55.31, -3.25, 17.94, 20.44, 0.000, 0.000, 0.000, 14:32:29.299
81, 218.17, 7.21, 10.49, 7.24, 0.000, 0.000, 0.000, 14:32:29.300
82, -79.30, 12.97, 7.84, 5.20, 0.000, 0.000, 0.000, 14:32:29.300
83, -78.18, 5.60, 15.87, 16.18, 0.000, 0.000, 0.000, 14:32:29.322
84, 215.42, 3.73, 14.68, 14.23, 0.000, 0.000, 0.000, 14:32:29.322
85, 64.97, 14.46, 6.32, 4.89, 0.000, 0.000, 0.000, 14:32:29.322
86, -232.81, 10.09, 11.05, 7.09, 0.000, 0.000, 0.000, 14:32:29.322
87, 69.90, -0.19, 27.42, 19.13, 0.000, 0.000, 0.000, 14:32:29.344
88, 370.62, 9.71, 2.74, 8.42, 0.000, 0.000, 0.000, 14:32:29.344
89, -11.39, 15.35, 5.70, 3.37, 0.000, 0.000, 0.000, 14:32:29.344
90, -43.56, 0.07, 18.85, 20.16, 0.000, 0.000, 0.000, 14:32:29.344
91, 259.04, 6.04, 9.82, 10.29, 0.000, 0.000, 0.000, 14:32:29.345
92, 10.07, 14.43, 2.31, 5.54, 0.000, 0.000, 0.000, 14:32:29.345
93, -166.83, 8.23, 16.85, 18.96, 0.000, 0.000, 0.000, 14:32:29.366
94, 202.88, -3.31, 17.38, 18.35, 0.000, 0.000, 0.000, 14:32:29.366
95, 158.16, 19.82, -0.86, 4.07, 0.000, 0.000, 0.000, 14:32:29.367
96, -286.42, 10.95, 12.72, 11.09, 0.000, 0.000, 0.000, 14:32:29.367
97, -215.69, -1.19, 16.47, 18.87, 0.000, 0.000, 0.000, 14:32:29.389
98, 469.31, 10.95, 3.39, 9.88, 0.000, 0.000, 0.000, 14:32:29.389
99, 194.50, 14.62, 2.83, 6.42, 0.000, 0.000, 0.000, 14:32:29.389
100, -159.89, -0.82, 23.27, 21.64, 0.000, 0.000, 0.000, 14:32:29.390
101, 255.11, 7.78, 8.69, 11.29, 0.000, 0.000, 0.000, 14:32:29.411
102, -30.30, 21.35, 3.17, 6.55, 0.000, 0.000, 0.000, 14:32:29.411
103, -321.77, -2.49, 21.64, 16.57, 0.000, 0.000, 0.000, 14:32:29.412
104, 255.81, 1.12, 19.92, 15.90, 0.000, 0.000, 0.000, 14:32:29.412
105, 291.06, 18.73, 4.37, 6.67, 0.000, 0.000, 0.000, 14:32:29.434
106, -108.51, 10.55, 5.51, 12.11, 0.000, 0.000, 0.000, 14:32:29.434
107, 138.65, -1.17, 18.78, 17.92, 0.000, 0.000, 0.000, 14:32:29.434
108, 332.67, 16.29, 5.63, 8.93, 0.000, 0.000, 0.000, 14:32:29.434
109, -237.80, 14.65, 2.14, 6.56, 0.000, 0.000, 0.000, 14:32:29.435
110, -186.55, 0.10, 20.98, 19.56, 0.000, 0.000, 0.000, 14:32:29.435
111, 204.21, 11.56, 10.27, 9.70, 0.000, 0.000, 0.000, 14:32:29.456
112, -19.09, 16.23, -1.23, 2.78, 0.000, 0.000, 0.000, 14:32:29.456
113, -27.86, 4.50, 11.29, 17.60, 0.000, 0.000, 0.000, 14:32:29.457
114, 335.57, 1.65, 16.00, 16.64, 0.000, 0.000, 0.000, 14:32:29.457
115, 54.39, 12.07, 8.69, 4.43, 0.000, 0.000, 0.000, 14:32:29.479
116, -226.75, 9.75, 13.32, 10.93, 0.000, 0.000, 0.000, 14:32:29.479
117, 86.25, -1.22, 27.50, 19.68, 0.000, 0.000, 0.000, 14:32:29.479
118, 160.74, 14.58, 2.78, 11.25, 0.000, 0.000, 0.000, 14:32:29.479
119, -60.11, 15.42, 3.40, 7.24, 0.000, 0.000, 0.000, 14:32:29.501
120, 28.93, 7.69, 16.36, 18.39, 0.000, 0.000, 0.000, 14:32:29.501
121, 332.28, 6.31, 9.64, 10.33, 0.000, 0.000, 0.000, 14:32:29.502
122, 119.44, 18.68, 9.24, 6.14, 0.000, 0.000, 0.000, 14:32:29.502
123, -298.96, 5.59, 14.65, 14.55, 0.000, 0.000, 0.000, 14:32:29.524
124, 137.99, 3.31, 15.52, 15.73, 0.000, 0.000, 0.000, 14:32:29.524
125, 94.51, 11.36, 9.54, 5.24, 0.000, 0.000, 0.000, 14:32:29.525
126, -126.06, 12.71, 8.08, 10.26, 0.000, 0.000, 0.000, 14:32:29.525
127, 246.95, -5.04, 20.24, 23.99, 0.000, 0.000, 0.000, 14:32:29.525
128, 312.12, 10.60, 5.04, 7.79, 0.000, 0.000, 0.000, 14:32:29.526
129, -84.31, 18.72, 3.91, 7.41, 0.000, 0.000, 0.000, 14:32:29.546
130, -175.72, -2.04, 24.02, 24.54, 0.000, 0.000, 0.000, 14:32:29.546
131, 189.49, 8.68, 7.50, 8.85, 0.000, 0.000, 0.000, 14:32:29.547
132, -94.60, 14.25, 3.97, 4.19, 0.000, 0.000, 0.000, 14:32:29.547
133, -246.92, 6.48, 15.34, 14.95, 0.000, 0.000, 0.000, 14:32:29.569
134, 366.05, 0.66, 12.53, 17.84, 0.000, 0.000, 0.000, 14:32:29.569
135, 393.92, 20.42, 1.88, 7.02, 0.000, 0.000, 0.000, 14:32:29.569
136, -205.08, 7.98, 7.14, 8.11, 0.000, 0.000, 0.000, 14:32:29.569
137, -56.88, -5.38, 12.32, 17.18, 0.000, 0.000, 0.000, 14:32:29.591
138, 208.38, 18.11, 2.37, 6.35, 0.000, 0.000, 0.000, 14:32:29.591
139, -34.00, 11.69, 6.09, 7.46, 0.000, 0.000, 0.000, 14:32:29.592
140, -169.59, -2.10, 23.02, 21.77, 0.000, 0.000, 0.000, 14:32:29.592
141, 361.45, 8.98, 13.45, 12.47, 0.000, 0.000, 0.000, 14:32:29.614
142, 147.78, 16.23, 6.30, 7.83, 0.000, 0.000, 0.000, 14:32:29.614
143, -220.04, 6.00, 16.07, 16.81, 0.000, 0.000, 0.000, 14:32:29.615
144, 254.44, 8.09, 17.36, 18.15, 0.000, 0.000, 0.000, 14:32:29.615
145, 55.52, 14.52, 7.12, 4.99, 0.000, 0.000, 0.000, 14:32:29.615
146, -517.96, 9.82, 8.50, 13.96, 0.000, 0.000, 0.000, 14:32:29.615
147, 240.59, 2.10, 18.04, 21.24, 0.000, 0.000, 0.000, 14:32:29.636
148, 523.96, 13.09, 4.21, 6.97, 0.000, 0.000, 0.000, 14:32:29.636
149, -170.01, 14.61, 5.78, 6.06, 0.000, 0.000, 0.000, 14:32:29.637
150, -90.66, -4.25, 23.78, 16.34, 0.000, 0.000, 0.000, 14:32:29.638
151, 223.62, 8.26, 15.87, 8.69, 0.000, 0.000, 0.000, 14:32:29.659
152, 77.54, 13.57, 5.54, 7.78, 0.000, 0.000, 0.000, 14:32:29.659
153, -170.42, 8.07, 15.63, 18.09, 0.000, 0.000, 0.000, 14:32:29.659
154, 363.73, 0.22, 12.42, 16.54, 0.000, 0.000, 0.000, 14:32:29.660
155, 153.37, 18.09, 1.95, 1.75, 0.000, 0.000, 0.000, 14:32:29.681
156, -465.06, 17.27, 7.91, 12.69, 0.000, 0.000, 0.000, 14:32:29.681
157, 135.83, -6.48, 18.63, 20.32, 0.000, 0.000, 0.000, 14:32:29.682
158, 372.58, 9.27, 2.43, 6.83, 0.000, 0.000, 0.000, 14:32:29.682
159, -49.33, 19.60, 0.86, 9.23, 0.000, 0.000, 0.000, 14:32:29.704
160, -82.28, -0.65, 24.25, 19.91, 0.000, 0.000, 0.000, 14:32:29.704
161, 147.49, 5.24, 9.39, 7.59, 0.000, 0.000, 0.000, 14:32:29.704
162, 131.45, 16.44, 4.39, 5.70, 0.000, 0.000, 0.000, 14:32:29.705
163, -292.15, 4.86, 16.61, 13.23, 0.000, 0.000, 0.000, 14:32:29.705
164, 359.63, 1.61, 15.28, 15.37, 0.000, 0.000, 0.000, 14:32:29.705
165, 75.82, 20.73, 2.89, 4.24, 0.000, 0.000, 0.000, 14:32:29.726
166, -294.78, 12.56, 11.74, 11.14, 0.000, 0.000, 0.000, 14:32:29.726
167, 74.50, -2.24, 22.37, 21.91, 0.000, 0.000, 0.000, 14:32:29.727
168, 317.69, 11.43, 6.92, 8.42, 0.000, 0.000, 0.000, 14:32:29.727
169, -3.64, 15.04, 5.90, 3.56, 0.000, 0.000, 0.000, 14:32:29.749
170, -170.04, -2.68, 19.12, 21.46, 0.000, 0.000, 0.000, 14:32:29.749
171, 355.12, 9.72, 9.96, 9.11, 0.000, 0.000, 0.000, 14:32:29.749
172, 196.19, 13.04, 9.44, 4.16, 0.000, 0.000, 0.000, 14:32:29.749
173, -295.96, 2.32, 11.02, 20.40, 0.000, 0.000, 0.000, 14:32:29.771
174, 277.76, 6.57, 16.46, 15.60, 0.000, 0.000, 0.000, 14:32:29.771
175, 241.02, 10.12, 1.94, 5.75, 0.000, 0.000, 0.000, 14:32:29.772
176, -342.73, 12.01, 7.06, 15.64, 0.000, 0.000, 0.000, 14:32:29.772
177, -0.69, -2.94, 23.38, 21.87, 0.000, 0.000, 0.000, 14:32:29.794
178, 291.42, 13.42, 5.75, 4.11, 0.000, 0.000, 0.000, 14:32:29.794
179, -312.57, 13.23, 9.86, 6.95, 0.000, 0.000, 0.000, 14:32:29.794
180, -386.73, -0.80, 23.74, 19.06, 0.000, 0.000, 0.000, 14:32:29.794
181, -370.05, 6.78, 5.98, 13.35, 0.000, 0.000, 0.000, 14:32:29.795
182, -752.91, 17.20, 4.03, 2.40, 0.000, 0.000, 0.000, 14:32:29.795
183, -1081.97, 9.10, 14.71, 15.28, 0.000, 0.000, 0.000, 14:32:29.816
184, -733.86, -1.15, 19.47, 16.03, 0.000, 0.000, 0.000, 14:32:29.816
185, -884.31, 13.72, 1.33, 5.80, 0.000, 0.000, 0.000, 14:32:29.817
186, -1136.92, 11.50, 7.76, 12.02, 0.000, 0.000, 0.000, 14:32:29.817
187, -804.16, -2.26, 18.87, 21.86, 0.000, 0.000, 0.000, 14:32:29.839
188, -602.93, 11.00, 4.97, 9.62, 0.000, 0.000, 0.000, 14:32:29.839
189, -1194.16, 18.43, 4.69, 4.87, 0.000, 0.000, 0.000, 14:32:29.839
190, -1184.12, 0.04, 24.80, 21.13, 0.000, 0.000, 0.000, 14:32:29.839
191, -690.96, 9.28, 8.84, 12.78, 0.000, 0.000, 0.000, 14:32:29.861
192, -887.25, 18.74, 2.34, 2.21, 0.000, 0.000, 0.000, 14:32:29.861
193, -1474.86, 2.02, 19.08, 18.11, 0.000, 0.000, 0.000, 14:32:29.862
194, -968.91, -0.93, 19.24, 16.57, 0.000, 0.000, 0.000, 14:32:29.862
195, -391.33, 14.25, 4.22, 3.89, 0.000, 0.000, 0.000, 14:32:29.883
196, -1110.66, 15.21, 2.99, 9.50, 0.000, 0.000, 0.000, 14:32:29.884
197, -1040.67, -4.25, 19.81, 18.93, 0.000, 0.000, 0.000, 14:32:29.884
198, -631.88, 13.80, 5.28, 5.47, 0.000, 0.000, 0.000, 14:32:29.884
199, -1078.36, 13.44, 4.26, 6.00, 0.000, 0.000, 0.000, 14:32:29.885
200, -1101.88, -2.14, 20.62, 18.27, 0.000, 0.000, 0.000, 14:32:29.885
0, 285.57, 7.84, 9.99, 8.97, 0.000, 0.000, 0.000, 14:32:29.906
1, 277.05, 13.69, 1.34, 7.49, 0.000, 0.000, 0.000, 14:32:29.907
2, -214.95, 3.23, 15.23, 20.04, 0.000, 0.000, 0.000, 14:32:29.907
3, 122.69, 0.25, 16.67, 17.09, 0.000, 0.000, 0.000, 14:32:29.929
4, -8.48, 17.41, 3.49, 7.51, 0.000, 0.000, 0.000, 14:32:29.929
5, 94.42, 9.63, 9.73, 8.06, 0.000, 0.000, 0.000, 14:32:29.929
6, 57.57, -0.49, 20.37, 19.50, 0.000, 0.000, 0.000, 14:32:29.929
7, 188.50, 11.94, 6.18, 7.61, 0.000, 0.000, 0.000, 14:32:29.930
8, -313.26, 14.88, 3.04, 7.92, 0.000, 0.000, 0.000, 14:32:29.930
9, -57.20, 1.99, 23.33, 14.86, 0.000, 0.000, 0.000, 14:32:29.951
10, 393.17, 7.59, 10.48, 10.85, 0.000, 0.000, 0.000, 14:32:29.951
11, 95.01, 16.68, 0.95, 5.54, 0.000, 0.000, 0.000, 14:32:29.952
12, -152.21, 8.09, 18.64, 19.34, 0.000, 0.000, 0.000, 14:32:29.952
13, 186.25, 1.73, 21.43, 17.40, 0.000, 0.000, 0.000, 14:32:29.974
14, 155.64, 13.11, 4.09, 5.22, 0.000, 0.000, 0.000, 14:32:29.974
15, -4.57, 15.45, 9.61, 9.49, 0.000, 0.000, 0.000, 14:32:29.974
16, -0.95, -2.55, 19.59, 17.66, 0.000, 0.000, 0.000, 14:32:29.975
17, 243.22, 12.66, 3.52, 8.27, 0.000, 0.000, 0.000, 14:32:29.996
18, -150.10, 19.46, 3.47, 8.98, 0.000, 0.000, 0.000, 14:32:29.997
19, -144.43, -7.03, 25.47, 22.79, 0.000, 0.000, 0.000, 14:32:29.997
20, 85.99, 10.02, 6.14, 9.64, 0.000, 0.000, 0.000, 14:32:29.997
21, 208.14, 13.70, 1.70, 4.60, 0.000, 0.000, 0.000, 14:32:30.019
22, -320.95, 5.40, 18.13, 13.96, 0.000, 0.000, 0.000, 14:32:30.019
23, 227.03, 2.96, 18.68, 16.58, 0.000, 0.000, 0.000, 14:32:30.020
24, 305.02, 21.13, 2.62, 6.08, 0.000, 0.000, 0.000, 14:32:30.020
25, -99.98, 9.96, 10.48, 10.07, 0.000, 0.000, 0.000, 14:32:30.042
26, 52.11, 1.48, 21.10, 19.90, 0.000, 0.000, 0.000, 14:32:30.043
27, 237.06, 18.61, 10.74, 6.99, 0.000, 0.000, 0.000, 14:32:30.043
28, -131.16, 10.14, 9.35, 7.60, 0.000, 0.000, 0.000, 14:32:30.043
29, -3.12, 3.69, 18.13, 21.87, 0.000, 0.000, 0.000, 14:32:30.043
30, 307.38, 10.52, 8.08, 11.83, 0.000, 0.000, 0.000, 14:32:30.043
31, -3.11, 15.06, -0.18, 5.36, 0.000, 0.000, 0.000, 14:32:30.064
32, -239.20, 7.42, 16.06, 14.59, 0.000, 0.000, 0.000, 14:32:30.064
33, 207.86, 1.68, 15.99, 19.39, 0.000, 0.000, 0.000, 14:32:30.065
34, 101.06, 11.76, 2.91, 5.14, 0.000, 0.000, 0.000, 14:32:30.065
35, -593.81, 11.21, 8.89, 10.40, 0.000, 0.000, 0.000, 14:32:30.086
36, -549.99, 3.04, 19.45, 21.23, 0.000, 0.000, 0.000, 14:32:30.087
37, -619.85, 8.69, 5.22, 5.74, 0.000, 0.000, 0.000, 14:32:30.087
38, -952.94, 14.35, 4.53, 5.33, 0.000, 0.000, 0.000, 14:32:30.087
39, -1096.76, 1.06, 27.79, 18.90, 0.000, 0.000, 0.000, 14:32:30.109
40, -643.91, 9.65, 10.11, 15.31, 0.000, 0.000, 0.000, 14:32:30.109
41, -906.31, 12.61, 4.60, 6.75, 0.000, 0.000, 0.000, 14:32:30.110
42, -1240.98, 8.21, 17.53, 16.35, 0.000, 0.000, 0.000, 14:32:30.110
43, -840.74, -0.90, 17.97, 17.45, 0.000, 0.000, 0.000, 14:32:30.110
44, -762.00, 14.97, -1.93, 6.11, 0.000, 0.000, 0.000, 14:32:30.110
45, -1199.33, 14.41, 13.52, 7.16, 0.000, 0.000, 0.000, 14:32:30.131
46, -919.28, -6.02, 18.21, 19.19, 0.000, 0.000, 0.000, 14:32:30.132
47, -770.78, 12.29, 7.17, 7.47, 0.000, 0.000, 0.000, 14:32:30.132
48, -1020.66, 15.12, 5.45, 6.38, 0.000, 0.000, 0.000, 14:32:30.132
49, -1064.94, 1.47, 22.49, 21.45, 0.000, 0.000, 0.000, 14:32:30.154
50, -743.98, 4.56, 11.95, 10.96, 0.000, 0.000, 0.000, 14:32:30.154
51, -940.58, 14.24, 3.08, 3.81, 0.000, 0.000, 0.000, 14:32:30.154
52, -1115.48, 8.58, 15.15, 12.05, 0.000, 0.000, 0.000, 14:32:30.155
53, -739.58, 2.40, 13.68, 18.49, 0.000, 0.000, 0.000, 14:32:30.180
54, -770.94, 18.59, 2.28, 7.29, 0.000, 0.000, 0.000, 14:32:30.180
55, -1204.71, 7.31, 18.52, 10.50, 0.000, 0.000, 0.000, 14:32:30.180
56, -929.96, -5.58, 25.93, 19.59, 0.000, 0.000, 0.000, 14:32:30.180
57, -696.23, 10.52, 3.67, 9.48, 0.000, 0.000, 0.000, 14:32:30.199
58, -1062.51, 15.18, 4.01, 7.17, 0.000, 0.000, 0.000, 14:32:30.199
59, -1121.55, -2.62, 22.78, 18.16, 0.000, 0.000, 0.000, 14:32:30.199
60, -667.75, 7.46, 9.98, 12.19, 0.000, 0.000, 0.000, 14:32:30.199
61, -902.60, 19.49, -1.08, 3.75, 0.000, 0.000, 0.000, 14:32:30.200
62, -1223.18, 6.33, 18.73, 13.47, 0.000, 0.000, 0.000, 14:32:30.200
63, -755.71, 2.53, 12.50, 13.70, 0.000, 0.000, 0.000, 14:32:30.221
64, -780.72, 11.39, 1.82, 6.19, 0.000, 0.000, 0.000, 14:32:30.221
65, -1191.60, 11.24, 8.74, 11.43, 0.000, 0.000, 0.000, 14:32:30.222
66, -923.13, -1.23, 21.06, 21.83, 0.000, 0.000, 0.000, 14:32:30.222
67, -696.58, 13.11, 4.02, 7.44, 0.000, 0.000, 0.000, 14:32:30.244
68, -1054.27, 15.06, 1.91, 4.17, 0.000, 0.000, 0.000, 14:32:30.244
69, -1120.27, 0.65, 26.07, 18.25, 0.000, 0.000, 0.000, 14:32:30.244
70, -654.99, 8.19, 7.72, 10.16, 0.000, 0.000, 0.000, 14:32:30.244
71, -914.00, 14.69, 1.30, 10.67, 0.000, 0.000, 0.000, 14:32:30.266
72, -1225.41, 11.58, 12.10, 17.11, 0.000, 0.000, 0.000, 14:32:30.267
73, -746.77, -3.64, 14.60, 18.99, 0.000, 0.000, 0.000, 14:32:30.267
74, -770.90, 15.28, 5.88, 2.65, 0.000, 0.000, 0.000, 14:32:30.267
75, -1190.98, 13.96, 6.77, 11.30, 0.000, 0.000, 0.000, 14:32:30.291
76, -920.24, 1.37, 22.88, 21.66, 0.000, 0.000, 0.000, 14:32:30.291
77, -691.72, 13.15, 5.08, 6.22, 0.000, 0.000, 0.000, 14:32:30.291
78, -1067.43, 15.28, 5.61, 6.92, 0.000, 0.000, 0.000, 14:32:30.291
79, -1108.41, -2.40, 21.54, 21.26, 0.000, 0.000, 0.000, 14:32:30.291
80, -656.80, 6.86, 9.24, 14.99, 0.000, 0.000, 0.000, 14:32:30.292
81, -893.02, 19.32, 3.31, 3.63, 0.000, 0.000, 0.000, 14:32:30.311
82, -1216.33, 5.33, 18.69, 12.87, 0.000, 0.000, 0.000, 14:32:30.311
83, -752.06, -0.17, 15.97, 19.91, 0.000, 0.000, 0.000, 14:32:30.312
84, -763.19, 18.66, 1.34, 6.34, 0.000, 0.000, 0.000, 14:32:30.312
85, -1182.30, 12.19, 11.02, 6.63, 0.000, 0.000, 0.000, 14:32:30.333
86, -923.75, -2.83, 19.80, 23.73, 0.000, 0.000, 0.000, 14:32:30.334
87, -688.09, 9.83, 10.85, 10.93, 0.000, 0.000, 0.000, 14:32:30.334
88, -1049.03, 12.93, 4.29, 7.78, 0.000, 0.000, 0.000, 14:32:30.334
89, -1120.14, -0.56, 18.96, 19.70, 0.000, 0.000, 0.000, 14:32:30.356
90, -666.97, 13.40, 9.18, 9.97, 0.000, 0.000, 0.000, 14:32:30.356
91, -895.08, 10.03, 2.75, 5.58, 0.000, 0.000, 0.000, 14:32:30.357
92, -1218.47, 1.31, 18.44, 15.19, 0.000, 0.000, 0.000, 14:32:30.357
93, -753.35, 3.16, 15.81, 16.42, 0.000, 0.000, 0.000, 14:32:30.379
94, -765.30, 14.25, 1.49, 6.34, 0.000, 0.000, 0.000, 14:32:30.379
95, -1199.77, 10.72, 6.54, 11.63, 0.000, 0.000, 0.000, 14:32:30.379
96, -930.03, -3.27, 18.44, 19.13, 0.000, 0.000, 0.000, 14:32:30.379
97, -682.96, 12.72, 4.19, 9.16, 0.000, 0.000, 0.000, 14:32:30.380
98, -1048.24, 15.34, 2.54, 1.92, 0.000, 0.000, 0.000, 14:32:30.380
99, -1123.72, 3.10, 22.98, 19.45, 0.000, 0.000, 0.000, 14:32:30.402
100, -664.89, 5.29, 8.50, 11.26, 0.000, 0.000, 0.000, 14:32:30.402
101, -889.97, 18.02, 3.19, 4.88, 0.000, 0.000, 0.000, 14:32:30.402
102, -1231.05, 5.03, 18.26, 16.34, 0.000, 0.000, 0.000, 14:32:30.402
103, -759.87, 3.58, 17.99, 16.42, 0.000, 0.000, 0.000, 14:32:30.424
104, -761.31, 14.36, 5.32, 4.05, 0.000, 0.000, 0.000, 14:32:30.424
105, -1194.74, 9.93, 9.42, 5.74, 0.000, 0.000, 0.000, 14:32:30.424
106, -930.46, -5.51, 23.02, 19.80, 0.000, 0.000, 0.000, 14:32:30.424
107, -688.20, 15.63, 7.31, 8.28, 0.000, 0.000, 0.000, 14:32:30.446
108, -1054.52, 24.72, 6.71, 5.79, 0.000, 0.000, 0.000, 14:32:30.447
109, -1132.56, -2.57, 22.31, 21.44, 0.000, 0.000, 0.000, 14:32:30.447
110, -669.81, 6.32, 6.65, 12.13, 0.000, 0.000, 0.000, 14:32:30.447
111, -898.96, 14.55, 3.19, 5.43, 0.000, 0.000, 0.000, 14:32:30.469
112, -1226.06, 5.46, 14.55, 14.45, 0.000, 0.000, 0.000, 14:32:30.469
113, -758.06, 1.66, 20.85, 16.98, 0.000, 0.000, 0.000, 14:32:30.469
114, -764.73, 17.28, 2.36, 6.31, 0.000, 0.000, 0.000, 14:32:30.469
115, -1194.09, 13.45, 8.28, 7.32, 0.000, 0.000, 0.000, 14:32:30.470
116, -932.96, -4.43, 18.42, 22.00, 0.000, 0.000, 0.000, 14:32:30.470
117, -693.88, 16.81, 3.22, 7.29, 0.000, 0.000, 0.000, 14:32:30.491
118, -1049.78, 14.89, 3.02, 5.56, 0.000, 0.000, 0.000, 14:32:30.491
119, -1122.10, -2.14, 21.01, 21.86, 0.000, 0.000, 0.000, 14:32:30.492
120, -664.84, 4.43, 6.79, 9.86, 0.000, 0.000, 0.000, 14:32:30.492
121, -893.78, 16.74, 2.61, 4.30, 0.000, 0.000, 0.000, 14:32:30.514
122, -1227.69, 2.36, 20.14, 13.46, 0.000, 0.000, 0.000, 14:32:30.514
123, -760.79, 2.68, 16.60, 18.76, 0.000, 0.000, 0.000, 14:32:30.514
124, -771.55, 15.66, 3.72, 5.26, 0.000, 0.000, 0.000, 14:32:30.514
125, -1195.87, 13.22, 6.85, 7.61, 0.000, 0.000, 0.000, 14:32:30.536
126, -929.52, 3.22, 25.11, 23.86, 0.000, 0.000, 0.000, 14:32:30.537
127, -696.44, 6.89, 5.87, 9.41, 0.000, 0.000, 0.000, 14:32:30.537
128, -1048.27, 11.57, 3.12, 6.38, 0.000, 0.000, 0.000, 14:32:30.537
129, -1127.99, -0.44, 24.43, 19.66, 0.000, 0.000, 0.000, 14:32:30.559
130, -669.92, 9.79, 10.44, 9.50, 0.000, 0.000, 0.000, 14:32:30.559
131, -899.83, 13.15, 3.76, 3.25, 0.000, 0.000, 0.000, 14:32:30.559
132, -1222.87, 8.95, 13.35, 14.42, 0.000, 0.000, 0.000, 14:32:30.559
133, -759.89, 1.16, 15.96, 19.18, 0.000, 0.000, 0.000, 14:32:30.560
134, -779.50, 13.72, 3.48, 3.62, 0.000, 0.000, 0.000, 14:32:30.560
135, -1192.83, 15.81, 7.11, 7.96, 0.000, 0.000, 0.000, 14:32:30.581
136, -927.98, -2.11, 21.06, 21.21, 0.000, 0.000, 0.000, 14:32:30.581
137, -698.93, 7.95, 11.26, 10.05, 0.000, 0.000, 0.000, 14:32:30.582
138, -1055.01, 16.43, 4.53, 8.79, 0.000, 0.000, 0.000, 14:32:30.582
139, -1116.15, 3.27, 18.89, 18.05, 0.000, 0.000, 0.000, 14:32:30.603
140, -663.07, 4.58, 16.17, 12.15, 0.000, 0.000, 0.000, 14:32:30.604
141, -908.64, 18.81, 0.08, 0.38, 0.000, 0.000, 0.000, 14:32:30.604
142, -1219.16, 3.08, 12.28, 17.80, 0.000, 0.000, 0.000, 14:32:30.604
143, -750.71, 2.37, 16.34, 20.38, 0.000, 0.000, 0.000, 14:32:30.626
144, -776.80, 21.95, 0.85, 4.15, 0.000, 0.000, 0.000, 14:32:30.626
145, -1199.17, 7.45, 8.42, 8.28, 0.000, 0.000, 0.000, 14:32:30.627
146, -925.63, -0.64, 23.48, 21.99, 0.000, 0.000, 0.000, 14:32:30.627
147, -689.17, 10.17, 4.08, 6.92, 0.000, 0.000, 0.000, 14:32:30.648
148, -1057.18, 16.25, 3.99, 6.66, 0.000, 0.000, 0.000, 14:32:30.649
149, -1114.82, -1.95, 24.36, 21.10, 0.000, 0.000, 0.000, 14:32:30.649
150, -657.94, 7.41, 10.58, 12.63, 0.000, 0.000, 0.000, 14:32:30.649
151, -894.50, 14.31, 4.87, 7.73, 0.000, 0.000, 0.000, 14:32:30.650
152, -1205.54, 6.69, 20.16, 17.32, 0.000, 0.000, 0.000, 14:32:30.650
153, -735.23, 4.45, 15.80, 15.86, 0.000, 0.000, 0.000, 14:32:30.671
154, -760.83, 13.19, 4.73, 7.45, 0.000, 0.000, 0.000, 14:32:30.672
155, -1189.39, 14.88, 8.48, 9.31, 0.000, 0.000, 0.000, 14:32:30.672
156, -940.04, -1.05, 18.62, 21.97, 0.000, 0.000, 0.000, 14:32:30.672
157, -713.88, 9.31, 7.28, 6.13, 0.000, 0.000, 0.000, 14:32:30.694
158, -1066.09, 10.57, 3.96, 4.93, 0.000, 0.000, 0.000, 14:32:30.694
159, -1136.37, -0.92, 20.64, 18.57, 0.000, 0.000, 0.000, 14:32:30.694
160, -674.95, 5.65, 12.01, 11.42, 0.000, 0.000, 0.000, 14:32:30.694
161, -907.77, 16.77, 5.62, 7.32, 0.000, 0.000, 0.000, 14:32:30.716
162, -1229.95, 12.40, 13.05, 16.14, 0.000, 0.000, 0.000, 14:32:30.716
163, -754.96, -4.40, 12.69, 17.89, 0.000, 0.000, 0.000, 14:32:30.717
164, -772.20, 12.35, 2.12, 5.73, 0.000, 0.000, 0.000, 14:32:30.717
165, -1185.33, 11.64, 8.69, 8.29, 0.000, 0.000, 0.000, 14:32:30.739
166, -918.07, -2.30, 22.04, 20.11, 0.000, 0.000, 0.000, 14:32:30.739
167, -690.19, 12.80, 4.22, 9.35, 0.000, 0.000, 0.000, 14:32:30.739
168, -1045.61, 17.10, 0.80, 3.63, 0.000, 0.000, 0.000, 14:32:30.739
169, -1120.37, -1.59, 29.06, 18.53, 0.000, 0.000, 0.000, 14:32:30.740
170, -659.71, 8.43, 8.59, 12.23, 0.000, 0.000, 0.000, 14:32:30.740
171, -888.97, 16.36, 4.51, 8.42, 0.000, 0.000, 0.000, 14:32:30.761
172, -1221.67, 5.40, 15.89, 13.95, 0.000, 0.000, 0.000, 14:32:30.761
173, -763.01, 1.48, 20.05, 17.55, 0.000, 0.000, 0.000, 14:32:30.784
174, -768.71, 15.85, 2.53, 7.10, 0.000, 0.000, 0.000, 14:32:30.785
175, -1186.49, 15.91, 7.81, 9.47, 0.000, 0.000, 0.000, 14:32:30.785
176, -933.99, -3.49, 19.68, 21.20, 0.000, 0.000, 0.000, 14:32:30.785
177, -692.82, 9.61, 3.01, 6.43, 0.000, 0.000, 0.000, 14:32:30.785
178, -1038.29, 17.47, 5.36, 10.75, 0.000, 0.000, 0.000, 14:32:30.786
179, -1140.01, 1.96, 19.40, 22.12, 0.000, 0.000, 0.000, 14:32:30.806
180, -655.70, 7.96, 13.48, 9.99, 0.000, 0.000, 0.000, 14:32:30.806
181, -885.25, 16.93, 4.07, 5.71, 0.000, 0.000, 0.000, 14:32:30.807
182, -1226.96, 6.37, 14.42, 13.82, 0.000, 0.000, 0.000, 14:32:30.807
183, -765.83, 1.35, 18.30, 16.96, 0.000, 0.000, 0.000, 14:32:30.829
184, -766.23, 15.81, 3.41, 1.83, 0.000, 0.000, 0.000, 14:32:30.829
185, -1189.17, 9.93, 6.45, 8.33, 0.000, 0.000, 0.000, 14:32:30.829
186, -948.26, -0.87, 23.26, 19.01, 0.000, 0.000, 0.000, 14:32:30.830
187, -689.17, 12.95, 6.97, 6.24, 0.000, 0.000, 0.000, 14:32:30.830
188, -1038.44, 13.99, 4.70, 8.56, 0.000, 0.000, 0.000, 14:32:30.830
189, -1138.56, 2.71, 26.52, 18.29, 0.000, 0.000, 0.000, 14:32:30.851
190, -660.37, 1.52, 13.24, 11.07, 0.000, 0.000, 0.000, 14:32:30.851
191, -878.51, 15.62, -1.97, 4.61, 0.000, 0.000, 0.000, 14:32:30.852
192, -1223.82, 7.29, 15.76, 13.49, 0.000, 0.000, 0.000, 14:32:30.852
193, -768.99, 3.17, 16.22, 14.98, 0.000, 0.000, 0.000, 14:32:30.874
194, -758.36, 14.41, -0.51, 7.37, 0.000, 0.000, 0.000, 14:32:30.874
195, -1188.84, 13.08, 9.71, 13.79, 0.000, 0.000, 0.000, 14:32:30.874
196, -950.15, -2.70, 23.72, 21.47, 0.000, 0.000, 0.000, 14:32:30.874
197, -689.87, 13.82, 8.59, 4.86, 0.000, 0.000, 0.000, 14:32:30.896
198, -1030.73, 23.07, 1.36, 8.20, 0.000, 0.000, 0.000, 14:32:30.896
199, -1136.33, -4.62, 20.57, 17.92, 0.000, 0.000, 0.000, 14:32:30.897
200, -665.26, 8.99, 7.04, 15.20, 0.000, 0.000, 0.000, 14:32:30.897
0, 102.71, 16.83, 3.07, 6.65, 0.000, 0.000, 0.000, 14:32:30.897
1, -242.73, 10.28, 15.55, 16.05, 0.000, 0.000, 0.000, 14:32:30.919
2, 210.74, -0.86, 16.85, 18.79, 0.000, 0.000, 0.000, 14:32:30.919
3, 227.96, 16.46, 0.52, 6.57, 0.000, 0.000, 0.000, 14:32:30.919
4, -209.44, 9.91, 7.44, 8.04, 0.000, 0.000, 0.000, 14:32:30.919
5, 24.22, -4.29, 21.96, 23.18, 0.000, 0.000, 0.000, 14:32:30.941
6, 291.21, 18.65, 2.29, 9.04, 0.000, 0.000, 0.000, 14:32:30.941
7, -54.13, 13.25, 3.26, 10.01, 0.000, 0.000, 0.000, 14:32:30.942
8, -166.69, 2.72, 22.40, 18.73, 0.000, 0.000, 0.000, 14:32:30.942
9, 301.56, 5.68, 11.13, 12.28, 0.000, 0.000, 0.000, 14:32:30.971
10, 91.92, 20.98, 2.98, 6.44, 0.000, 0.000, 0.000, 14:32:30.971
11, -255.63, 8.90, 12.07, 16.14, 0.000, 0.000, 0.000, 14:32:30.971
12, 202.86, -0.77, 15.40, 22.48, 0.000, 0.000, 0.000, 14:32:30.972
13, 219.10, 14.88, 4.67, 3.37, 0.000, 0.000, 0.000, 14:32:30.972
14, -214.21, 9.12, 11.66, 8.14, 0.000, 0.000, 0.000, 14:32:30.972
15, 22.93, -5.22, 19.78, 19.24, 0.000, 0.000, 0.000, 14:32:30.986
16, 287.77, 7.40, 9.13, 6.44, 0.000, 0.000, 0.000, 14:32:30.986
17, -58.87, 15.68, 5.18, 5.43, 0.000, 0.000, 0.000, 14:32:30.987
18, -169.15, -2.03, 19.45, 17.56, 0.000, 0.000, 0.000, 14:32:30.987
19, 309.61, 9.39, 13.84, 14.20, 0.000, 0.000, 0.000, 14:32:31.011
20, 95.13, 15.88, 3.96, 4.07, 0.000, 0.000, 0.000, 14:32:31.011
21, -251.80, 11.08, 17.85, 14.87, 0.000, 0.000, 0.000, 14:32:31.011
22, 206.09, -1.62, 21.52, 14.76, 0.000, 0.000, 0.000, 14:32:31.011
23, 224.31, 15.35, 1.43, 4.77, 0.000, 0.000, 0.000, 14:32:31.031
24, -211.17, 16.79, 7.89, 10.77, 0.000, 0.000, 0.000, 14:32:31.032
25, 27.46, -7.42, 22.12, 21.45, 0.000, 0.000, 0.000, 14:32:31.032
26, 292.15, 6.88, 3.81, 5.49, 0.000, 0.000, 0.000, 14:32:31.032
27, -53.59, 16.81, 4.56, 5.86, 0.000, 0.000, 0.000, 14:32:31.054
28, -153.56, -2.04, 19.76, 17.69, 0.000, 0.000, 0.000, 14:32:31.054
29, 312.66, 5.46, 7.05, 10.87, 0.000, 0.000, 0.000, 14:32:31.054
30, 98.47, 20.56, 3.23, 4.85, 0.000, 0.000, 0.000, 14:32:31.054
31, -247.62, 10.38, 15.31, 17.37, 0.000, 0.000, 0.000, 14:32:31.055
32, 208.38, 0.72, 19.92, 18.75, 0.000, 0.000, 0.000, 14:32:31.055
33, 221.58, 15.73, 6.68, 5.04, 0.000, 0.000, 0.000, 14:32:31.076
34, -202.00, 11.09, 7.95, 10.02, 0.000, 0.000, 0.000, 14:32:31.076
35, 26.30, -2.91, 26.01, 21.84, 0.000, 0.000, 0.000, 14:32:31.077
36, 286.61, 14.51, 4.94, 10.25, 0.000, 0.000, 0.000, 14:32:31.077
37, -60.87, 14.18, 5.57, 10.00, 0.000, 0.000, 0.000, 14:32:31.099
38, -163.86, -1.86, 21.23, 20.51, 0.000, 0.000, 0.000, 14:32:31.099
39, 308.96, 8.13, 8.56, 9.74, 0.000, 0.000, 0.000, 14:32:31.099
40, 103.34, 14.06, 0.10, 2.79, 0.000, 0.000, 0.000, 14:32:31.099
41, -242.11, 6.13, 12.45, 15.97, 0.000, 0.000, 0.000, 14:32:31.121
42, 206.12, 5.32, 20.60, 15.33, 0.000, 0.000, 0.000, 14:32:31.122
43, 220.50, 10.95, 0.98, 8.45, 0.000, 0.000, 0.000, 14:32:31.122
44, -206.51, 12.66, 7.07, 7.81, 0.000, 0.000, 0.000, 14:32:31.122
45, 31.76, -4.03, 20.49, 19.61, 0.000, 0.000, 0.000, 14:32:31.144
46, 286.43, 12.62, 4.26, 4.49, 0.000, 0.000, 0.000, 14:32:31.144
47, -55.67, 15.05, 1.47, 6.34, 0.000, 0.000, 0.000, 14:32:31.144
48, -161.46, 2.09, 27.18, 20.57, 0.000, 0.000, 0.000, 14:32:31.144
49, 312.68, 6.40, 16.23, 14.26, 0.000, 0.000, 0.000, 14:32:31.145
50, 96.94, 21.78, 2.12, 4.87, 0.000, 0.000, 0.000, 14:32:31.145
51, -245.94, 12.42, 13.21, 14.39, 0.000, 0.000, 0.000, 14:32:31.166
52, 204.48, -1.17, 18.03, 17.13, 0.000, 0.000, 0.000, 14:32:31.167
53, 221.05, 10.55, 3.76, 3.14, 0.000, 0.000, 0.000, 14:32:31.167
54, -203.79, 12.54, 3.86, 8.71, 0.000, 0.000, 0.000, 14:32:31.167
55, 21.34, 0.67, 22.35, 20.83, 0.000, 0.000, 0.000, 14:32:31.190
56, 287.92, 10.82, 9.28, 10.20, 0.000, 0.000, 0.000, 14:32:31.190
57, -51.02, 17.25, 1.76, 4.79, 0.000, 0.000, 0.000, 14:32:31.190
58, -165.98, -3.33, 18.65, 21.50, 0.000, 0.000, 0.000, 14:32:31.191
59, 312.73, 3.58, 16.43, 10.75, 0.000, 0.000, 0.000, 14:32:31.211
60, 100.19, 21.54, 1.75, 4.90, 0.000, 0.000, 0.000, 14:32:31.211
61, -247.31, 4.25, 13.96, 12.35, 0.000, 0.000, 0.000, 14:32:31.212
62, 210.99, 3.39, 18.13, 20.70, 0.000, 0.000, 0.000, 14:32:31.212
63, 218.58, 15.72, 2.52, 3.41, 0.000, 0.000, 0.000, 14:32:31.234
64, -192.29, 13.09, 11.67, 7.67, 0.000, 0.000, 0.000, 14:32:31.234
65, 25.30, -1.80, 22.06, 25.66, 0.000, 0.000, 0.000, 14:32:31.235
66, 290.41, 15.24, 9.32, 8.44, 0.000, 0.000, 0.000, 14:32:31.235
67, -55.42, 14.16, 5.41, 5.33, 0.000, 0.000, 0.000, 14:32:31.235
68, -159.27, -0.79, 19.42, 19.36, 0.000, 0.000, 0.000, 14:32:31.236
69, 317.14, 11.90, 9.24, 9.00, 0.000, 0.000, 0.000, 14:32:31.256
70, 94.87, 14.39, 4.80, 4.36, 0.000, 0.000, 0.000, 14:32:31.256
71, -237.29, 3.09, 10.27, 12.34, 0.000, 0.000, 0.000, 14:32:31.257
72, 202.44, 3.32, 17.92, 19.55, 0.000, 0.000, 0.000, 14:32:31.257
73, 222.89, 16.79, 6.66, 6.28, 0.000, 0.000, 0.000, 14:32:31.279
74, -204.46, 8.17, 8.71, 7.46, 0.000, 0.000, 0.000, 14:32:31.279
75, 25.13, -2.49, 20.69, 24.38, 0.000, 0.000, 0.000, 14:32:31.279
76, 295.02, 13.64, 5.12, 11.10, 0.000, 0.000, 0.000, 14:32:31.279
77, -54.03, 16.74, 5.36, 4.48, 0.000, 0.000, 0.000, 14:32:31.301
78, -163.00, 4.49, 17.70, 21.50, 0.000, 0.000, 0.000, 14:32:31.301
79, 318.76, 2.43, 11.10, 13.68, 0.000, 0.000, 0.000, 14:32:31.302
80, 104.46, 13.42, 5.46, 2.71, 0.000, 0.000, 0.000, 14:32:31.302
81, -242.54, 5.86, 12.51, 14.08, 0.000, 0.000, 0.000, 14:32:31.324
82, 203.97, 1.02, 19.66, 17.13, 0.000, 0.000, 0.000, 14:32:31.324
83, 224.26, 11.19, 1.82, 7.24, 0.000, 0.000, 0.000, 14:32:31.324
84, -202.01, 14.38, 7.15, 7.50, 0.000, 0.000, 0.000, 14:32:31.324
85, 21.56, -3.86, 21.24, 20.28, 0.000, 0.000, 0.000, 14:32:31.325
86, 298.63, 10.04, 5.66, 7.22, 0.000, 0.000, 0.000, 14:32:31.325
87, -47.92, 15.77, 5.01, 7.93, 0.000, 0.000, 0.000, 14:32:31.346
88, -161.94, -3.80, 21.04, 18.97, 0.000, 0.000, 0.000, 14:32:31.346
89, 308.68, 3.99, 13.39, 13.10, 0.000, 0.000, 0.000, 14:32:31.347
90, 100.02, 14.53, 1.96, 4.47, 0.000, 0.000, 0.000, 14:32:31.347
91, -244.23, 10.09, 11.74, 14.90, 0.000, 0.000, 0.000, 14:32:31.369
92, 199.67, 1.39, 16.94, 15.02, 0.000, 0.000, 0.000, 14:32:31.369
93, 230.84, 13.03, -1.91, 3.07, 0.000, 0.000, 0.000, 14:32:31.369
94, -201.03, 15.25, 5.99, 8.70, 0.000, 0.000, 0.000, 14:32:31.370
95, 20.38, 1.65, 19.95, 20.88, 0.000, 0.000, 0.000, 14:32:31.391
96, 295.16, 14.35, 6.22, 7.00, 0.000, 0.000, 0.000, 14:32:31.391
97, -43.91, 10.81, 6.91, 7.26, 0.000, 0.000, 0.000, 14:32:31.392
98, -168.32, 3.29, 19.74, 21.93, 0.000, 0.000, 0.000, 14:32:31.392
99, 310.48, 9.27, 12.67, 12.67, 0.000, 0.000, 0.000, 14:32:31.414
100, 104.75, 18.46, -0.95, 3.94, 0.000, 0.000, 0.000, 14:32:31.414
101, -247.96, 5.72, 20.50, 17.53, 0.000, 0.000, 0.000, 14:32:31.414
102, 199.43, 0.03, 20.47, 14.90, 0.000, 0.000, 0.000, 14:32:31.414
103, 230.35, 16.09, 3.30, 5.45, 0.000, 0.000, 0.000, 14:32:31.415
104, -199.77, 13.08, 7.58, 10.47, 0.000, 0.000, 0.000, 14:32:31.415
105, 12.64, 3.41, 19.44, 22.01, 0.000, 0.000, 0.000, 14:32:31.436
106, 294.65, 7.70, 6.06, 6.71, 0.000, 0.000, 0.000, 14:32:31.436
107, -42.11, 17.59, 0.22, 5.10, 0.000, 0.000, 0.000, 14:32:31.437
108, -170.81, 0.41, 21.21, 19.38, 0.000, 0.000, 0.000, 14:32:31.437
109, 308.82, 6.31, 10.88, 13.76, 0.000, 0.000, 0.000, 14:32:31.459
110, 109.44, 14.80, 6.61, 6.86, 0.000, 0.000, 0.000, 14:32:31.459
111, -250.36, 6.50, 19.30, 13.70, 0.000, 0.000, 0.000, 14:32:31.459
112, 194.32, -0.73, 17.37, 18.56, 0.000, 0.000, 0.000, 14:32:31.459
113, 231.78, 12.59, 2.38, 6.94, 0.000, 0.000, 0.000, 14:32:31.481
114, -201.32, 19.52, 9.23, 9.95, 0.000, 0.000, 0.000, 14:32:31.482
115, 12.64, -5.14, 24.21, 22.30, 0.000, 0.000, 0.000, 14:32:31.482
116, 290.72, 8.88, 6.88, 5.28, 0.000, 0.000, 0.000, 14:32:31.482
117, -39.90, 16.71, 4.34, 6.89, 0.000, 0.000, 0.000, 14:32:31.504
118, -172.18, -0.28, 18.68, 17.23, 0.000, 0.000, 0.000, 14:32:31.504
119, 304.95, 7.75, 9.68, 14.28, 0.000, 0.000, 0.000, 14:32:31.504
120, 110.37, 16.61, 3.67, 5.91, 0.000, 0.000, 0.000, 14:32:31.504
121, -248.44, 7.02, 10.66, 13.00, 0.000, 0.000, 0.000, 14:32:31.505
122, 192.77, 3.03, 18.87, 22.29, 0.000, 0.000, 0.000, 14:32:31.505
123, 231.45, 18.50, 3.48, 4.43, 0.000, 0.000, 0.000, 14:32:31.526
124, -190.86, 8.68, 8.08, 5.87, 0.000, 0.000, 0.000, 14:32:31.526
125, 13.94, -2.35, 19.90, 20.33, 0.000, 0.000, 0.000, 14:32:31.527
126, 300.67, 13.39, 3.52, 10.51, 0.000, 0.000, 0.000, 14:32:31.527
127, -39.24, 15.80, 0.61, 6.60, 0.000, 0.000, 0.000, 14:32:31.549
128, -174.87, -1.86, 26.87, 21.78, 0.000, 0.000, 0.000, 14:32:31.549
129, 305.15, 5.84, 10.84, 14.13, 0.000, 0.000, 0.000, 14:32:31.549
130, 107.95, 16.67, 2.86, 5.85, 0.000, 0.000, 0.000, 14:32:31.549
131, -245.07, 5.17, 11.78, 12.33, 0.000, 0.000, 0.000, 14:32:31.571
132, 193.83, 7.80, 20.88, 12.44, 0.000, 0.000, 0.000, 14:32:31.571
133, 228.46, 8.29, 5.43, 7.38, 0.000, 0.000, 0.000, 14:32:31.572
134, -194.47, 14.82, 6.74, 10.71, 0.000, 0.000, 0.000, 14:32:31.572
135, 10.12, 0.65, 27.69, 23.03, 0.000, 0.000, 0.000, 14:32:31.594
136, 297.19, 13.12, 6.20, 10.15, 0.000, 0.000, 0.000, 14:32:31.594
137, -43.20, 13.20, 1.92, 1.45, 0.000, 0.000, 0.000, 14:32:31.594
138, -165.70, 1.83, 21.69, 20.37, 0.000, 0.000, 0.000, 14:32:31.594
139, 308.69, 11.47, 8.96, 12.65, 0.000, 0.000, 0.000, 14:32:31.595
140, 104.80, 17.84, -0.53, 6.99, 0.000, 0.000, 0.000, 14:32:31.595
141, -251.51, 8.12, 9.88, 13.56, 0.000, 0.000, 0.000, 14:32:31.616
142, 190.23, -4.42, 17.72, 16.30, 0.000, 0.000, 0.000, 14:32:31.616
143, 227.03, 10.24, 3.29, 6.24, 0.000, 0.000, 0.000, 14:32:31.617
144, -202.36, 13.71, 5.65, 10.34, 0.000, 0.000, 0.000, 14:32:31.617
145, 13.39, -3.29, 18.31, 17.86, 0.000, 0.000, 0.000, 14:32:31.639
146, 293.94, 5.75, 3.66, 5.11, 0.000, 0.000, 0.000, 14:32:31.639
147, -37.57, 15.91, 4.19, 4.03, 0.000, 0.000, 0.000, 14:32:31.639
148, -166.81, 1.89, 19.11, 22.26, 0.000, 0.000, 0.000, 14:32:31.639
149, 308.16, 2.52, 9.75, 12.64, 0.000, 0.000, 0.000, 14:32:31.661
150, 109.92, 20.06, 10.01, 9.79, 0.000, 0.000, 0.000, 14:32:31.662
151, -246.09, 2.61, 12.22, 14.80, 0.000, 0.000, 0.000, 14:32:31.662
152, 199.48, 2.64, 21.06, 20.15, 0.000, 0.000, 0.000, 14:32:31.662
153, 233.66, 14.92, 7.73, 1.27, 0.000, 0.000, 0.000, 14:32:31.684
154, -181.95, 16.42, 8.67, 5.31, 0.000, 0.000, 0.000, 14:32:31.684
155, 22.80, -0.62, 21.30, 20.13, 0.000, 0.000, 0.000, 14:32:31.684
156, 309.84, 13.10, 5.91, 5.45, 0.000, 0.000, 0.000, 14:32:31.684
157, -28.03, 18.38, 8.90, 7.47, 0.000, 0.000, 0.000, 14:32:31.685
158, -170.06, 0.64, 21.60, 17.11, 0.000, 0.000, 0.000, 14:32:31.685
159, 301.46, 4.49, 8.17, 11.42, 0.000, 0.000, 0.000, 14:32:31.706
160, 102.28, 12.29, 0.48, 3.45, 0.000, 0.000, 0.000, 14:32:31.706
161, -256.94, 7.76, 15.70, 13.40, 0.000, 0.000, 0.000, 14:32:31.707
162, 181.18, -3.48, 19.59, 18.28, 0.000, 0.000, 0.000, 14:32:31.707
163, 215.82, 17.08, 1.23, 5.94, 0.000, 0.000, 0.000, 14:32:31.729
164, -204.57, 11.97, 8.07, 10.24, 0.000, 0.000, 0.000, 14:32:31.729
165, 0.13, -1.52, 23.20, 22.58, 0.000, 0.000, 0.000, 14:32:31.729
166, 291.15, 8.30, 3.48, 7.83, 0.000, 0.000, 0.000, 14:32:31.729
167, -34.43, 18.51, 4.59, 8.48, 0.000, 0.000, 0.000, 14:32:31.751
168, -171.67, 6.25, 17.27, 16.15, 0.000, 0.000, 0.000, 14:32:31.751
169, 311.55, -4.56, 13.32, 15.15, 0.000, 0.000, 0.000, 14:32:31.752
170, 118.27, 15.71, 3.17, 2.19, 0.000, 0.000, 0.000, 14:32:31.752
171, -247.73, 10.37, 15.60, 14.09, 0.000, 0.000, 0.000, 14:32:31.774
172, 195.05, -4.53, 17.50, 17.36, 0.000, 0.000, 0.000, 14:32:31.774
173, 237.54, 15.63, 4.95, 9.77, 0.000, 0.000, 0.000, 14:32:31.775
174, -190.01, 14.65, 6.81, 11.85, 0.000, 0.000, 0.000, 14:32:31.775
175, 6.42, -2.66, 22.43, 23.34, 0.000, 0.000, 0.000, 14:32:31.775
176, 297.08, 12.90, 12.76, 9.19, 0.000, 0.000, 0.000, 14:32:31.775
177, -38.47, 14.35, 4.73, 8.90, 0.000, 0.000, 0.000, 14:32:31.796
178, -175.19, -1.54, 21.59, 17.90, 0.000, 0.000, 0.000, 14:32:31.796
179, 308.63, 3.47, 14.80, 16.04, 0.000, 0.000, 0.000, 14:32:31.797
180, 111.38, 18.35, -1.75, 3.46, 0.000, 0.000, 0.000, 14:32:31.797
181, -249.65, 8.98, 18.59, 13.36, 0.000, 0.000, 0.000, 14:32:31.819
182, 183.61, 0.75, 13.93, 18.03, 0.000, 0.000, 0.000, 14:32:31.819
183, 235.55, 16.96, 5.71, 5.33, 0.000, 0.000, 0.000, 14:32:31.819
184, -187.72, 13.17, 6.51, 9.12, 0.000, 0.000, 0.000, 14:32:31.819
185, 5.25, 0.27, 17.84, 20.67, 0.000, 0.000, 0.000, 14:32:31.841
186, 298.50, 14.23, 5.45, 4.87, 0.000, 0.000, 0.000, 14:32:31.842
187, -36.31, 14.27, 1.65, 2.17, 0.000, 0.000, 0.000, 14:32:31.842
188, -181.79, 3.27, 19.86, 19.07, 0.000, 0.000, 0.000, 14:32:31.842
189, 304.30, 7.08, 8.59, 13.29, 0.000, 0.000, 0.000, 14:32:31.864
190, 118.01, 13.02, 4.60, 7.40, 0.000, 0.000, 0.000, 14:32:31.864
191, -245.29, 2.00, 15.19, 13.31, 0.000, 0.000, 0.000, 14:32:31.864
192, 184.70, -0.51, 18.85, 17.37, 0.000, 0.000, 0.000, 14:32:31.864
193, 235.27, 13.31, 4.01, 6.92, 0.000, 0.000, 0.000, 14:32:31.865
194, -191.49, 17.27, 4.53, 9.41, 0.000, 0.000, 0.000, 14:32:31.865
195, 1.66, -0.46, 17.67, 23.24, 0.000, 0.000, 0.000, 14:32:31.886
