%OpenBCI Raw EEG Data
%
%Sample Rate = 200.0 Hz
%First Column = SampleIndex
%Last Column = Timestamp 
%Other Columns = EEG data in microvolts followed by Accel Data (in G) interleaved with Aux Data
0, -172.78, -4.50, 15.41, 17.85, 0.000, 0.000, 0.000, 14:43:56.314
1, 437.09, 12.29, 6.32, 10.39, 0.000, 0.000, 0.000, 14:43:56.317
2, -17.30, 11.74, 5.78, 10.09, 0.000, 0.000, 0.000, 14:43:56.320
3, -377.16, 8.39, 21.11, 20.36, 0.000, 0.000, 0.000, 14:43:56.335
4, 309.60, 3.86, 6.37, 8.64, 0.000, 0.000, 0.000, 14:43:56.335
5, 272.05, 18.78, 1.10, 6.39, 0.000, 0.000, 0.000, 14:43:56.336
6, -428.50, 2.23, 18.22, 17.62, 0.000, 0.000, 0.000, 14:43:56.337
7, 96.32, 5.53, 10.65, 12.92, 0.000, 0.000, 0.000, 14:43:56.357
8, 431.99, 13.81, 3.28, 5.51, 0.000, 0.000, 0.000, 14:43:56.358
9, -250.31, 9.21, 13.60, 13.15, 0.000, 0.000, 0.000, 14:43:56.358
10, -174.44, 3.06, 19.23, 20.68, 0.000, 0.000, 0.000, 14:43:56.359
11, 434.58, 13.22, 2.40, 4.67, 0.000, 0.000, 0.000, 14:43:56.380
12, 1.49, 19.97, 8.47, 8.71, 0.000, 0.000, 0.000, 14:43:56.380
13, -381.25, -4.16, 24.24, 19.95, 0.000, 0.000, 0.000, 14:43:56.388
14, 295.07, 11.57, 6.36, 10.44, 0.000, 0.000, 0.000, 14:43:56.389
15, 286.30, 14.46, 4.14, 5.36, 0.000, 0.000, 0.000, 14:43:56.403
16, -426.77, 4.79, 16.39, 16.71, 0.000, 0.000, 0.000, 14:43:56.404
17, 81.66, 3.30, 12.10, 14.29, 0.000, 0.000, 0.000, 14:43:56.405
18, 434.63, 15.34, 2.47, 6.45, 0.000, 0.000, 0.000, 14:43:56.405
19, -278.73, 10.77, 12.33, 12.62, 0.000, 0.000, 0.000, 14:43:56.406
20, -181.15, 5.16, 20.53, 17.02, 0.000, 0.000, 0.000, 14:43:56.406
21, 428.07, 18.68, 3.20, 6.07, 0.000, 0.000, 0.000, 14:43:56.425
22, -11.19, 7.53, 5.89, 6.09, 0.000, 0.000, 0.000, 14:43:56.425
23, -364.61, -2.52, 18.36, 20.50, 0.000, 0.000, 0.000, 14:43:56.426
24, 288.24, 9.92, 8.80, 10.23, 0.000, 0.000, 0.000, 14:43:56.426
25, 266.03, 15.31, 5.10, 7.61, 0.000, 0.000, 0.000, 14:43:56.453
26, -405.10, 1.77, 14.83, 17.83, 0.000, 0.000, 0.000, 14:43:56.453
27, 74.05, 4.57, 10.53, 11.94, 0.000, 0.000, 0.000, 14:43:56.454
28, 441.54, 17.41, 3.48, 8.13, 0.000, 0.000, 0.000, 14:43:56.454
29, -258.19, 9.40, 12.47, 14.03, 0.000, 0.000, 0.000, 14:43:56.470
30, -187.60, 9.47, 18.47, 17.66, 0.000, 0.000, 0.000, 14:43:56.471
31, 428.05, 7.95, 3.95, 6.99, 0.000, 0.000, 0.000, 14:43:56.471
32, 1.26, 14.54, 10.30, 4.26, 0.000, 0.000, 0.000, 14:43:56.471
33, -361.06, -1.82, 17.45, 20.53, 0.000, 0.000, 0.000, 14:43:56.492
34, 306.88, 7.96, 10.19, 9.52, 0.000, 0.000, 0.000, 14:43:56.492
35, 278.29, 13.75, 8.67, 11.04, 0.000, 0.000, 0.000, 14:43:56.493
36, -420.40, 2.35, 19.39, 18.29, 0.000, 0.000, 0.000, 14:43:56.493
37, 87.61, 4.42, 13.23, 13.09, 0.000, 0.000, 0.000, 14:43:56.494
38, 418.34, 13.44, 6.82, 9.82, 0.000, 0.000, 0.000, 14:43:56.495
39, -249.60, 13.20, 10.88, 13.41, 0.000, 0.000, 0.000, 14:43:56.514
40, -193.17, -2.87, 16.82, 17.00, 0.000, 0.000, 0.000, 14:43:56.515
41, 425.70, 10.69, 8.40, 6.20, 0.000, 0.000, 0.000, 14:43:56.515
42, 33.99, 11.14, 6.65, 9.33, 0.000, 0.000, 0.000, 14:43:56.515
43, -351.78, -3.19, 18.87, 16.54, 0.000, 0.000, 0.000, 14:43:56.537
44, 306.11, 9.70, 9.16, 6.83, 0.000, 0.000, 0.000, 14:43:56.537
45, 282.47, 13.23, 6.08, 8.26, 0.000, 0.000, 0.000, 14:43:56.538
46, -433.60, 1.36, 18.50, 21.29, 0.000, 0.000, 0.000, 14:43:56.538
47, 47.57, 4.87, 14.11, 7.26, 0.000, 0.000, 0.000, 14:43:56.559
48, 419.80, 18.22, 3.12, 3.72, 0.000, 0.000, 0.000, 14:43:56.560
49, -277.40, 5.51, 11.80, 15.41, 0.000, 0.000, 0.000, 14:43:56.560
50, -208.63, 3.84, 22.22, 17.84, 0.000, 0.000, 0.000, 14:43:56.560
51, 412.76, 12.34, 2.62, 8.21, 0.000, 0.000, 0.000, 14:43:56.582
52, 11.09, 9.08, 5.36, 6.80, 0.000, 0.000, 0.000, 14:43:56.582
53, -369.28, 1.03, 21.46, 19.92, 0.000, 0.000, 0.000, 14:43:56.583
54, 306.99, 13.36, 8.53, 9.62, 0.000, 0.000, 0.000, 14:43:56.583
55, 290.74, 14.16, 2.20, 3.47, 0.000, 0.000, 0.000, 14:43:56.583
56, -414.96, 1.64, 19.74, 19.68, 0.000, 0.000, 0.000, 14:43:56.584
57, 81.63, 6.74, 16.55, 12.75, 0.000, 0.000, 0.000, 14:43:56.604
58, 422.32, 14.77, 7.76, 6.67, 0.000, 0.000, 0.000, 14:43:56.604
59, -240.60, 12.01, 13.65, 11.06, 0.000, 0.000, 0.000, 14:43:56.605
60, -188.13, -0.43, 17.31, 22.20, 0.000, 0.000, 0.000, 14:43:56.605
61, 437.87, 9.75, 5.08, 11.95, 0.000, 0.000, 0.000, 14:43:56.627
62, 14.40, 10.55, 9.89, 11.60, 0.000, 0.000, 0.000, 14:43:56.627
63, -373.06, 5.88, 17.99, 23.83, 0.000, 0.000, 0.000, 14:43:56.629
64, 292.41, 13.20, 8.24, 9.40, 0.000, 0.000, 0.000, 14:43:56.629
65, 269.10, 13.38, -2.13, 6.60, 0.000, 0.000, 0.000, 14:43:56.652
66, -398.91, 4.91, 16.82, 13.28, 0.000, 0.000, 0.000, 14:43:56.653
67, 81.89, 0.19, 12.55, 11.22, 0.000, 0.000, 0.000, 14:43:56.653
68, 411.20, 14.67, 7.07, 5.39, 0.000, 0.000, 0.000, 14:43:56.654
69, -240.39, 13.06, 15.25, 8.40, 0.000, 0.000, 0.000, 14:43:56.673
70, -176.74, 2.05, 19.94, 22.21, 0.000, 0.000, 0.000, 14:43:56.673
71, 414.77, 13.80, 4.68, 10.22, 0.000, 0.000, 0.000, 14:43:56.673
72, 13.50, 13.30, 4.15, 10.32, 0.000, 0.000, 0.000, 14:43:56.674
73, -387.68, -1.43, 21.23, 20.47, 0.000, 0.000, 0.000, 14:43:56.674
74, 306.23, 9.26, 4.11, 7.67, 0.000, 0.000, 0.000, 14:43:56.674
75, 291.05, 17.35, 3.58, 6.43, 0.000, 0.000, 0.000, 14:43:56.738
76, -410.68, 0.65, 17.33, 19.33, 0.000, 0.000, 0.000, 14:43:56.738
77, 72.63, 1.49, 13.55, 9.55, 0.000, 0.000, 0.000, 14:43:56.739
78, 427.16, 16.95, 6.52, 6.66, 0.000, 0.000, 0.000, 14:43:56.739
79, -240.92, 8.20, 11.66, 10.61, 0.000, 0.000, 0.000, 14:43:56.739
80, -179.37, -1.31, 17.35, 15.87, 0.000, 0.000, 0.000, 14:43:56.739
81, 413.28, 12.24, 6.08, 10.28, 0.000, 0.000, 0.000, 14:43:56.790
82, 12.55, 14.08, 4.58, 10.70, 0.000, 0.000, 0.000, 14:43:56.791
83, -355.25, -4.16, 21.72, 23.29, 0.000, 0.000, 0.000, 14:43:56.791
84, 292.57, 14.65, 6.66, 10.60, 0.000, 0.000, 0.000, 14:43:56.792
85, 272.33, 9.12, 6.58, 3.81, 0.000, 0.000, 0.000, 14:43:56.792
86, -387.60, 3.29, 16.93, 15.00, 0.000, 0.000, 0.000, 14:43:56.792
87, 69.04, 7.56, 13.56, 12.97, 0.000, 0.000, 0.000, 14:43:56.792
88, 414.73, 15.71, 5.51, 8.96, 0.000, 0.000, 0.000, 14:43:56.793
89, -247.31, 10.85, 12.88, 12.27, 0.000, 0.000, 0.000, 14:43:56.793
90, -176.22, 2.01, 16.68, 18.68, 0.000, 0.000, 0.000, 14:43:56.793
91, 421.46, 14.30, 5.75, 5.93, 0.000, 0.000, 0.000, 14:43:56.793
92, 16.35, 13.44, 6.08, 8.75, 0.000, 0.000, 0.000, 14:43:56.794
93, -376.62, 4.96, 22.39, 18.19, 0.000, 0.000, 0.000, 14:43:56.808
94, 301.76, 9.59, 4.25, 11.19, 0.000, 0.000, 0.000, 14:43:56.808
95, 258.61, 14.83, 7.83, 6.26, 0.000, 0.000, 0.000, 14:43:56.809
96, -395.31, 3.14, 18.53, 20.95, 0.000, 0.000, 0.000, 14:43:56.809
97, 95.70, 4.14, 15.03, 15.95, 0.000, 0.000, 0.000, 14:43:56.809
98, 419.61, 17.51, 2.17, 6.12, 0.000, 0.000, 0.000, 14:43:56.810
99, -251.34, 11.40, 7.17, 9.93, 0.000, 0.000, 0.000, 14:43:56.810
100, -172.93, -4.31, 19.06, 16.17, 0.000, 0.000, 0.000, 14:43:56.811
101, 408.39, 9.43, 3.69, 4.03, 0.000, 0.000, 0.000, 14:43:56.830
102, 1.53, 16.83, 5.26, 11.00, 0.000, 0.000, 0.000, 14:43:56.830
103, -371.10, 2.29, 19.00, 20.25, 0.000, 0.000, 0.000, 14:43:56.830
104, 284.61, 13.16, 3.49, 9.53, 0.000, 0.000, 0.000, 14:43:56.830
105, 270.40, 14.59, 4.83, 5.96, 0.000, 0.000, 0.000, 14:43:56.852
106, -406.54, 0.55, 23.13, 16.62, 0.000, 0.000, 0.000, 14:43:56.852
107, 71.74, 0.03, 14.52, 14.20, 0.000, 0.000, 0.000, 14:43:56.852
108, 399.80, 16.00, 4.25, 4.97, 0.000, 0.000, 0.000, 14:43:56.853
109, -259.51, 9.69, 12.61, 13.32, 0.000, 0.000, 0.000, 14:43:56.853
110, -165.38, -2.29, 20.83, 21.32, 0.000, 0.000, 0.000, 14:43:56.853
111, 399.98, 19.26, 0.70, 6.54, 0.000, 0.000, 0.000, 14:43:56.874
112, 6.82, 8.72, 6.87, 12.60, 0.000, 0.000, 0.000, 14:43:56.874
113, -359.77, -4.23, 25.54, 20.48, 0.000, 0.000, 0.000, 14:43:56.875
114, 278.37, 12.18, 8.72, 11.31, 0.000, 0.000, 0.000, 14:43:56.875
115, 279.90, 15.64, 1.84, 7.80, 0.000, 0.000, 0.000, 14:43:56.897
116, -423.18, -0.28, 19.15, 16.02, 0.000, 0.000, 0.000, 14:43:56.897
117, 96.08, 2.38, 13.66, 13.10, 0.000, 0.000, 0.000, 14:43:56.897
118, 410.54, 16.07, 2.03, 4.95, 0.000, 0.000, 0.000, 14:43:56.897
119, -243.80, 11.04, 8.07, 13.68, 0.000, 0.000, 0.000, 14:43:56.919
120, -189.60, 5.22, 19.68, 18.57, 0.000, 0.000, 0.000, 14:43:56.920
121, 406.94, 8.27, 1.90, 5.23, 0.000, 0.000, 0.000, 14:43:56.920
122, 5.64, 16.44, 7.58, 6.76, 0.000, 0.000, 0.000, 14:43:56.920
123, -359.67, -4.18, 20.18, 21.86, 0.000, 0.000, 0.000, 14:43:56.942
124, 281.42, 9.88, 6.19, 9.26, 0.000, 0.000, 0.000, 14:43:56.942
125, 259.22, 14.05, 2.18, 7.14, 0.000, 0.000, 0.000, 14:43:56.943
126, -383.51, 7.14, 19.27, 17.54, 0.000, 0.000, 0.000, 14:43:56.944
127, 78.02, -0.48, 15.67, 19.90, 0.000, 0.000, 0.000, 14:43:56.947
128, 393.22, 14.96, 4.64, 3.63, 0.000, 0.000, 0.000, 14:43:56.947
129, -238.43, 11.33, 12.65, 15.43, 0.000, 0.000, 0.000, 14:43:56.964
130, -174.68, -0.01, 20.45, 17.15, 0.000, 0.000, 0.000, 14:43:56.965
131, 388.98, 14.38, 2.99, 4.41, 0.000, 0.000, 0.000, 14:43:56.965
132, 15.94, 14.64, 6.81, 7.86, 0.000, 0.000, 0.000, 14:43:56.966
133, -352.52, 0.35, 25.58, 23.60, 0.000, 0.000, 0.000, 14:43:56.987
134, 281.64, 6.75, 8.90, 11.44, 0.000, 0.000, 0.000, 14:43:56.987
135, 267.60, 16.08, 2.25, 8.60, 0.000, 0.000, 0.000, 14:43:56.987
136, -393.99, 5.53, 18.55, 17.26, 0.000, 0.000, 0.000, 14:43:56.987
137, 73.84, 2.50, 13.39, 16.75, 0.000, 0.000, 0.000, 14:43:57.009
138, 404.53, 20.81, 3.93, 5.91, 0.000, 0.000, 0.000, 14:43:57.009
139, -245.96, 5.83, 11.54, 7.88, 0.000, 0.000, 0.000, 14:43:57.010
140, -187.21, -0.39, 19.29, 14.03, 0.000, 0.000, 0.000, 14:43:57.010
141, 408.27, 15.77, 3.74, 4.50, 0.000, 0.000, 0.000, 14:43:57.032
142, 2.00, 13.05, 6.54, 7.03, 0.000, 0.000, 0.000, 14:43:57.032
143, -362.13, -2.59, 23.52, 24.81, 0.000, 0.000, 0.000, 14:43:57.033
144, 290.49, 10.15, 8.57, 11.03, 0.000, 0.000, 0.000, 14:43:57.033
145, 280.72, 17.83, 2.46, 6.12, 0.000, 0.000, 0.000, 14:43:57.033
146, -381.62, 4.56, 16.60, 15.74, 0.000, 0.000, 0.000, 14:43:57.033
147, 58.13, 7.69, 13.02, 13.87, 0.000, 0.000, 0.000, 14:43:57.054
148, 412.73, 13.30, 6.73, 9.47, 0.000, 0.000, 0.000, 14:43:57.054
149, -233.91, 12.77, 11.86, 8.55, 0.000, 0.000, 0.000, 14:43:57.055
150, -167.00, 0.69, 18.91, 21.37, 0.000, 0.000, 0.000, 14:43:57.055
151, 398.86, 15.80, 3.89, 7.26, 0.000, 0.000, 0.000, 14:43:57.077
152, 26.38, 9.36, 5.89, 8.26, 0.000, 0.000, 0.000, 14:43:57.077
153, -363.48, -1.32, 21.07, 21.71, 0.000, 0.000, 0.000, 14:43:57.077
154, 273.04, 7.90, 8.69, 7.17, 0.000, 0.000, 0.000, 14:43:57.077
155, 272.79, 17.05, 4.24, 4.01, 0.000, 0.000, 0.000, 14:43:57.099
156, -380.44, 5.83, 18.45, 15.38, 0.000, 0.000, 0.000, 14:43:57.100
157, 71.63, -3.74, 16.22, 15.98, 0.000, 0.000, 0.000, 14:43:57.100
158, 410.07, 15.97, 2.79, 3.22, 0.000, 0.000, 0.000, 14:43:57.100
159, -229.28, 10.51, 11.95, 10.13, 0.000, 0.000, 0.000, 14:43:57.122
160, -199.39, 0.06, 17.81, 18.53, 0.000, 0.000, 0.000, 14:43:57.122
161, 399.93, 11.74, 1.83, 3.20, 0.000, 0.000, 0.000, 14:43:57.122
162, 42.06, 17.03, 8.17, 10.70, 0.000, 0.000, 0.000, 14:43:57.123
163, -368.05, -1.77, 23.05, 22.24, 0.000, 0.000, 0.000, 14:43:57.123
164, 269.77, 8.71, 9.36, 10.94, 0.000, 0.000, 0.000, 14:43:57.123
165, 287.27, 19.57, 6.62, 6.50, 0.000, 0.000, 0.000, 14:43:57.144
166, -392.13, -1.74, 18.78, 14.09, 0.000, 0.000, 0.000, 14:43:57.144
167, 61.81, 4.51, 14.40, 13.39, 0.000, 0.000, 0.000, 14:43:57.145
168, 402.58, 16.84, 0.65, 4.52, 0.000, 0.000, 0.000, 14:43:57.145
169, -224.34, 7.57, 10.27, 13.02, 0.000, 0.000, 0.000, 14:43:57.167
170, -179.47, -3.48, 24.11, 19.30, 0.000, 0.000, 0.000, 14:43:57.167
171, 384.90, 16.77, 2.88, 5.67, 0.000, 0.000, 0.000, 14:43:57.167
172, 36.38, 14.59, 5.81, 5.35, 0.000, 0.000, 0.000, 14:43:57.167
173, -362.38, -2.32, 21.32, 21.31, 0.000, 0.000, 0.000, 14:43:57.189
174, 264.63, 13.30, 9.72, 11.26, 0.000, 0.000, 0.000, 14:43:57.189
175, 302.17, 10.49, 7.86, 9.05, 0.000, 0.000, 0.000, 14:43:57.190
176, -387.60, 2.80, 19.36, 17.13, 0.000, 0.000, 0.000, 14:43:57.190
177, 41.46, 3.95, 12.76, 16.75, 0.000, 0.000, 0.000, 14:43:57.211
178, 405.39, 16.37, 0.87, 3.05, 0.000, 0.000, 0.000, 14:43:57.212
179, -224.45, 5.94, 9.04, 9.13, 0.000, 0.000, 0.000, 14:43:57.212
180, -205.40, -4.05, 18.97, 19.53, 0.000, 0.000, 0.000, 14:43:57.212
181, 388.96, 15.28, 3.28, 5.08, 0.000, 0.000, 0.000, 14:43:57.213
182, 50.12, 16.00, 7.90, 7.57, 0.000, 0.000, 0.000, 14:43:57.213
183, -358.44, 3.17, 21.96, 17.93, 0.000, 0.000, 0.000, 14:43:57.234
184, 270.45, 3.92, 8.98, 10.78, 0.000, 0.000, 0.000, 14:43:57.234
185, 283.62, 14.62, 4.89, 6.77, 0.000, 0.000, 0.000, 14:43:57.235
186, -392.53, 5.19, 16.87, 19.36, 0.000, 0.000, 0.000, 14:43:57.235
187, 27.16, 3.23, 17.07, 15.15, 0.000, 0.000, 0.000, 14:43:57.257
188, 404.76, 13.55, 2.57, 3.24, 0.000, 0.000, 0.000, 14:43:57.257
189, -210.92, 10.37, 11.81, 10.47, 0.000, 0.000, 0.000, 14:43:57.257
190, -206.79, -3.09, 18.85, 24.40, 0.000, 0.000, 0.000, 14:43:57.258
191, 402.99, 14.21, 3.69, 5.92, 0.000, 0.000, 0.000, 14:43:57.279
192, 56.60, 17.66, 4.60, 9.51, 0.000, 0.000, 0.000, 14:43:57.279
193, -376.51, -3.38, 22.37, 23.48, 0.000, 0.000, 0.000, 14:43:57.280
194, 266.50, 7.05, 9.47, 12.39, 0.000, 0.000, 0.000, 14:43:57.281
195, 287.87, 17.26, 3.81, 6.28, 0.000, 0.000, 0.000, 14:43:57.302
196, -402.59, 5.19, 15.01, 16.52, 0.000, 0.000, 0.000, 14:43:57.302
197, 43.41, 3.47, 15.75, 18.99, 0.000, 0.000, 0.000, 14:43:57.303
198, 411.58, 16.70, 4.23, 7.73, 0.000, 0.000, 0.000, 14:43:57.303
199, -205.56, 12.33, 7.76, 11.48, 0.000, 0.000, 0.000, 14:43:57.303
200, -205.18, -3.77, 19.50, 16.65, 0.000, 0.000, 0.000, 14:43:57.303
0, 390.56, 16.39, 4.06, 2.16, 0.000, 0.000, 0.000, 14:43:57.324
1, 53.31, 11.32, 1.93, 3.76, 0.000, 0.000, 0.000, 14:43:57.325
2, -372.93, -4.40, 23.30, 21.27, 0.000, 0.000, 0.000, 14:43:57.325
3, 254.82, 11.42, 5.40, 4.08, 0.000, 0.000, 0.000, 14:43:57.346
4, 296.56, 14.13, 1.90, 1.84, 0.000, 0.000, 0.000, 14:43:57.347
5, -386.75, 4.96, 16.18, 13.10, 0.000, 0.000, 0.000, 14:43:57.347
6, 33.07, 2.74, 14.16, 11.86, 0.000, 0.000, 0.000, 14:43:57.347
7, 404.86, 18.38, 1.94, 5.88, 0.000, 0.000, 0.000, 14:43:57.348
8, -211.35, 10.52, 14.36, 18.09, 0.000, 0.000, 0.000, 14:43:57.348
9, -193.68, 0.13, 22.15, 20.40, 0.000, 0.000, 0.000, 14:43:57.369
10, 394.80, 13.53, 8.12, 7.52, 0.000, 0.000, 0.000, 14:43:57.369
11, 54.71, 17.72, 8.28, 8.07, 0.000, 0.000, 0.000, 14:43:57.370
12, -361.39, -1.94, 23.58, 17.00, 0.000, 0.000, 0.000, 14:43:57.370
13, 264.31, 6.31, 11.12, 12.09, 0.000, 0.000, 0.000, 14:43:57.392
14, 293.50, 15.09, 2.38, 9.46, 0.000, 0.000, 0.000, 14:43:57.392
15, -371.27, 3.01, 12.22, 18.27, 0.000, 0.000, 0.000, 14:43:57.392
16, 29.16, 3.56, 15.23, 13.28, 0.000, 0.000, 0.000, 14:43:57.392
17, 414.72, 15.95, 3.02, 4.34, 0.000, 0.000, 0.000, 14:43:57.414
18, -182.63, 15.15, 7.96, 8.10, 0.000, 0.000, 0.000, 14:43:57.415
19, -214.70, -4.50, 21.52, 18.40, 0.000, 0.000, 0.000, 14:43:57.415
20, 384.14, 15.54, 5.04, 5.43, 0.000, 0.000, 0.000, 14:43:57.415
21, 65.93, 13.55, 6.75, 5.79, 0.000, 0.000, 0.000, 14:43:57.437
22, -375.62, -1.79, 21.54, 19.49, 0.000, 0.000, 0.000, 14:43:57.438
23, 255.76, 8.95, 5.93, 11.57, 0.000, 0.000, 0.000, 14:43:57.438
24, 298.23, 16.71, 6.13, 7.51, 0.000, 0.000, 0.000, 14:43:57.438
25, -400.98, 0.96, 19.04, 19.15, 0.000, 0.000, 0.000, 14:43:57.438
26, 35.14, 4.14, 11.46, 15.93, 0.000, 0.000, 0.000, 14:43:57.439
27, 414.19, 22.78, 6.99, 7.64, 0.000, 0.000, 0.000, 14:43:57.459
28, -203.96, 9.01, 12.01, 10.67, 0.000, 0.000, 0.000, 14:43:57.459
29, -201.95, -3.92, 21.49, 20.31, 0.000, 0.000, 0.000, 14:43:57.460
30, 383.36, 18.72, 4.91, 4.95, 0.000, 0.000, 0.000, 14:43:57.460
31, 59.94, 17.90, 4.38, 8.40, 0.000, 0.000, 0.000, 14:43:57.482
32, -372.15, -0.80, 25.01, 25.68, 0.000, 0.000, 0.000, 14:43:57.482
33, 242.45, 4.82, 8.01, 11.70, 0.000, 0.000, 0.000, 14:43:57.482
34, 317.98, 14.64, 4.87, 5.81, 0.000, 0.000, 0.000, 14:43:57.483
35, -378.29, 5.59, 16.24, 15.45, 0.000, 0.000, 0.000, 14:43:57.504
36, 35.51, 5.68, 16.55, 15.98, 0.000, 0.000, 0.000, 14:43:57.504
37, 415.16, 9.86, 5.22, 5.19, 0.000, 0.000, 0.000, 14:43:57.505
38, -202.67, 12.94, 10.50, 10.66, 0.000, 0.000, 0.000, 14:43:57.505
39, -216.49, -1.00, 18.17, 21.49, 0.000, 0.000, 0.000, 14:43:57.526
40, 397.07, 15.56, -0.52, 5.97, 0.000, 0.000, 0.000, 14:43:57.527
41, 66.32, 13.40, 6.72, 5.74, 0.000, 0.000, 0.000, 14:43:57.527
42, -384.22, -0.73, 17.67, 19.38, 0.000, 0.000, 0.000, 14:43:57.527
43, 265.66, 6.42, 11.64, 11.49, 0.000, 0.000, 0.000, 14:43:57.528
44, 308.40, 17.37, 4.00, 6.37, 0.000, 0.000, 0.000, 14:43:57.528
45, -360.49, 7.28, 13.94, 16.88, 0.000, 0.000, 0.000, 14:43:57.549
46, 42.47, -0.54, 20.04, 14.81, 0.000, 0.000, 0.000, 14:43:57.549
47, 431.13, 10.87, 4.59, 4.64, 0.000, 0.000, 0.000, 14:43:57.550
48, -187.37, 7.33, 11.12, 14.63, 0.000, 0.000, 0.000, 14:43:57.550
49, -231.39, -5.32, 21.79, 18.29, 0.000, 0.000, 0.000, 14:43:57.572
50, 371.11, 13.62, 6.31, 11.13, 0.000, 0.000, 0.000, 14:43:57.572
51, 81.84, 15.98, 5.95, 9.68, 0.000, 0.000, 0.000, 14:43:57.573
52, -405.44, -2.69, 20.97, 14.90, 0.000, 0.000, 0.000, 14:43:57.573
53, 236.83, 6.11, 10.03, 8.18, 0.000, 0.000, 0.000, 14:43:57.594
54, 305.28, 17.76, 5.23, 8.14, 0.000, 0.000, 0.000, 14:43:57.594
55, -399.90, -0.88, 14.35, 15.12, 0.000, 0.000, 0.000, 14:43:57.595
56, 4.89, 9.07, 12.85, 15.67, 0.000, 0.000, 0.000, 14:43:57.595
57, 405.76, 16.59, 1.05, 7.94, 0.000, 0.000, 0.000, 14:43:57.617
58, -166.86, 11.83, 9.33, 9.49, 0.000, 0.000, 0.000, 14:43:57.617
59, -227.87, -4.38, 24.12, 25.59, 0.000, 0.000, 0.000, 14:43:57.618
60, 384.04, 16.25, 5.07, 10.02, 0.000, 0.000, 0.000, 14:43:57.619
61, 75.38, 16.28, 3.03, 7.05, 0.000, 0.000, 0.000, 14:43:57.619
62, -373.76, -1.83, 19.34, 17.33, 0.000, 0.000, 0.000, 14:43:57.620
63, 246.82, 10.87, 8.53, 3.75, 0.000, 0.000, 0.000, 14:43:57.639
64, 323.92, 12.80, 3.65, 5.67, 0.000, 0.000, 0.000, 14:43:57.639
65, -373.80, 2.69, 18.38, 15.73, 0.000, 0.000, 0.000, 14:43:57.640
66, 14.78, 0.73, 13.84, 17.03, 0.000, 0.000, 0.000, 14:43:57.640
67, 409.62, 14.99, 2.43, 5.01, 0.000, 0.000, 0.000, 14:43:57.661
68, -179.90, 13.43, 13.36, 10.50, 0.000, 0.000, 0.000, 14:43:57.662
69, -244.75, -0.02, 20.13, 18.45, 0.000, 0.000, 0.000, 14:43:57.662
70, 374.87, 15.04, 2.05, 4.87, 0.000, 0.000, 0.000, 14:43:57.662
71, 109.70, 14.16, 7.60, 7.48, 0.000, 0.000, 0.000, 14:43:57.684
72, -387.10, 1.74, 22.32, 18.80, 0.000, 0.000, 0.000, 14:43:57.684
73, 250.44, 5.98, 9.17, 11.51, 0.000, 0.000, 0.000, 14:43:57.685
74, 323.44, 19.15, 4.29, 5.47, 0.000, 0.000, 0.000, 14:43:57.685
75, -374.38, 3.96, 18.03, 18.14, 0.000, 0.000, 0.000, 14:43:57.706
76, -7.24, 3.43, 14.45, 15.61, 0.000, 0.000, 0.000, 14:43:57.707
77, 420.97, 15.24, 2.65, 3.87, 0.000, 0.000, 0.000, 14:43:57.707
78, -169.47, 12.28, 9.90, 14.64, 0.000, 0.000, 0.000, 14:43:57.707
79, -223.19, 0.14, 20.69, 19.25, 0.000, 0.000, 0.000, 14:43:57.708
80, 377.17, 12.35, 2.14, 7.17, 0.000, 0.000, 0.000, 14:43:57.708
81, 96.41, 17.51, 2.57, 3.19, 0.000, 0.000, 0.000, 14:43:57.729
82, -395.60, -2.88, 22.14, 23.33, 0.000, 0.000, 0.000, 14:43:57.730
83, 242.52, 7.73, 9.53, 10.29, 0.000, 0.000, 0.000, 14:43:57.730
84, 324.90, 12.32, 5.65, 7.11, 0.000, 0.000, 0.000, 14:43:57.730
85, -358.92, 4.47, 16.13, 15.41, 0.000, 0.000, 0.000, 14:43:57.751
86, -1.22, 5.95, 13.88, 14.15, 0.000, 0.000, 0.000, 14:43:57.752
87, 426.37, 16.94, 2.78, 3.33, 0.000, 0.000, 0.000, 14:43:57.752
88, -174.46, 8.93, 9.73, 8.92, 0.000, 0.000, 0.000, 14:43:57.752
89, -239.33, -3.08, 24.63, 23.03, 0.000, 0.000, 0.000, 14:43:57.774
90, 377.37, 15.14, 3.06, 8.31, 0.000, 0.000, 0.000, 14:43:57.774
91, 110.12, 12.71, 8.03, 9.73, 0.000, 0.000, 0.000, 14:43:57.775
92, -403.05, -1.31, 21.99, 18.91, 0.000, 0.000, 0.000, 14:43:57.775
93, 243.62, 7.32, 9.84, 8.60, 0.000, 0.000, 0.000, 14:43:57.797
94, 330.08, 18.46, 3.67, 6.79, 0.000, 0.000, 0.000, 14:43:57.797
95, -354.63, 4.87, 19.27, 20.57, 0.000, 0.000, 0.000, 14:43:57.798
96, 6.53, 2.31, 15.39, 17.01, 0.000, 0.000, 0.000, 14:43:57.798
97, 421.06, 15.25, -0.98, 2.02, 0.000, 0.000, 0.000, 14:43:57.799
98, -178.56, 9.58, 12.03, 5.93, 0.000, 0.000, 0.000, 14:43:57.799
99, -224.47, 1.34, 24.13, 21.19, 0.000, 0.000, 0.000, 14:43:57.819
100, 372.45, 5.89, 4.24, 5.51, 0.000, 0.000, 0.000, 14:43:57.819
101, 101.65, 16.71, 4.27, 12.33, 0.000, 0.000, 0.000, 14:43:57.820
102, -401.83, -0.44, 19.90, 24.46, 0.000, 0.000, 0.000, 14:43:57.820
103, 233.93, 8.69, 7.73, 8.80, 0.000, 0.000, 0.000, 14:43:57.841
104, 315.85, 10.96, 2.23, 3.68, 0.000, 0.000, 0.000, 14:43:57.842
105, -359.02, 2.27, 15.10, 17.84, 0.000, 0.000, 0.000, 14:43:57.842
106, -7.86, 1.64, 18.59, 15.30, 0.000, 0.000, 0.000, 14:43:57.842
107, 410.29, 13.21, 5.71, 5.60, 0.000, 0.000, 0.000, 14:43:57.864
108, -184.50, 16.66, 7.56, 11.46, 0.000, 0.000, 0.000, 14:43:57.864
109, -238.28, -5.68, 19.68, 18.09, 0.000, 0.000, 0.000, 14:43:57.865
110, 368.89, 16.78, 7.66, 6.88, 0.000, 0.000, 0.000, 14:43:57.865
111, 98.94, 15.41, 2.85, 9.62, 0.000, 0.000, 0.000, 14:43:57.886
112, -378.47, 1.21, 17.37, 19.54, 0.000, 0.000, 0.000, 14:43:57.887
113, 221.11, 8.92, 6.44, 10.09, 0.000, 0.000, 0.000, 14:43:57.887
114, 319.38, 21.00, 6.59, 4.40, 0.000, 0.000, 0.000, 14:43:57.887
115, -355.14, 4.14, 17.74, 16.48, 0.000, 0.000, 0.000, 14:43:57.888
116, -16.61, -1.04, 16.30, 17.70, 0.000, 0.000, 0.000, 14:43:57.888
117, 417.36, 14.74, 3.07, 6.45, 0.000, 0.000, 0.000, 14:43:57.909
118, -163.50, 7.55, 10.52, 11.43, 0.000, 0.000, 0.000, 14:43:57.909
119, -255.83, -4.61, 23.99, 18.96, 0.000, 0.000, 0.000, 14:43:57.910
120, 366.81, 10.60, -0.33, 5.43, 0.000, 0.000, 0.000, 14:43:57.910
121, 121.51, 16.68, 6.96, 9.56, 0.000, 0.000, 0.000, 14:43:57.932
122, -411.24, -4.13, 20.49, 21.86, 0.000, 0.000, 0.000, 14:43:57.934
123, 225.81, 10.18, 10.75, 8.53, 0.000, 0.000, 0.000, 14:43:57.935
124, 335.23, 15.60, 3.66, 5.67, 0.000, 0.000, 0.000, 14:43:57.935
125, -354.36, 5.42, 18.93, 14.53, 0.000, 0.000, 0.000, 14:43:57.954
126, -8.29, 3.86, 17.57, 15.98, 0.000, 0.000, 0.000, 14:43:57.954
127, 421.98, 10.46, 3.10, 8.88, 0.000, 0.000, 0.000, 14:43:57.955
128, -167.43, 14.35, 10.39, 12.07, 0.000, 0.000, 0.000, 14:43:57.955
129, -255.19, -3.37, 25.10, 22.19, 0.000, 0.000, 0.000, 14:43:57.977
130, 366.89, 13.13, 3.98, 6.92, 0.000, 0.000, 0.000, 14:43:57.977
131, 127.79, 17.04, 3.13, 6.39, 0.000, 0.000, 0.000, 14:43:57.979
132, -401.74, 1.92, 23.54, 15.44, 0.000, 0.000, 0.000, 14:43:57.979
133, 226.56, 9.03, 8.31, 9.96, 0.000, 0.000, 0.000, 14:43:57.979
134, 342.06, 14.56, 2.59, 6.95, 0.000, 0.000, 0.000, 14:43:57.980
135, -361.88, 9.19, 15.78, 16.72, 0.000, 0.000, 0.000, 14:43:57.999
136, -22.96, 0.34, 15.14, 14.86, 0.000, 0.000, 0.000, 14:43:57.999
137, 416.96, 17.36, -3.58, 4.61, 0.000, 0.000, 0.000, 14:43:58.000
138, -165.65, 13.35, 8.56, 9.27, 0.000, 0.000, 0.000, 14:43:58.000
139, -262.18, -2.73, 20.56, 21.36, 0.000, 0.000, 0.000, 14:43:58.022
140, 368.01, 10.43, 2.11, 6.97, 0.000, 0.000, 0.000, 14:43:58.022
141, 118.89, 14.49, 7.11, 4.82, 0.000, 0.000, 0.000, 14:43:58.022
142, -388.18, -4.38, 23.20, 21.19, 0.000, 0.000, 0.000, 14:43:58.022
143, 222.53, 8.04, 6.81, 8.26, 0.000, 0.000, 0.000, 14:43:58.044
144, 333.58, 25.51, 2.61, 4.16, 0.000, 0.000, 0.000, 14:43:58.044
145, -351.91, 1.72, 15.77, 19.93, 0.000, 0.000, 0.000, 14:43:58.045
146, -34.75, 1.74, 14.12, 16.53, 0.000, 0.000, 0.000, 14:43:58.045
147, 413.59, 12.58, 5.90, 6.66, 0.000, 0.000, 0.000, 14:43:58.066
148, -145.95, 12.57, 9.33, 7.37, 0.000, 0.000, 0.000, 14:43:58.067
149, -262.21, -0.10, 25.46, 21.05, 0.000, 0.000, 0.000, 14:43:58.067
150, 374.74, 13.53, 4.18, 7.12, 0.000, 0.000, 0.000, 14:43:58.067
151, 134.97, 12.66, 4.81, 10.63, 0.000, 0.000, 0.000, 14:43:58.068
152, -401.44, -3.34, 19.52, 21.13, 0.000, 0.000, 0.000, 14:43:58.068
153, 205.90, 12.21, 10.45, 10.93, 0.000, 0.000, 0.000, 14:43:58.090
154, 334.30, 11.77, 4.16, 4.67, 0.000, 0.000, 0.000, 14:43:58.090
155, -342.23, 8.84, 13.73, 12.98, 0.000, 0.000, 0.000, 14:43:58.090
156, -41.83, 1.54, 16.76, 19.04, 0.000, 0.000, 0.000, 14:43:58.091
157, 421.87, 14.90, 2.04, 4.12, 0.000, 0.000, 0.000, 14:43:58.112
158, -149.79, 9.46, 7.50, 7.50, 0.000, 0.000, 0.000, 14:43:58.112
159, -248.81, -3.81, 22.65, 24.34, 0.000, 0.000, 0.000, 14:43:58.112
160, 365.74, 14.92, 5.78, 9.33, 0.000, 0.000, 0.000, 14:43:58.113
161, 136.63, 12.30, 6.72, 8.16, 0.000, 0.000, 0.000, 14:43:58.134
162, -404.73, 2.69, 20.80, 22.07, 0.000, 0.000, 0.000, 14:43:58.134
163, 221.79, 3.75, 12.34, 9.59, 0.000, 0.000, 0.000, 14:43:58.135
164, 347.50, 15.11, 2.86, 9.64, 0.000, 0.000, 0.000, 14:43:58.135
165, -358.28, 5.09, 15.15, 14.23, 0.000, 0.000, 0.000, 14:43:58.156
166, -38.42, 1.15, 17.43, 13.45, 0.000, 0.000, 0.000, 14:43:58.157
167, 414.56, 17.10, 3.80, 3.50, 0.000, 0.000, 0.000, 14:43:58.157
168, -127.31, 11.30, 7.55, 8.18, 0.000, 0.000, 0.000, 14:43:58.157
169, -269.95, -1.64, 20.60, 19.71, 0.000, 0.000, 0.000, 14:43:58.158
170, 364.81, 14.10, 0.07, 6.31, 0.000, 0.000, 0.000, 14:43:58.158
171, 136.22, 18.41, 4.04, 6.73, 0.000, 0.000, 0.000, 14:43:58.179
172, -410.90, -0.19, 22.76, 17.54, 0.000, 0.000, 0.000, 14:43:58.179
173, 208.25, 5.25, 9.99, 10.97, 0.000, 0.000, 0.000, 14:43:58.180
174, 349.73, 17.67, 3.60, 6.77, 0.000, 0.000, 0.000, 14:43:58.180
175, -344.44, 5.07, 17.54, 18.08, 0.000, 0.000, 0.000, 14:43:58.201
176, -40.26, -1.46, 18.71, 17.73, 0.000, 0.000, 0.000, 14:43:58.202
177, 423.07, 13.60, 5.49, 7.15, 0.000, 0.000, 0.000, 14:43:58.202
178, -142.09, 14.56, 8.73, 5.83, 0.000, 0.000, 0.000, 14:43:58.203
179, -279.13, -3.10, 20.64, 20.39, 0.000, 0.000, 0.000, 14:43:58.224
180, 363.81, 16.86, 3.39, 5.67, 0.000, 0.000, 0.000, 14:43:58.225
181, 149.16, 11.38, 6.37, 6.59, 0.000, 0.000, 0.000, 14:43:58.225
182, -412.32, -0.77, 19.96, 20.03, 0.000, 0.000, 0.000, 14:43:58.225
183, 209.83, 9.47, 13.30, 15.22, 0.000, 0.000, 0.000, 14:43:58.247
184, 353.11, 16.99, -0.36, 5.68, 0.000, 0.000, 0.000, 14:43:58.247
185, -339.61, 4.26, 15.62, 18.26, 0.000, 0.000, 0.000, 14:43:58.247
186, -48.10, 3.43, 19.43, 15.84, 0.000, 0.000, 0.000, 14:43:58.248
187, 416.68, 13.37, 5.74, 7.92, 0.000, 0.000, 0.000, 14:43:58.249
188, -131.72, 5.87, 8.68, 11.46, 0.000, 0.000, 0.000, 14:43:58.249
189, -274.80, -1.41, 17.80, 20.90, 0.000, 0.000, 0.000, 14:43:58.269
190, 357.60, 8.91, 3.30, 5.63, 0.000, 0.000, 0.000, 14:43:58.269
191, 140.12, 14.15, 4.94, 7.79, 0.000, 0.000, 0.000, 14:43:58.270
192, -392.90, 2.36, 20.26, 17.73, 0.000, 0.000, 0.000, 14:43:58.270
193, 206.61, 5.50, 7.69, 9.10, 0.000, 0.000, 0.000, 14:43:58.291
194, 358.10, 13.13, 2.86, 3.86, 0.000, 0.000, 0.000, 14:43:58.292
195, -347.67, 6.56, 16.22, 17.61, 0.000, 0.000, 0.000, 14:43:58.292
196, -62.18, 0.75, 17.32, 12.59, 0.000, 0.000, 0.000, 14:43:58.292
197, 432.92, 19.05, 4.52, 3.08, 0.000, 0.000, 0.000, 14:43:58.315
198, -129.18, 18.34, 12.06, 11.54, 0.000, 0.000, 0.000, 14:43:58.315
199, -272.65, -9.02, 24.29, 22.29, 0.000, 0.000, 0.000, 14:43:58.316
200, 350.39, 11.93, 3.21, 11.19, 0.000, 0.000, 0.000, 14:43:58.316
0, 145.64, 13.99, 6.98, 6.76, 0.000, 0.000, 0.000, 14:43:58.316
1, -391.65, 3.46, 18.92, 16.27, 0.000, 0.000, 0.000, 14:43:58.337
2, 199.65, 7.90, 10.19, 10.70, 0.000, 0.000, 0.000, 14:43:58.337
3, 342.18, 17.74, 3.43, 6.02, 0.000, 0.000, 0.000, 14:43:58.337
4, -339.64, 10.58, 16.83, 12.76, 0.000, 0.000, 0.000, 14:43:58.338
5, -36.39, 4.54, 21.06, 16.67, 0.000, 0.000, 0.000, 14:43:58.359
6, 426.95, 21.17, 6.99, 4.56, 0.000, 0.000, 0.000, 14:43:58.359
7, -116.42, 8.23, 10.53, 10.65, 0.000, 0.000, 0.000, 14:43:58.360
8, -284.85, -1.39, 19.53, 20.51, 0.000, 0.000, 0.000, 14:43:58.360
9, 356.02, 10.52, 3.49, 7.91, 0.000, 0.000, 0.000, 14:43:58.382
10, 159.79, 17.29, 3.04, 7.87, 0.000, 0.000, 0.000, 14:43:58.382
11, -404.63, -5.92, 20.65, 20.93, 0.000, 0.000, 0.000, 14:43:58.383
12, 171.39, 4.53, 8.59, 9.16, 0.000, 0.000, 0.000, 14:43:58.383
13, 352.28, 18.42, 4.70, 5.99, 0.000, 0.000, 0.000, 14:43:58.383
14, -322.39, 7.38, 15.88, 13.49, 0.000, 0.000, 0.000, 14:43:58.383
15, -63.34, 6.05, 16.24, 19.40, 0.000, 0.000, 0.000, 14:43:58.404
16, 418.35, 12.10, 3.08, 7.85, 0.000, 0.000, 0.000, 14:43:58.405
17, -115.63, 13.51, 9.09, 7.04, 0.000, 0.000, 0.000, 14:43:58.405
18, -296.65, 1.43, 20.07, 17.97, 0.000, 0.000, 0.000, 14:43:58.405
19, 347.27, 11.52, 4.16, 6.99, 0.000, 0.000, 0.000, 14:43:58.427
20, 174.36, 10.22, 4.37, 4.42, 0.000, 0.000, 0.000, 14:43:58.427
21, -403.90, 4.50, 19.56, 21.69, 0.000, 0.000, 0.000, 14:43:58.427
22, 190.75, 6.33, 12.27, 12.58, 0.000, 0.000, 0.000, 14:43:58.428
23, 344.89, 14.70, 3.31, 7.25, 0.000, 0.000, 0.000, 14:43:58.449
24, -334.15, 7.51, 11.60, 16.58, 0.000, 0.000, 0.000, 14:43:58.449
25, -64.54, -5.07, 18.07, 21.48, 0.000, 0.000, 0.000, 14:43:58.450
26, 432.69, 17.61, 3.29, 8.45, 0.000, 0.000, 0.000, 14:43:58.450
27, -114.94, 16.02, 12.60, 15.02, 0.000, 0.000, 0.000, 14:43:58.471
28, -286.62, -0.97, 19.96, 19.72, 0.000, 0.000, 0.000, 14:43:58.472
29, 348.48, 13.04, 4.70, 6.85, 0.000, 0.000, 0.000, 14:43:58.472
30, 171.15, 20.39, 5.59, 6.43, 0.000, 0.000, 0.000, 14:43:58.472
31, -404.03, 2.53, 16.21, 18.36, 0.000, 0.000, 0.000, 14:43:58.494
32, 187.12, 7.73, 10.83, 11.92, 0.000, 0.000, 0.000, 14:43:58.494
33, 347.92, 22.88, 4.16, 6.56, 0.000, 0.000, 0.000, 14:43:58.494
34, -327.08, 3.23, 15.73, 16.13, 0.000, 0.000, 0.000, 14:43:58.495
35, -67.32, -3.79, 19.52, 19.56, 0.000, 0.000, 0.000, 14:43:58.496
36, 441.53, 10.06, 2.54, 7.92, 0.000, 0.000, 0.000, 14:43:58.496
37, -99.05, 12.16, 9.33, 8.66, 0.000, 0.000, 0.000, 14:43:58.516
38, -263.21, -2.28, 25.31, 19.49, 0.000, 0.000, 0.000, 14:43:58.517
39, 349.59, 14.16, 5.22, 6.00, 0.000, 0.000, 0.000, 14:43:58.517
40, 163.45, 15.93, 2.31, 6.17, 0.000, 0.000, 0.000, 14:43:58.517
41, -396.10, -1.08, 20.59, 21.04, 0.000, 0.000, 0.000, 14:43:58.539
42, 182.59, 9.04, 8.35, 11.47, 0.000, 0.000, 0.000, 14:43:58.539
43, 346.90, 7.52, 1.07, 8.59, 0.000, 0.000, 0.000, 14:43:58.539
44, -334.42, 8.30, 11.26, 14.20, 0.000, 0.000, 0.000, 14:43:58.540
45, -85.58, 6.16, 20.64, 16.94, 0.000, 0.000, 0.000, 14:43:58.562
46, 401.51, 14.70, 4.87, 4.01, 0.000, 0.000, 0.000, 14:43:58.562
47, -116.35, 11.10, 9.60, 9.79, 0.000, 0.000, 0.000, 14:43:58.562
48, -298.02, -4.91, 19.93, 20.33, 0.000, 0.000, 0.000, 14:43:58.562
49, 333.45, 8.66, 8.15, 7.18, 0.000, 0.000, 0.000, 14:43:58.563
50, 185.94, 15.33, 3.81, 6.03, 0.000, 0.000, 0.000, 14:43:58.563
51, -411.09, 1.94, 17.15, 14.87, 0.000, 0.000, 0.000, 14:43:58.584
52, 187.93, 7.03, 10.67, 7.13, 0.000, 0.000, 0.000, 14:43:58.584
53, 371.12, 19.44, 3.67, 5.66, 0.000, 0.000, 0.000, 14:43:58.584
54, -329.74, 7.99, 15.51, 17.39, 0.000, 0.000, 0.000, 14:43:58.585
55, -75.65, 2.77, 19.15, 18.14, 0.000, 0.000, 0.000, 14:43:58.606
56, 437.24, 12.10, 6.23, 3.52, 0.000, 0.000, 0.000, 14:43:58.607
57, -96.01, 7.98, 12.27, 3.60, 0.000, 0.000, 0.000, 14:43:58.607
58, -300.12, -2.57, 20.95, 18.33, 0.000, 0.000, 0.000, 14:43:58.607
59, 344.31, 11.96, 7.92, 10.11, 0.000, 0.000, 0.000, 14:43:58.629
60, 176.20, 17.73, 5.36, 7.16, 0.000, 0.000, 0.000, 14:43:58.629
61, -402.72, -5.37, 19.84, 20.93, 0.000, 0.000, 0.000, 14:43:58.630
62, 190.29, 6.92, 10.36, 14.99, 0.000, 0.000, 0.000, 14:43:58.630
63, 372.90, 20.37, 5.79, 9.45, 0.000, 0.000, 0.000, 14:43:58.651
64, -324.36, 5.71, 12.82, 13.49, 0.000, 0.000, 0.000, 14:43:58.652
65, -80.95, 1.92, 18.85, 16.52, 0.000, 0.000, 0.000, 14:43:58.674
66, 443.25, 18.79, 4.65, 9.53, 0.000, 0.000, 0.000, 14:43:58.674
67, -99.95, 14.08, 7.64, 9.45, 0.000, 0.000, 0.000, 14:43:58.674
68, -297.61, -0.35, 22.72, 22.21, 0.000, 0.000, 0.000, 14:43:58.674
69, 351.06, 8.51, 2.89, 9.82, 0.000, 0.000, 0.000, 14:43:58.675
70, 176.87, 21.16, 6.89, 4.64, 0.000, 0.000, 0.000, 14:43:58.675
71, -402.41, 0.74, 19.13, 18.05, 0.000, 0.000, 0.000, 14:43:58.697
72, 174.51, 2.90, 8.93, 7.82, 0.000, 0.000, 0.000, 14:43:58.697
73, 349.93, 16.43, 1.92, 5.14, 0.000, 0.000, 0.000, 14:43:58.697
74, -315.73, 7.36, 13.44, 15.16, 0.000, 0.000, 0.000, 14:43:58.697
75, -63.72, 0.60, 19.73, 15.58, 0.000, 0.000, 0.000, 14:43:58.698
76, 414.32, 13.90, 3.94, 4.53, 0.000, 0.000, 0.000, 14:43:58.698
77, -86.21, 13.14, 9.49, 5.91, 0.000, 0.000, 0.000, 14:43:58.719
78, -293.59, 2.06, 21.75, 24.11, 0.000, 0.000, 0.000, 14:43:58.720
79, 325.00, 8.82, 4.85, 6.51, 0.000, 0.000, 0.000, 14:43:58.720
80, 205.00, 15.40, 1.26, 4.56, 0.000, 0.000, 0.000, 14:43:58.720
81, -400.24, 0.74, 19.72, 22.43, 0.000, 0.000, 0.000, 14:43:58.742
82, 168.61, 5.35, 8.88, 11.01, 0.000, 0.000, 0.000, 14:43:58.742
83, 373.55, 15.44, 1.84, 6.27, 0.000, 0.000, 0.000, 14:43:58.742
84, -310.42, 4.13, 8.87, 14.75, 0.000, 0.000, 0.000, 14:43:58.742
85, -91.31, 1.77, 22.05, 17.52, 0.000, 0.000, 0.000, 14:43:58.743
86, 429.90, 16.19, 2.14, 4.27, 0.000, 0.000, 0.000, 14:43:58.743
87, -82.48, 11.36, 9.34, 7.15, 0.000, 0.000, 0.000, 14:43:58.764
88, -300.21, -6.22, 23.42, 21.76, 0.000, 0.000, 0.000, 14:43:58.764
89, 341.16, 10.37, 6.80, 9.55, 0.000, 0.000, 0.000, 14:43:58.765
90, 198.36, 19.19, 3.68, 3.73, 0.000, 0.000, 0.000, 14:43:58.765
91, -415.57, 3.55, 18.42, 20.93, 0.000, 0.000, 0.000, 14:43:58.786
92, 159.76, 2.17, 12.68, 16.09, 0.000, 0.000, 0.000, 14:43:58.787
93, 381.13, 16.58, 6.09, 6.17, 0.000, 0.000, 0.000, 14:43:58.787
94, -319.92, 6.00, 12.64, 12.28, 0.000, 0.000, 0.000, 14:43:58.787
95, -95.86, -4.06, 18.71, 16.04, 0.000, 0.000, 0.000, 14:43:58.809
96, 430.69, 21.00, 0.53, 6.57, 0.000, 0.000, 0.000, 14:43:58.809
97, -83.91, 6.04, 6.92, 9.94, 0.000, 0.000, 0.000, 14:43:58.810
98, -311.62, 2.76, 21.58, 23.19, 0.000, 0.000, 0.000, 14:43:58.810
99, 331.97, 8.75, 9.46, 12.49, 0.000, 0.000, 0.000, 14:43:58.831
100, 184.11, 17.33, 2.57, 7.24, 0.000, 0.000, 0.000, 14:43:58.832
101, -422.31, 2.60, 17.69, 20.56, 0.000, 0.000, 0.000, 14:43:58.832
102, 160.00, 6.38, 15.47, 10.94, 0.000, 0.000, 0.000, 14:43:58.832
103, 383.08, 14.08, 3.24, 6.82, 0.000, 0.000, 0.000, 14:43:58.833
104, -317.84, 4.37, 15.91, 14.07, 0.000, 0.000, 0.000, 14:43:58.833
105, -106.47, 7.20, 20.68, 20.29, 0.000, 0.000, 0.000, 14:43:58.855
106, 420.89, 11.29, 2.01, 5.21, 0.000, 0.000, 0.000, 14:43:58.855
107, -94.05, 10.05, 7.92, 7.40, 0.000, 0.000, 0.000, 14:43:58.855
108, -315.43, -0.96, 18.62, 22.48, 0.000, 0.000, 0.000, 14:43:58.855
109, 342.71, 12.55, 5.26, 2.96, 0.000, 0.000, 0.000, 14:43:58.876
110, 195.76, 15.26, 5.45, 6.31, 0.000, 0.000, 0.000, 14:43:58.877
111, -407.87, 1.72, 16.85, 16.70, 0.000, 0.000, 0.000, 14:43:58.877
112, 147.26, 5.50, 11.58, 14.51, 0.000, 0.000, 0.000, 14:43:58.878
113, 359.99, 16.40, 3.31, 9.12, 0.000, 0.000, 0.000, 14:43:58.899
114, -297.34, 10.01, 15.87, 11.64, 0.000, 0.000, 0.000, 14:43:58.899
115, -101.79, -5.26, 20.28, 20.04, 0.000, 0.000, 0.000, 14:43:58.900
116, 417.54, 14.33, 3.09, 4.42, 0.000, 0.000, 0.000, 14:43:58.900
117, -83.57, 14.61, 5.67, 8.97, 0.000, 0.000, 0.000, 14:43:58.921
118, -335.80, 1.46, 24.38, 18.08, 0.000, 0.000, 0.000, 14:43:58.922
119, 344.88, 11.76, 5.63, 9.63, 0.000, 0.000, 0.000, 14:43:58.922
120, 210.24, 15.17, 3.23, 7.18, 0.000, 0.000, 0.000, 14:43:58.922
121, -412.97, 3.44, 20.13, 20.88, 0.000, 0.000, 0.000, 14:43:58.923
122, 150.49, 3.28, 10.42, 12.19, 0.000, 0.000, 0.000, 14:43:58.923
123, 378.23, 16.95, 3.95, 5.07, 0.000, 0.000, 0.000, 14:43:58.944
124, -298.41, 4.33, 14.33, 16.80, 0.000, 0.000, 0.000, 14:43:58.944
125, -105.04, 1.18, 22.30, 15.01, 0.000, 0.000, 0.000, 14:43:58.945
126, 413.74, 12.11, 5.09, 9.77, 0.000, 0.000, 0.000, 14:43:58.945
127, -70.92, 11.25, 7.66, 10.44, 0.000, 0.000, 0.000, 14:43:58.966
128, -325.55, -2.76, 26.61, 19.98, 0.000, 0.000, 0.000, 14:43:58.967
129, 335.96, 7.41, 7.19, 10.73, 0.000, 0.000, 0.000, 14:43:58.967
130, 220.56, 17.84, 0.77, 5.30, 0.000, 0.000, 0.000, 14:43:58.967
131, -407.44, 5.08, 18.80, 14.43, 0.000, 0.000, 0.000, 14:43:58.989
132, 139.24, 10.23, 10.55, 14.62, 0.000, 0.000, 0.000, 14:43:58.989
133, 383.93, 12.14, 3.32, 6.04, 0.000, 0.000, 0.000, 14:43:58.989
134, -292.89, 5.98, 17.01, 13.59, 0.000, 0.000, 0.000, 14:43:58.990
135, -112.32, 0.51, 16.54, 20.02, 0.000, 0.000, 0.000, 14:43:59.011
136, 410.03, 15.29, 3.39, 6.49, 0.000, 0.000, 0.000, 14:43:59.012
137, -55.77, 11.30, 4.33, 9.38, 0.000, 0.000, 0.000, 14:43:59.012
138, -317.58, -0.87, 18.89, 20.98, 0.000, 0.000, 0.000, 14:43:59.012
139, 329.61, 11.37, 7.03, 8.11, 0.000, 0.000, 0.000, 14:43:59.013
140, 211.62, 16.55, 4.13, 2.20, 0.000, 0.000, 0.000, 14:43:59.013
141, -409.45, 5.05, 21.20, 17.73, 0.000, 0.000, 0.000, 14:43:59.034
142, 127.25, 4.84, 10.80, 13.75, 0.000, 0.000, 0.000, 14:43:59.034
143, 393.82, 15.53, 3.64, 5.47, 0.000, 0.000, 0.000, 14:43:59.034
144, -295.75, 10.68, 13.39, 11.49, 0.000, 0.000, 0.000, 14:43:59.035
145, -115.74, -1.32, 17.64, 14.90, 0.000, 0.000, 0.000, 14:43:59.057
146, 418.74, 11.92, 0.82, 0.95, 0.000, 0.000, 0.000, 14:43:59.057
147, -71.55, 14.25, 7.57, 11.08, 0.000, 0.000, 0.000, 14:43:59.057
148, -316.11, -5.00, 21.73, 21.26, 0.000, 0.000, 0.000, 14:43:59.057
149, 327.24, 11.46, 3.93, 10.34, 0.000, 0.000, 0.000, 14:43:59.079
150, 221.85, 17.11, 6.86, 7.28, 0.000, 0.000, 0.000, 14:43:59.080
151, -414.26, -3.25, 18.78, 18.86, 0.000, 0.000, 0.000, 14:43:59.080
152, 126.24, 1.62, 9.98, 12.49, 0.000, 0.000, 0.000, 14:43:59.080
153, 404.70, 16.92, 4.44, 7.09, 0.000, 0.000, 0.000, 14:43:59.102
154, -294.12, 6.92, 14.27, 13.17, 0.000, 0.000, 0.000, 14:43:59.102
155, -119.79, 0.53, 15.83, 17.80, 0.000, 0.000, 0.000, 14:43:59.103
156, 418.49, 15.86, 0.45, 4.75, 0.000, 0.000, 0.000, 14:43:59.103
157, -63.06, 18.75, 8.18, 8.22, 0.000, 0.000, 0.000, 14:43:59.103
158, -324.78, -2.03, 23.87, 23.92, 0.000, 0.000, 0.000, 14:43:59.103
159, 319.72, 14.50, 6.66, 6.52, 0.000, 0.000, 0.000, 14:43:59.124
160, 209.04, 11.87, 2.24, 6.80, 0.000, 0.000, 0.000, 14:43:59.124
161, -406.84, 0.24, 19.29, 20.57, 0.000, 0.000, 0.000, 14:43:59.125
162, 140.92, 7.82, 11.20, 12.99, 0.000, 0.000, 0.000, 14:43:59.125
163, 389.05, 19.27, 3.55, 3.84, 0.000, 0.000, 0.000, 14:43:59.146
164, -293.02, 8.53, 12.39, 9.62, 0.000, 0.000, 0.000, 14:43:59.147
165, -119.58, 1.14, 20.66, 19.31, 0.000, 0.000, 0.000, 14:43:59.147
166, 413.60, 16.09, 4.04, 7.25, 0.000, 0.000, 0.000, 14:43:59.147
167, -60.79, 14.25, 4.96, 3.95, 0.000, 0.000, 0.000, 14:43:59.170
168, -336.60, 3.29, 20.71, 19.72, 0.000, 0.000, 0.000, 14:43:59.171
169, 313.69, 5.75, 7.69, 7.00, 0.000, 0.000, 0.000, 14:43:59.171
170, 238.74, 18.21, 4.67, 7.60, 0.000, 0.000, 0.000, 14:43:59.171
171, -412.06, -0.85, 19.88, 22.61, 0.000, 0.000, 0.000, 14:43:59.193
172, 144.24, 9.84, 17.28, 9.95, 0.000, 0.000, 0.000, 14:43:59.193
173, 385.62, 14.80, 7.75, 7.55, 0.000, 0.000, 0.000, 14:43:59.193
174, -300.59, 5.52, 11.61, 14.67, 0.000, 0.000, 0.000, 14:43:59.193
175, -125.91, -2.73, 20.50, 15.67, 0.000, 0.000, 0.000, 14:43:59.194
176, 423.12, 13.62, 2.10, 3.59, 0.000, 0.000, 0.000, 14:43:59.194
177, -44.95, 16.56, 7.85, 7.69, 0.000, 0.000, 0.000, 14:43:59.214
178, -335.44, -3.80, 25.45, 17.98, 0.000, 0.000, 0.000, 14:43:59.214
179, 320.05, 9.62, 3.17, 7.58, 0.000, 0.000, 0.000, 14:43:59.215
180, 230.19, 11.20, 4.59, 8.15, 0.000, 0.000, 0.000, 14:43:59.215
181, -406.03, 1.78, 19.04, 23.15, 0.000, 0.000, 0.000, 14:43:59.237
182, 135.31, 2.23, 9.41, 11.59, 0.000, 0.000, 0.000, 14:43:59.237
183, 384.48, 16.24, 1.82, 7.16, 0.000, 0.000, 0.000, 14:43:59.237
184, -290.60, 14.33, 16.88, 14.48, 0.000, 0.000, 0.000, 14:43:59.237
185, -130.84, -0.41, 15.40, 19.09, 0.000, 0.000, 0.000, 14:43:59.259
186, 406.16, 15.52, 6.36, 8.96, 0.000, 0.000, 0.000, 14:43:59.260
187, -38.64, 8.42, 7.49, 12.64, 0.000, 0.000, 0.000, 14:43:59.260
188, -326.53, -2.86, 22.22, 20.14, 0.000, 0.000, 0.000, 14:43:59.260
189, 309.02, 10.78, 6.32, 11.63, 0.000, 0.000, 0.000, 14:43:59.282
190, 234.97, 23.06, 6.52, 8.33, 0.000, 0.000, 0.000, 14:43:59.282
191, -407.43, 2.21, 18.29, 18.72, 0.000, 0.000, 0.000, 14:43:59.283
192, 128.21, 7.08, 11.44, 7.74, 0.000, 0.000, 0.000, 14:43:59.283
193, 382.15, 15.17, 2.62, 4.61, 0.000, 0.000, 0.000, 14:43:59.283
194, -270.23, 5.04, 15.05, 14.00, 0.000, 0.000, 0.000, 14:43:59.284
195, -121.34, 4.87, 20.48, 18.71, 0.000, 0.000, 0.000, 14:43:59.304
196, 419.67, 13.07, 6.55, 6.96, 0.000, 0.000, 0.000, 14:43:59.304
197, -37.74, 16.81, 7.35, 5.64, 0.000, 0.000, 0.000, 14:43:59.305
198, -341.70, -4.05, 27.14, 23.97, 0.000, 0.000, 0.000, 14:43:59.305
199, 309.20, 12.27, 2.33, 10.30, 0.000, 0.000, 0.000, 14:43:59.327
200, 228.39, 11.44, 0.55, 1.42, 0.000, 0.000, 0.000, 14:43:59.327
0, -406.24, 2.62, 17.16, 17.28, 0.000, 0.000, 0.000, 14:43:59.327
1, 112.49, 2.42, 14.15, 10.89, 0.000, 0.000, 0.000, 14:43:59.328
2, 385.32, 13.84, 2.83, 6.11, 0.000, 0.000, 0.000, 14:43:59.328
3, -283.67, 8.30, 10.31, 13.51, 0.000, 0.000, 0.000, 14:43:59.349
4, -130.26, -1.66, 22.53, 21.92, 0.000, 0.000, 0.000, 14:43:59.349
5, 400.38, 13.73, -0.03, 6.14, 0.000, 0.000, 0.000, 14:43:59.350
6, -32.43, 10.42, 7.53, 7.41, 0.000, 0.000, 0.000, 14:43:59.350
7, -338.41, -4.54, 24.81, 21.84, 0.000, 0.000, 0.000, 14:43:59.372
8, 315.76, 10.89, 6.27, 10.25, 0.000, 0.000, 0.000, 14:43:59.372
9, 242.32, 19.85, 5.15, 3.08, 0.000, 0.000, 0.000, 14:43:59.373
10, -385.16, 2.92, 21.25, 16.37, 0.000, 0.000, 0.000, 14:43:59.373
11, 107.92, 4.16, 14.66, 14.52, 0.000, 0.000, 0.000, 14:43:59.395
12, 405.56, 20.89, 3.41, 6.11, 0.000, 0.000, 0.000, 14:43:59.395
13, -270.37, 5.83, 11.14, 12.19, 0.000, 0.000, 0.000, 14:43:59.395
14, -143.55, -0.12, 20.78, 18.86, 0.000, 0.000, 0.000, 14:43:59.395
15, 403.12, 14.92, 3.70, 6.26, 0.000, 0.000, 0.000, 14:43:59.417
16, -26.82, 11.76, 10.72, 9.74, 0.000, 0.000, 0.000, 14:43:59.417
17, -330.74, -3.58, 21.94, 19.04, 0.000, 0.000, 0.000, 14:43:59.417
18, 303.39, 10.33, 7.34, 10.56, 0.000, 0.000, 0.000, 14:43:59.418
19, 239.58, 14.55, 3.08, 7.39, 0.000, 0.000, 0.000, 14:43:59.418
20, -403.87, 3.03, 23.37, 23.18, 0.000, 0.000, 0.000, 14:43:59.418
21, 106.72, 9.40, 11.27, 14.08, 0.000, 0.000, 0.000, 14:43:59.439
22, 389.02, 16.18, 3.50, 3.36, 0.000, 0.000, 0.000, 14:43:59.439
23, -266.42, 9.77, 11.70, 15.14, 0.000, 0.000, 0.000, 14:43:59.439
24, -150.44, 0.04, 17.27, 19.45, 0.000, 0.000, 0.000, 14:43:59.440
25, 413.92, 15.09, 4.56, 6.74, 0.000, 0.000, 0.000, 14:43:59.462
26, -22.48, 15.24, 4.96, 3.35, 0.000, 0.000, 0.000, 14:43:59.462
27, -339.73, -1.64, 21.91, 20.74, 0.000, 0.000, 0.000, 14:43:59.462
28, 303.57, 10.55, 10.10, 10.83, 0.000, 0.000, 0.000, 14:43:59.463
29, 241.86, 15.82, 4.10, 5.43, 0.000, 0.000, 0.000, 14:43:59.485
30, -414.90, 5.58, 18.71, 18.01, 0.000, 0.000, 0.000, 14:43:59.486
31, 120.87, -0.54, 10.09, 12.77, 0.000, 0.000, 0.000, 14:43:59.486
32, 396.19, 14.64, 3.49, 5.09, 0.000, 0.000, 0.000, 14:43:59.486
33, -261.86, 10.05, 9.39, 12.23, 0.000, 0.000, 0.000, 14:43:59.506
34, -149.80, -1.40, 21.82, 17.41, 0.000, 0.000, 0.000, 14:43:59.507
35, 415.79, 14.19, 3.40, 3.49, 0.000, 0.000, 0.000, 14:43:59.507
36, -24.71, 13.76, 6.91, 5.81, 0.000, 0.000, 0.000, 14:43:59.507
37, -350.16, -2.41, 21.76, 22.55, 0.000, 0.000, 0.000, 14:43:59.508
38, 305.26, 5.69, 6.44, 9.54, 0.000, 0.000, 0.000, 14:43:59.508
39, 250.68, 21.71, 2.07, 1.08, 0.000, 0.000, 0.000, 14:43:59.529
40, -398.88, -0.69, 20.28, 21.43, 0.000, 0.000, 0.000, 14:43:59.529
41, 108.58, 3.01, 15.65, 14.34, 0.000, 0.000, 0.000, 14:43:59.530
42, 393.12, 17.43, 5.04, 5.49, 0.000, 0.000, 0.000, 14:43:59.530
43, -241.13, 10.56, 8.89, 10.31, 0.000, 0.000, 0.000, 14:43:59.552
44, -139.62, 0.14, 16.91, 25.32, 0.000, 0.000, 0.000, 14:43:59.552
45, 421.12, 12.11, 4.73, 8.20, 0.000, 0.000, 0.000, 14:43:59.552
46, -11.01, 12.13, 5.81, 9.04, 0.000, 0.000, 0.000, 14:43:59.552
47, -341.13, -1.96, 21.37, 20.05, 0.000, 0.000, 0.000, 14:43:59.574
48, 287.95, 17.94, 5.84, 9.36, 0.000, 0.000, 0.000, 14:43:59.574
49, 235.20, 11.29, 0.69, 6.06, 0.000, 0.000, 0.000, 14:43:59.575
50, -414.21, 2.01, 20.62, 18.76, 0.000, 0.000, 0.000, 14:43:59.575
51, 76.14, 3.48, 13.22, 14.37, 0.000, 0.000, 0.000, 14:43:59.596
52, 367.44, 18.62, 6.65, 2.04, 0.000, 0.000, 0.000, 14:43:59.597
53, -260.13, 6.88, 15.00, 11.35, 0.000, 0.000, 0.000, 14:43:59.597
54, -155.72, 1.00, 18.83, 23.53, 0.000, 0.000, 0.000, 14:43:59.597
55, 412.58, 12.57, 1.65, 8.72, 0.000, 0.000, 0.000, 14:43:59.598
56, -7.06, 17.42, 4.74, 14.69, 0.000, 0.000, 0.000, 14:43:59.598
57, -342.82, 1.37, 22.66, 20.62, 0.000, 0.000, 0.000, 14:43:59.619
58, 301.58, 7.33, 5.52, 9.99, 0.000, 0.000, 0.000, 14:43:59.619
59, 254.93, 16.17, 0.45, 2.57, 0.000, 0.000, 0.000, 14:43:59.619
60, -394.06, 3.00, 21.42, 18.35, 0.000, 0.000, 0.000, 14:43:59.620
61, 92.23, 2.22, 13.15, 15.30, 0.000, 0.000, 0.000, 14:43:59.642
62, 410.84, 12.93, 7.03, 3.87, 0.000, 0.000, 0.000, 14:43:59.642
63, -258.96, 6.74, 12.86, 11.19, 0.000, 0.000, 0.000, 14:43:59.643
64, -160.41, 0.58, 19.63, 20.08, 0.000, 0.000, 0.000, 14:43:59.643
65, 424.92, 16.45, 5.08, 7.11, 0.000, 0.000, 0.000, 14:43:59.664
66, 4.91, 19.60, 6.31, 8.16, 0.000, 0.000, 0.000, 14:43:59.664
67, -341.88, -6.40, 21.70, 22.76, 0.000, 0.000, 0.000, 14:43:59.664
68, 296.96, 8.69, 6.36, 7.45, 0.000, 0.000, 0.000, 14:43:59.665
69, 259.44, 18.56, 3.27, 1.68, 0.000, 0.000, 0.000, 14:43:59.686
70, -397.69, 5.64, 18.23, 17.84, 0.000, 0.000, 0.000, 14:43:59.687
71, 87.87, 2.05, 11.71, 13.80, 0.000, 0.000, 0.000, 14:43:59.687
72, 403.85, 17.99, 0.36, 6.86, 0.000, 0.000, 0.000, 14:43:59.687
73, -257.98, 9.22, 14.57, 16.49, 0.000, 0.000, 0.000, 14:43:59.689
74, -168.60, -2.84, 20.92, 15.70, 0.000, 0.000, 0.000, 14:43:59.690
75, 398.10, 17.47, 4.22, 7.58, 0.000, 0.000, 0.000, 14:43:59.710
76, -3.03, 7.30, 6.55, 4.65, 0.000, 0.000, 0.000, 14:43:59.711
77, -344.01, -2.72, 19.34, 20.22, 0.000, 0.000, 0.000, 14:43:59.711
78, 299.42, 9.96, 5.18, 7.82, 0.000, 0.000, 0.000, 14:43:59.711
79, 273.67, 15.72, 3.59, 8.90, 0.000, 0.000, 0.000, 14:43:59.731
80, -419.75, -1.01, 19.21, 15.51, 0.000, 0.000, 0.000, 14:43:59.732
81, 97.24, 9.99, 15.93, 14.51, 0.000, 0.000, 0.000, 14:43:59.732
82, 419.79, 19.28, 5.46, 3.46, 0.000, 0.000, 0.000, 14:43:59.732
83, -238.36, 9.57, 10.63, 13.22, 0.000, 0.000, 0.000, 14:43:59.754
84, -155.46, 2.70, 21.70, 18.62, 0.000, 0.000, 0.000, 14:43:59.754
85, 405.87, 9.06, 5.70, 3.38, 0.000, 0.000, 0.000, 14:43:59.776
86, 8.13, 15.17, 6.71, 8.00, 0.000, 0.000, 0.000, 14:43:59.777
87, -340.79, -2.27, 21.42, 17.93, 0.000, 0.000, 0.000, 14:43:59.777
88, 290.50, 11.76, 7.16, 6.97, 0.000, 0.000, 0.000, 14:43:59.777
89, 257.13, 20.38, 2.99, 5.16, 0.000, 0.000, 0.000, 14:43:59.778
90, -392.49, 1.02, 15.67, 17.63, 0.000, 0.000, 0.000, 14:43:59.778
91, 94.44, 2.49, 12.90, 13.16, 0.000, 0.000, 0.000, 14:43:59.799
92, 411.48, 16.47, 3.14, 8.71, 0.000, 0.000, 0.000, 14:43:59.799
93, -246.41, 10.03, 9.27, 11.76, 0.000, 0.000, 0.000, 14:43:59.800
94, -172.24, 0.59, 20.43, 19.24, 0.000, 0.000, 0.000, 14:43:59.800
95, 408.87, 11.36, 7.33, 8.90, 0.000, 0.000, 0.000, 14:43:59.801
96, 14.13, 14.80, 7.35, 11.39, 0.000, 0.000, 0.000, 14:43:59.802
97, -363.40, -0.35, 25.35, 16.87, 0.000, 0.000, 0.000, 14:43:59.822
98, 290.92, 12.38, 3.10, 8.46, 0.000, 0.000, 0.000, 14:43:59.822
99, 267.92, 17.70, 5.79, 8.25, 0.000, 0.000, 0.000, 14:43:59.822
100, -392.89, 1.31, 16.81, 16.74, 0.000, 0.000, 0.000, 14:43:59.822
101, 84.49, 1.58, 15.06, 15.78, 0.000, 0.000, 0.000, 14:43:59.844
102, 395.61, 18.32, 0.96, 3.78, 0.000, 0.000, 0.000, 14:43:59.844
103, -244.89, 8.73, 8.42, 9.71, 0.000, 0.000, 0.000, 14:43:59.845
104, -160.01, -1.97, 20.55, 19.71, 0.000, 0.000, 0.000, 14:43:59.845
105, 404.42, 14.93, 3.28, 5.87, 0.000, 0.000, 0.000, 14:43:59.867
106, 10.10, 16.55, 6.25, 8.17, 0.000, 0.000, 0.000, 14:43:59.867
107, -359.55, 0.28, 23.58, 21.12, 0.000, 0.000, 0.000, 14:43:59.867
108, 278.67, 12.27, 7.92, 8.73, 0.000, 0.000, 0.000, 14:43:59.867
109, 264.58, 15.48, -0.15, 4.80, 0.000, 0.000, 0.000, 14:43:59.868
110, -413.12, -0.67, 18.33, 17.77, 0.000, 0.000, 0.000, 14:43:59.868
111, 77.45, 1.27, 12.71, 15.40, 0.000, 0.000, 0.000, 14:43:59.889
112, 396.61, 12.41, 5.92, 6.08, 0.000, 0.000, 0.000, 14:43:59.889
113, -254.86, 9.08, 13.09, 12.90, 0.000, 0.000, 0.000, 14:43:59.890
114, -186.38, -2.35, 19.97, 24.64, 0.000, 0.000, 0.000, 14:43:59.890
115, 402.35, 13.96, 5.31, 8.00, 0.000, 0.000, 0.000, 14:43:59.911
116, 15.04, 15.02, 5.45, 7.59, 0.000, 0.000, 0.000, 14:43:59.912
117, -362.12, -0.91, 23.84, 21.63, 0.000, 0.000, 0.000, 14:43:59.912
118, 278.98, 10.36, 8.57, 6.46, 0.000, 0.000, 0.000, 14:43:59.912
119, 269.23, 14.34, 5.00, 6.65, 0.000, 0.000, 0.000, 14:43:59.934
120, -403.93, 8.74, 14.50, 15.24, 0.000, 0.000, 0.000, 14:43:59.934
121, 71.14, -4.92, 15.89, 16.08, 0.000, 0.000, 0.000, 14:43:59.935
122, 406.17, 15.21, 1.33, 6.04, 0.000, 0.000, 0.000, 14:43:59.935
123, -249.38, 12.74, 11.45, 13.14, 0.000, 0.000, 0.000, 14:43:59.957
124, -172.27, -2.74, 18.73, 18.60, 0.000, 0.000, 0.000, 14:43:59.957
125, 396.92, 9.94, 1.02, 9.38, 0.000, 0.000, 0.000, 14:43:59.957
126, 28.81, 14.24, 8.99, 10.77, 0.000, 0.000, 0.000, 14:43:59.958
127, -361.03, -3.83, 21.69, 19.75, 0.000, 0.000, 0.000, 14:43:59.958
128, 271.86, 8.86, 5.42, 5.97, 0.000, 0.000, 0.000, 14:43:59.958
129, 277.18, 20.92, 2.32, 6.07, 0.000, 0.000, 0.000, 14:43:59.979
130, -399.14, 1.05, 18.02, 16.57, 0.000, 0.000, 0.000, 14:43:59.979
131, 71.88, 2.48, 16.04, 12.92, 0.000, 0.000, 0.000, 14:43:59.980
132, 404.26, 17.06, 1.69, 3.38, 0.000, 0.000, 0.000, 14:43:59.980
133, -229.04, 10.16, 12.99, 14.88, 0.000, 0.000, 0.000, 14:44:00.001
134, -188.47, 0.99, 19.89, 21.81, 0.000, 0.000, 0.000, 14:44:00.002
135, 407.68, 13.15, 5.10, 7.74, 0.000, 0.000, 0.000, 14:44:00.002
136, 25.77, 15.93, 4.07, 8.68, 0.000, 0.000, 0.000, 14:44:00.002
137, -361.37, 0.88, 22.11, 18.39, 0.000, 0.000, 0.000, 14:44:00.024
138, 274.66, 12.05, 9.92, 9.62, 0.000, 0.000, 0.000, 14:44:00.025
139, 280.36, 13.07, 1.98, 8.13, 0.000, 0.000, 0.000, 14:44:00.025
140, -377.18, 1.48, 17.89, 19.18, 0.000, 0.000, 0.000, 14:44:00.025
141, 57.59, 2.94, 14.56, 16.84, 0.000, 0.000, 0.000, 14:44:00.047
142, 409.22, 16.45, 4.82, 1.83, 0.000, 0.000, 0.000, 14:44:00.047
143, -238.93, 7.53, 14.97, 7.59, 0.000, 0.000, 0.000, 14:44:00.047
144, -197.66, -0.54, 20.10, 17.96, 0.000, 0.000, 0.000, 14:44:00.047
145, 408.87, 15.24, 5.18, 7.80, 0.000, 0.000, 0.000, 14:44:00.048
146, 32.07, 15.68, 8.96, 10.25, 0.000, 0.000, 0.000, 14:44:00.048
147, -366.92, 0.19, 20.28, 18.23, 0.000, 0.000, 0.000, 14:44:00.069
148, 275.93, 3.40, 6.47, 9.88, 0.000, 0.000, 0.000, 14:44:00.069
149, 290.68, 14.83, 3.30, 5.10, 0.000, 0.000, 0.000, 14:44:00.069
150, -396.91, 6.37, 18.19, 19.62, 0.000, 0.000, 0.000, 14:44:00.070
151, 47.30, 3.44, 13.73, 15.00, 0.000, 0.000, 0.000, 14:44:00.092
152, 408.32, 13.59, 0.85, 9.14, 0.000, 0.000, 0.000, 14:44:00.092
153, -228.57, 10.35, 9.61, 14.27, 0.000, 0.000, 0.000, 14:44:00.093
154, -191.99, -1.40, 21.39, 16.15, 0.000, 0.000, 0.000, 14:44:00.093
155, 383.50, 13.95, 2.30, 5.58, 0.000, 0.000, 0.000, 14:44:00.114
156, 50.22, 20.09, 7.34, 10.73, 0.000, 0.000, 0.000, 14:44:00.114
157, -369.16, -7.41, 26.85, 18.82, 0.000, 0.000, 0.000, 14:44:00.116
158, 263.97, 8.38, 5.47, 9.16, 0.000, 0.000, 0.000, 14:44:00.116
159, 288.09, 17.05, 3.45, 5.89, 0.000, 0.000, 0.000, 14:44:00.137
160, -375.45, 5.97, 19.05, 13.85, 0.000, 0.000, 0.000, 14:44:00.137
161, 34.47, -0.19, 13.01, 15.80, 0.000, 0.000, 0.000, 14:44:00.138
162, 398.40, 18.86, 2.69, 9.23, 0.000, 0.000, 0.000, 14:44:00.138
163, -215.12, 9.07, 9.05, 10.90, 0.000, 0.000, 0.000, 14:44:00.138
164, -179.59, 4.10, 19.60, 17.33, 0.000, 0.000, 0.000, 14:44:00.138
165, 388.10, 17.22, 1.26, 6.34, 0.000, 0.000, 0.000, 14:44:00.159
166, 55.57, 12.93, 4.39, 6.42, 0.000, 0.000, 0.000, 14:44:00.159
167, -372.01, -2.06, 24.10, 21.75, 0.000, 0.000, 0.000, 14:44:00.160
168, 261.31, 7.04, 4.71, 9.76, 0.000, 0.000, 0.000, 14:44:00.160
169, 290.32, 16.73, 2.82, 6.76, 0.000, 0.000, 0.000, 14:44:00.181
170, -388.08, 2.42, 18.99, 16.93, 0.000, 0.000, 0.000, 14:44:00.182
171, 40.32, 4.89, 14.50, 15.14, 0.000, 0.000, 0.000, 14:44:00.182
172, 415.52, 15.36, 5.67, 7.23, 0.000, 0.000, 0.000, 14:44:00.182
173, -213.60, 7.99, 13.19, 11.95, 0.000, 0.000, 0.000, 14:44:00.204
174, -195.42, 8.25, 24.35, 16.97, 0.000, 0.000, 0.000, 14:44:00.204
175, 391.54, 9.07, 6.93, 6.82, 0.000, 0.000, 0.000, 14:44:00.204
176, 48.15, 14.04, 5.22, 7.76, 0.000, 0.000, 0.000, 14:44:00.205
177, -374.92, -3.64, 24.42, 18.29, 0.000, 0.000, 0.000, 14:44:00.226
178, 264.13, 9.78, 6.42, 10.61, 0.000, 0.000, 0.000, 14:44:00.227
179, 286.99, 13.45, 1.67, 7.74, 0.000, 0.000, 0.000, 14:44:00.227
180, -397.46, 3.30, 12.54, 15.60, 0.000, 0.000, 0.000, 14:44:00.228
181, 48.91, 2.65, 16.05, 13.86, 0.000, 0.000, 0.000, 14:44:00.228
182, 424.16, 14.07, 5.74, 3.06, 0.000, 0.000, 0.000, 14:44:00.228
183, -207.08, 12.35, 12.80, 10.07, 0.000, 0.000, 0.000, 14:44:00.249
184, -214.34, -9.22, 23.91, 16.71, 0.000, 0.000, 0.000, 14:44:00.249
185, 394.85, 14.89, 2.45, 7.95, 0.000, 0.000, 0.000, 14:44:00.249
186, 61.30, 16.50, 7.44, 9.22, 0.000, 0.000, 0.000, 14:44:00.250
187, -381.53, -0.69, 26.73, 22.57, 0.000, 0.000, 0.000, 14:44:00.272
188, 256.26, 6.98, 8.21, 8.76, 0.000, 0.000, 0.000, 14:44:00.272
189, 303.30, 15.00, 1.24, 4.15, 0.000, 0.000, 0.000, 14:44:00.272
190, -381.50, 3.53, 17.95, 15.25, 0.000, 0.000, 0.000, 14:44:00.272
191, 45.33, 0.67, 14.37, 16.39, 0.000, 0.000, 0.000, 14:44:00.294
192, 409.93, 21.00, 3.76, 2.78, 0.000, 0.000, 0.000, 14:44:00.294
193, -214.73, 8.08, 10.55, 13.74, 0.000, 0.000, 0.000, 14:44:00.295
194, -220.53, -1.34, 24.97, 25.66, 0.000, 0.000, 0.000, 14:44:00.295
195, 385.22, 13.00, 3.79, 6.22, 0.000, 0.000, 0.000, 14:44:00.317
196, 54.47, 13.11, 1.88, 8.00, 0.000, 0.000, 0.000, 14:44:00.317
197, -371.97, -4.38, 22.22, 19.13, 0.000, 0.000, 0.000, 14:44:00.339
198, 252.22, 11.96, 9.63, 10.00, 0.000, 0.000, 0.000, 14:44:00.339
199, 307.52, 15.14, 3.02, 8.55, 0.000, 0.000, 0.000, 14:44:00.339
200, -383.23, 8.79, 17.64, 17.72, 0.000, 0.000, 0.000, 14:44:00.340
0, 33.91, -1.37, 11.64, 12.70, 0.000, 0.000, 0.000, 14:44:00.341
1, 412.45, 16.39, 6.00, 5.70, 0.000, 0.000, 0.000, 14:44:00.361
2, -204.57, 8.59, 10.42, 12.13, 0.000, 0.000, 0.000, 14:44:00.362
3, -210.48, -1.30, 19.30, 19.87, 0.000, 0.000, 0.000, 14:44:00.363
4, 392.05, 14.57, 4.12, 7.76, 0.000, 0.000, 0.000, 14:44:00.363
5, 65.81, 15.24, 6.52, 6.19, 0.000, 0.000, 0.000, 14:44:00.367
6, -376.75, 1.65, 20.83, 20.99, 0.000, 0.000, 0.000, 14:44:00.367
7, 257.88, 8.38, 8.09, 9.30, 0.000, 0.000, 0.000, 14:44:00.367
8, 306.19, 17.53, 1.81, 3.42, 0.000, 0.000, 0.000, 14:44:00.367
9, -379.78, 3.61, 19.14, 14.69, 0.000, 0.000, 0.000, 14:44:00.384
10, 18.43, 6.15, 13.65, 13.52, 0.000, 0.000, 0.000, 14:44:00.385
11, 406.06, 17.29, 4.84, 4.19, 0.000, 0.000, 0.000, 14:44:00.385
12, -199.98, 12.29, 12.11, 11.85, 0.000, 0.000, 0.000, 14:44:00.385
13, -220.51, -0.99, 19.03, 19.34, 0.000, 0.000, 0.000, 14:44:00.407
14, 396.11, 11.30, 0.49, 8.90, 0.000, 0.000, 0.000, 14:44:00.407
15, 74.53, 14.56, 3.67, 9.14, 0.000, 0.000, 0.000, 14:44:00.407
16, -373.92, 1.53, 19.85, 19.52, 0.000, 0.000, 0.000, 14:44:00.408
17, 247.56, 5.03, 8.78, 8.47, 0.000, 0.000, 0.000, 14:44:00.429
18, 317.92, 18.87, 3.20, 5.21, 0.000, 0.000, 0.000, 14:44:00.429
19, -373.77, -1.26, 16.07, 19.36, 0.000, 0.000, 0.000, 14:44:00.430
20, 26.66, 2.26, 17.76, 18.22, 0.000, 0.000, 0.000, 14:44:00.430
21, 417.67, 16.92, 3.06, 5.47, 0.000, 0.000, 0.000, 14:44:00.452
22, -208.18, 8.61, 9.43, 10.29, 0.000, 0.000, 0.000, 14:44:00.452
23, -215.92, -2.12, 22.36, 16.25, 0.000, 0.000, 0.000, 14:44:00.452
24, 378.02, 14.57, 6.04, 7.51, 0.000, 0.000, 0.000, 14:44:00.453
25, 74.36, 16.10, 8.72, 5.97, 0.000, 0.000, 0.000, 14:44:00.453
26, -375.09, -2.96, 23.79, 18.39, 0.000, 0.000, 0.000, 14:44:00.453
27, 253.37, 17.01, 6.95, 5.59, 0.000, 0.000, 0.000, 14:44:00.474
28, 305.03, 14.82, 3.06, 7.73, 0.000, 0.000, 0.000, 14:44:00.475
29, -386.45, -0.03, 16.34, 16.38, 0.000, 0.000, 0.000, 14:44:00.475
30, 10.38, 5.35, 15.26, 14.50, 0.000, 0.000, 0.000, 14:44:00.475
31, 427.12, 18.28, -2.60, 2.63, 0.000, 0.000, 0.000, 14:44:00.497
32, -200.22, 12.70, 12.34, 13.56, 0.000, 0.000, 0.000, 14:44:00.497
33, -212.97, -2.17, 23.94, 22.37, 0.000, 0.000, 0.000, 14:44:00.498
34, 380.63, 13.08, 6.35, 7.05, 0.000, 0.000, 0.000, 14:44:00.498
35, 87.13, 15.66, 2.83, 6.71, 0.000, 0.000, 0.000, 14:44:00.519
36, -397.56, 5.19, 22.84, 22.21, 0.000, 0.000, 0.000, 14:44:00.519
37, 248.17, 2.36, 11.51, 12.57, 0.000, 0.000, 0.000, 14:44:00.519
38, 311.81, 17.37, 2.74, 6.03, 0.000, 0.000, 0.000, 14:44:00.520
39, -384.16, 7.48, 16.56, 19.26, 0.000, 0.000, 0.000, 14:44:00.542
40, 27.78, 4.75, 11.04, 16.41, 0.000, 0.000, 0.000, 14:44:00.542
41, 424.74, 13.81, 4.02, 8.23, 0.000, 0.000, 0.000, 14:44:00.542
42, -191.93, 11.12, 7.76, 13.33, 0.000, 0.000, 0.000, 14:44:00.542
43, -228.86, 0.25, 20.78, 22.07, 0.000, 0.000, 0.000, 14:44:00.543
44, 375.09, 14.65, 7.21, 8.77, 0.000, 0.000, 0.000, 14:44:00.543
45, 73.22, 15.65, 3.31, 8.50, 0.000, 0.000, 0.000, 14:44:00.564
46, -381.50, -4.55, 21.20, 19.85, 0.000, 0.000, 0.000, 14:44:00.564
47, 244.36, 7.02, 8.51, 7.99, 0.000, 0.000, 0.000, 14:44:00.565
48, 316.59, 14.25, 2.38, 3.33, 0.000, 0.000, 0.000, 14:44:00.565
49, -358.77, 5.39, 19.07, 16.72, 0.000, 0.000, 0.000, 14:44:00.586
50, 2.57, -0.80, 14.51, 15.72, 0.000, 0.000, 0.000, 14:44:00.587
51, 423.11, 15.43, 1.57, 6.19, 0.000, 0.000, 0.000, 14:44:00.587
52, -193.07, 11.16, 12.17, 8.80, 0.000, 0.000, 0.000, 14:44:00.587
53, -228.04, -2.03, 18.38, 21.58, 0.000, 0.000, 0.000, 14:44:00.609
54, 388.06, 20.73, 0.79, 4.11, 0.000, 0.000, 0.000, 14:44:00.609
55, 92.77, 11.97, 5.35, 7.89, 0.000, 0.000, 0.000, 14:44:00.610
56, -361.84, -0.84, 21.09, 18.58, 0.000, 0.000, 0.000, 14:44:00.610
57, 265.99, 12.24, 11.83, 10.08, 0.000, 0.000, 0.000, 14:44:00.631
58, 329.02, 15.29, 6.59, 5.73, 0.000, 0.000, 0.000, 14:44:00.632
59, -370.76, 2.37, 16.70, 18.23, 0.000, 0.000, 0.000, 14:44:00.633
60, -9.07, 3.64, 14.12, 18.50, 0.000, 0.000, 0.000, 14:44:00.633
61, 418.93, 17.03, 4.29, 4.95, 0.000, 0.000, 0.000, 14:44:00.633
62, -201.53, 9.08, 8.87, 10.14, 0.000, 0.000, 0.000, 14:44:00.633
63, -257.03, 0.59, 20.68, 16.74, 0.000, 0.000, 0.000, 14:44:00.654
64, 362.32, 5.18, 3.16, 6.34, 0.000, 0.000, 0.000, 14:44:00.654
65, 77.66, 11.81, 9.71, 12.75, 0.000, 0.000, 0.000, 14:44:00.655
66, -399.94, 0.45, 24.53, 19.56, 0.000, 0.000, 0.000, 14:44:00.655
67, 230.68, 7.64, 8.37, 9.94, 0.000, 0.000, 0.000, 14:44:00.677
68, 327.90, 12.22, 2.17, 3.89, 0.000, 0.000, 0.000, 14:44:00.677
69, -370.67, 2.96, 19.53, 15.80, 0.000, 0.000, 0.000, 14:44:00.678
70, 4.96, 2.53, 14.86, 13.75, 0.000, 0.000, 0.000, 14:44:00.678
71, 431.11, 17.51, 3.56, 4.23, 0.000, 0.000, 0.000, 14:44:00.699
72, -173.82, 15.44, 10.44, 8.47, 0.000, 0.000, 0.000, 14:44:00.699
73, -238.55, -9.49, 25.91, 20.68, 0.000, 0.000, 0.000, 14:44:00.700
74, 383.65, 15.23, 3.39, 6.76, 0.000, 0.000, 0.000, 14:44:00.700
75, 98.13, 14.91, 4.92, 5.99, 0.000, 0.000, 0.000, 14:44:00.722
76, -387.21, -3.45, 23.63, 22.07, 0.000, 0.000, 0.000, 14:44:00.723
77, 234.06, 4.45, 8.48, 10.23, 0.000, 0.000, 0.000, 14:44:00.723
78, 330.77, 15.42, 1.98, 8.14, 0.000, 0.000, 0.000, 14:44:00.723
79, -367.24, 6.25, 17.00, 15.76, 0.000, 0.000, 0.000, 14:44:00.723
80, -13.96, 2.28, 13.50, 16.80, 0.000, 0.000, 0.000, 14:44:00.723
81, 421.18, 16.49, -0.16, 4.73, 0.000, 0.000, 0.000, 14:44:00.744
82, -158.24, 10.65, 10.40, 10.62, 0.000, 0.000, 0.000, 14:44:00.744
83, -247.84, -3.59, 22.89, 22.60, 0.000, 0.000, 0.000, 14:44:00.745
84, 392.71, 12.50, 1.62, 6.75, 0.000, 0.000, 0.000, 14:44:00.745
85, 110.99, 14.52, 7.82, 5.40, 0.000, 0.000, 0.000, 14:44:00.767
86, -386.92, 1.36, 21.22, 23.25, 0.000, 0.000, 0.000, 14:44:00.767
87, 229.26, 10.76, 9.80, 12.47, 0.000, 0.000, 0.000, 14:44:00.767
88, 327.68, 17.67, 2.04, 5.07, 0.000, 0.000, 0.000, 14:44:00.767
89, -382.22, 7.54, 14.31, 16.97, 0.000, 0.000, 0.000, 14:44:00.790
90, 1.50, 5.88, 15.47, 15.74, 0.000, 0.000, 0.000, 14:44:00.790
91, 441.12, 9.89, 3.47, 9.34, 0.000, 0.000, 0.000, 14:44:00.790
92, -158.16, 12.46, 10.42, 12.52, 0.000, 0.000, 0.000, 14:44:00.790
93, -252.47, -1.90, 17.52, 21.93, 0.000, 0.000, 0.000, 14:44:00.812
94, 379.67, 14.66, 3.95, 8.50, 0.000, 0.000, 0.000, 14:44:00.812
95, 103.89, 16.03, 6.57, 6.70, 0.000, 0.000, 0.000, 14:44:00.812
96, -396.15, 2.95, 23.84, 20.50, 0.000, 0.000, 0.000, 14:44:00.813
97, 238.44, 10.94, 13.87, 6.22, 0.000, 0.000, 0.000, 14:44:00.813
98, 336.25, 16.48, 2.92, 9.11, 0.000, 0.000, 0.000, 14:44:00.813
99, -356.96, 4.62, 13.53, 12.97, 0.000, 0.000, 0.000, 14:44:00.834
100, -9.48, 0.42, 21.28, 17.64, 0.000, 0.000, 0.000, 14:44:00.834
101, 418.16, 12.80, 4.79, 6.15, 0.000, 0.000, 0.000, 14:44:00.835
102, -173.14, 12.70, 9.59, 11.54, 0.000, 0.000, 0.000, 14:44:00.835
103, -238.94, -3.93, 22.52, 15.83, 0.000, 0.000, 0.000, 14:44:00.857
104, 380.15, 12.13, 5.72, 2.51, 0.000, 0.000, 0.000, 14:44:00.857
105, 116.83, 15.97, 2.78, 6.47, 0.000, 0.000, 0.000, 14:44:00.858
106, -393.33, -2.76, 20.22, 20.21, 0.000, 0.000, 0.000, 14:44:00.858
107, 232.45, 9.79, 9.08, 7.52, 0.000, 0.000, 0.000, 14:44:00.879
108, 316.81, 23.97, 5.29, 7.03, 0.000, 0.000, 0.000, 14:44:00.880
109, -345.81, -2.53, 13.73, 15.45, 0.000, 0.000, 0.000, 14:44:00.880
110, 1.76, 2.36, 15.85, 16.09, 0.000, 0.000, 0.000, 14:44:00.880
111, 435.12, 14.73, 7.02, 6.47, 0.000, 0.000, 0.000, 14:44:00.902
112, -163.58, 14.36, 8.14, 9.53, 0.000, 0.000, 0.000, 14:44:00.902
113, -255.21, -5.55, 20.76, 18.46, 0.000, 0.000, 0.000, 14:44:00.902
114, 360.82, 14.07, 5.38, 5.34, 0.000, 0.000, 0.000, 14:44:00.902
115, 110.70, 16.10, 4.01, 7.36, 0.000, 0.000, 0.000, 14:44:00.903
116, -401.12, 0.00, 23.45, 23.57, 0.000, 0.000, 0.000, 14:44:00.903
117, 226.22, 11.83, 5.64, 12.22, 0.000, 0.000, 0.000, 14:44:00.924
118, 329.02, 13.46, 8.17, 6.76, 0.000, 0.000, 0.000, 14:44:00.925
119, -363.86, 4.99, 13.24, 14.73, 0.000, 0.000, 0.000, 14:44:00.925
120, -30.39, 1.97, 17.54, 18.43, 0.000, 0.000, 0.000, 14:44:00.925
121, 426.37, 15.47, 3.47, 3.74, 0.000, 0.000, 0.000, 14:44:00.947
122, -159.91, 9.46, 8.92, 14.45, 0.000, 0.000, 0.000, 14:44:00.947
123, -261.44, 2.23, 22.84, 19.92, 0.000, 0.000, 0.000, 14:44:00.947
124, 346.96, 15.34, 6.01, 9.09, 0.000, 0.000, 0.000, 14:44:00.948
125, 146.04, 14.95, 5.52, 5.91, 0.000, 0.000, 0.000, 14:44:00.969
126, -392.77, 2.08, 21.64, 20.50, 0.000, 0.000, 0.000, 14:44:00.970
127, 224.14, 1.48, 11.50, 11.56, 0.000, 0.000, 0.000, 14:44:00.970
128, 341.80, 18.27, 1.94, 4.93, 0.000, 0.000, 0.000, 14:44:00.970
129, -356.91, 6.13, 14.54, 13.03, 0.000, 0.000, 0.000, 14:44:00.992
130, -37.81, 4.16, 16.49, 16.05, 0.000, 0.000, 0.000, 14:44:00.992
131, 434.91, 13.57, 4.47, 6.78, 0.000, 0.000, 0.000, 14:44:00.992
132, -158.80, 7.27, 9.36, 9.90, 0.000, 0.000, 0.000, 14:44:00.992
133, -272.08, -2.95, 23.85, 19.09, 0.000, 0.000, 0.000, 14:44:00.993
134, 356.61, 10.30, 7.05, 4.43, 0.000, 0.000, 0.000, 14:44:00.993
135, 121.41, 17.77, 6.33, 9.84, 0.000, 0.000, 0.000, 14:44:01.014
136, -384.55, -1.05, 20.45, 17.79, 0.000, 0.000, 0.000, 14:44:01.014
137, 207.88, 5.56, 9.12, 11.24, 0.000, 0.000, 0.000, 14:44:01.015
138, 336.85, 13.93, 3.94, 4.41, 0.000, 0.000, 0.000, 14:44:01.015
139, -346.56, 3.66, 14.50, 15.68, 0.000, 0.000, 0.000, 14:44:01.037
140, -33.68, 1.32, 20.42, 17.87, 0.000, 0.000, 0.000, 14:44:01.037
141, 425.21, 14.39, 4.31, 4.46, 0.000, 0.000, 0.000, 14:44:01.037
142, -156.76, 14.11, 5.88, 7.85, 0.000, 0.000, 0.000, 14:44:01.037
143, -268.71, -0.70, 16.63, 15.88, 0.000, 0.000, 0.000, 14:44:01.059
144, 351.90, 17.62, 4.18, 7.57, 0.000, 0.000, 0.000, 14:44:01.059
145, 129.56, 13.37, 5.26, 8.80, 0.000, 0.000, 0.000, 14:44:01.060
146, -408.54, -1.83, 19.69, 18.03, 0.000, 0.000, 0.000, 14:44:01.060
147, 199.77, 9.90, 8.72, 12.61, 0.000, 0.000, 0.000, 14:44:01.082
148, 359.75, 15.72, 4.57, 9.06, 0.000, 0.000, 0.000, 14:44:01.082
149, -355.34, 3.02, 13.55, 17.05, 0.000, 0.000, 0.000, 14:44:01.082
150, -56.04, 1.98, 17.43, 17.23, 0.000, 0.000, 0.000, 14:44:01.083
151, 450.68, 13.89, 0.25, 4.33, 0.000, 0.000, 0.000, 14:44:01.083
152, -135.95, 12.66, 11.08, 9.88, 0.000, 0.000, 0.000, 14:44:01.083
153, -273.51, 2.23, 23.42, 22.42, 0.000, 0.000, 0.000, 14:44:01.104
154, 355.46, 8.22, 5.16, 4.21, 0.000, 0.000, 0.000, 14:44:01.104
155, 158.25, 11.96, 5.43, 7.48, 0.000, 0.000, 0.000, 14:44:01.105
156, -409.55, -1.97, 21.65, 22.55, 0.000, 0.000, 0.000, 14:44:01.105
157, 203.30, 7.71, 9.64, 10.47, 0.000, 0.000, 0.000, 14:44:01.126
158, 359.27, 10.61, 5.71, 3.06, 0.000, 0.000, 0.000, 14:44:01.127
159, -348.85, 7.87, 17.43, 15.94, 0.000, 0.000, 0.000, 14:44:01.127
160, -89.62, 2.24, 19.16, 22.84, 0.000, 0.000, 0.000, 14:44:01.127
161, 443.02, 16.91, 6.25, 4.36, 0.000, 0.000, 0.000, 14:44:01.150
162, -129.64, 16.85, 11.60, 10.73, 0.000, 0.000, 0.000, 14:44:01.150
163, -260.65, -3.48, 16.31, 22.12, 0.000, 0.000, 0.000, 14:44:01.150
164, 352.77, 10.76, 5.15, 11.05, 0.000, 0.000, 0.000, 14:44:01.150
165, 167.10, 12.71, 1.97, 7.99, 0.000, 0.000, 0.000, 14:44:01.172
166, -427.29, 3.88, 18.06, 18.03, 0.000, 0.000, 0.000, 14:44:01.172
167, 193.48, 7.14, 10.78, 9.15, 0.000, 0.000, 0.000, 14:44:01.173
168, 380.15, 15.65, 2.97, 3.76, 0.000, 0.000, 0.000, 14:44:01.173
169, -344.59, 7.33, 15.48, 14.28, 0.000, 0.000, 0.000, 14:44:01.173
170, -69.44, 2.77, 16.81, 13.34, 0.000, 0.000, 0.000, 14:44:01.174
171, 443.68, 18.45, 3.89, 6.41, 0.000, 0.000, 0.000, 14:44:01.194
172, -131.91, 11.12, 10.74, 7.78, 0.000, 0.000, 0.000, 14:44:01.194
173, -305.66, -0.53, 18.30, 17.94, 0.000, 0.000, 0.000, 14:44:01.195
174, 372.25, 11.64, 4.56, 7.85, 0.000, 0.000, 0.000, 14:44:01.195
175, 153.17, 13.58, 6.35, 6.57, 0.000, 0.000, 0.000, 14:44:01.216
176, -409.62, 0.71, 19.11, 21.67, 0.000, 0.000, 0.000, 14:44:01.217
177, 156.20, 9.24, 10.01, 9.79, 0.000, 0.000, 0.000, 14:44:01.217
178, 379.68, 15.39, 5.55, 10.57, 0.000, 0.000, 0.000, 14:44:01.217
179, -336.09, 5.48, 12.70, 15.37, 0.000, 0.000, 0.000, 14:44:01.239
180, -52.39, 10.36, 17.30, 16.06, 0.000, 0.000, 0.000, 14:44:01.239
181, 435.19, 13.99, 5.33, 5.63, 0.000, 0.000, 0.000, 14:44:01.240
182, -129.67, 11.12, 6.54, 13.41, 0.000, 0.000, 0.000, 14:44:01.240
183, -291.34, -0.25, 19.60, 19.45, 0.000, 0.000, 0.000, 14:44:01.261
184, 350.11, 10.71, 11.22, 12.91, 0.000, 0.000, 0.000, 14:44:01.262
185, 147.31, 14.96, 5.71, 11.20, 0.000, 0.000, 0.000, 14:44:01.262
186, -396.59, -1.16, 19.57, 19.89, 0.000, 0.000, 0.000, 14:44:01.262
187, 184.85, 4.54, 9.51, 15.37, 0.000, 0.000, 0.000, 14:44:01.263
188, 377.44, 17.60, 1.92, 6.24, 0.000, 0.000, 0.000, 14:44:01.263
189, -330.63, 8.13, 14.09, 12.61, 0.000, 0.000, 0.000, 14:44:01.284
190, -81.85, -3.93, 17.64, 11.85, 0.000, 0.000, 0.000, 14:44:01.284
191, 422.62, 11.26, 7.30, 5.60, 0.000, 0.000, 0.000, 14:44:01.284
192, -107.88, 12.72, 14.13, 10.34, 0.000, 0.000, 0.000, 14:44:01.285
193, -291.12, -1.71, 17.63, 18.70, 0.000, 0.000, 0.000, 14:44:01.307
194, 355.98, 10.86, 6.04, 5.79, 0.000, 0.000, 0.000, 14:44:01.307
195, 175.82, 19.13, 5.57, 5.66, 0.000, 0.000, 0.000, 14:44:01.307
196, -434.14, -1.02, 15.33, 18.06, 0.000, 0.000, 0.000, 14:44:01.307
197, 187.47, 4.76, 10.82, 9.55, 0.000, 0.000, 0.000, 14:44:01.329
198, 379.71, 17.88, 6.48, 6.25, 0.000, 0.000, 0.000, 14:44:01.329
199, -336.51, 2.31, 15.51, 17.43, 0.000, 0.000, 0.000, 14:44:01.330
200, -66.22, 4.95, 16.84, 15.40, 0.000, 0.000, 0.000, 14:44:01.330
0, 442.58, 15.35, 1.04, 3.69, 0.000, 0.000, 0.000, 14:44:01.330
1, -118.17, 13.44, 12.85, 11.20, 0.000, 0.000, 0.000, 14:44:01.352
2, -300.75, -0.95, 22.03, 23.02, 0.000, 0.000, 0.000, 14:44:01.352
3, 347.81, 8.79, -0.45, 6.99, 0.000, 0.000, 0.000, 14:44:01.352
4, 181.93, 12.43, 4.41, 6.17, 0.000, 0.000, 0.000, 14:44:01.352
5, -424.47, 0.27, 20.38, 18.73, 0.000, 0.000, 0.000, 14:44:01.374
6, 176.85, 12.20, 12.99, 10.53, 0.000, 0.000, 0.000, 14:44:01.374
7, 374.50, 8.16, 4.37, 8.00, 0.000, 0.000, 0.000, 14:44:01.375
8, -336.27, 4.81, 14.48, 14.12, 0.000, 0.000, 0.000, 14:44:01.375
9, -101.99, 3.80, 16.81, 12.86, 0.000, 0.000, 0.000, 14:44:01.396
10, 449.90, 19.64, 1.52, 6.38, 0.000, 0.000, 0.000, 14:44:01.397
11, -122.35, 11.62, 10.51, 10.40, 0.000, 0.000, 0.000, 14:44:01.397
12, -300.64, 0.93, 19.89, 22.18, 0.000, 0.000, 0.000, 14:44:01.397
13, 365.64, 14.62, 5.69, 6.86, 0.000, 0.000, 0.000, 14:44:01.398
14, 211.77, 15.69, 7.24, 11.32, 0.000, 0.000, 0.000, 14:44:01.398
15, -417.45, 2.66, 20.80, 17.94, 0.000, 0.000, 0.000, 14:44:01.419
16, 183.22, 5.22, 7.95, 11.68, 0.000, 0.000, 0.000, 14:44:01.419
17, 362.33, 17.93, 10.58, 4.24, 0.000, 0.000, 0.000, 14:44:01.420
18, -327.73, 8.70, 12.15, 17.38, 0.000, 0.000, 0.000, 14:44:01.420
19, -101.72, 3.90, 17.08, 17.83, 0.000, 0.000, 0.000, 14:44:01.441
20, 439.84, 16.08, 4.80, 8.04, 0.000, 0.000, 0.000, 14:44:01.442
21, -103.02, 11.23, 11.57, 9.26, 0.000, 0.000, 0.000, 14:44:01.442
22, -315.78, -0.40, 17.72, 20.12, 0.000, 0.000, 0.000, 14:44:01.442
23, 329.56, 11.57, 6.19, 11.99, 0.000, 0.000, 0.000, 14:44:01.464
24, 201.72, 23.37, 5.82, 7.48, 0.000, 0.000, 0.000, 14:44:01.464
25, -402.55, -5.53, 23.33, 20.92, 0.000, 0.000, 0.000, 14:44:01.464
26, 163.90, 8.88, 11.03, 10.60, 0.000, 0.000, 0.000, 14:44:01.465
27, 369.49, 12.87, 5.45, 6.64, 0.000, 0.000, 0.000, 14:44:01.486
28, -293.58, 9.14, 10.73, 14.80, 0.000, 0.000, 0.000, 14:44:01.487
29, -86.58, 2.61, 17.19, 14.50, 0.000, 0.000, 0.000, 14:44:01.487
30, 441.94, 13.23, 6.57, 7.47, 0.000, 0.000, 0.000, 14:44:01.487
31, -105.05, 10.31, 8.27, 8.40, 0.000, 0.000, 0.000, 14:44:01.488
32, -317.55, 1.36, 17.52, 18.06, 0.000, 0.000, 0.000, 14:44:01.488
33, 346.05, 10.65, 3.39, 7.00, 0.000, 0.000, 0.000, 14:44:01.509
34, 199.79, 9.24, 2.71, 5.60, 0.000, 0.000, 0.000, 14:44:01.509
35, -423.59, 1.20, 21.13, 17.64, 0.000, 0.000, 0.000, 14:44:01.510
36, 164.50, 3.70, 10.58, 13.28, 0.000, 0.000, 0.000, 14:44:01.510
37, 376.98, 17.37, 4.32, 7.27, 0.000, 0.000, 0.000, 14:44:01.531
38, -321.49, 1.61, 13.37, 11.95, 0.000, 0.000, 0.000, 14:44:01.532
39, -95.03, 0.37, 19.56, 20.84, 0.000, 0.000, 0.000, 14:44:01.532
40, 434.26, 13.41, 0.28, 6.42, 0.000, 0.000, 0.000, 14:44:01.532
41, -81.91, 13.56, 8.18, 8.56, 0.000, 0.000, 0.000, 14:44:01.554
42, -321.28, 2.58, 25.52, 20.32, 0.000, 0.000, 0.000, 14:44:01.555
43, 338.47, 7.81, 3.43, 8.56, 0.000, 0.000, 0.000, 14:44:01.555
44, 186.27, 10.68, 9.09, 7.20, 0.000, 0.000, 0.000, 14:44:01.555
45, -407.27, -1.81, 24.70, 21.22, 0.000, 0.000, 0.000, 14:44:01.577
46, 159.40, 8.25, 8.52, 10.17, 0.000, 0.000, 0.000, 14:44:01.577
47, 393.15, 12.73, 2.99, 2.92, 0.000, 0.000, 0.000, 14:44:01.577
48, -312.02, 4.25, 11.38, 11.88, 0.000, 0.000, 0.000, 14:44:01.578
49, -102.03, -0.65, 15.86, 18.07, 0.000, 0.000, 0.000, 14:44:01.578
50, 425.27, 14.48, 2.03, 6.57, 0.000, 0.000, 0.000, 14:44:01.578
51, -105.04, 13.71, 7.29, 9.64, 0.000, 0.000, 0.000, 14:44:01.599
52, -305.02, -3.32, 23.82, 22.58, 0.000, 0.000, 0.000, 14:44:01.599
53, 342.48, 12.97, 9.47, 9.15, 0.000, 0.000, 0.000, 14:44:01.599
54, 197.67, 13.91, 5.48, 3.68, 0.000, 0.000, 0.000, 14:44:01.600
55, -401.52, 7.34, 19.89, 19.02, 0.000, 0.000, 0.000, 14:44:01.622
56, 184.98, 5.29, 11.32, 9.55, 0.000, 0.000, 0.000, 14:44:01.622
57, 419.60, 12.27, 8.17, 6.86, 0.000, 0.000, 0.000, 14:44:01.622
58, -311.10, 7.56, 14.67, 16.09, 0.000, 0.000, 0.000, 14:44:01.623
59, -107.15, -1.06, 12.08, 16.91, 0.000, 0.000, 0.000, 14:44:01.644
60, 425.46, 19.64, 4.70, 7.10, 0.000, 0.000, 0.000, 14:44:01.644
61, -97.18, 7.41, 7.82, 10.65, 0.000, 0.000, 0.000, 14:44:01.644
62, -329.70, -3.89, 20.33, 19.77, 0.000, 0.000, 0.000, 14:44:01.645
63, 324.70, 13.53, 5.66, 10.51, 0.000, 0.000, 0.000, 14:44:01.666
64, 200.96, 16.48, 4.59, 4.48, 0.000, 0.000, 0.000, 14:44:01.667
65, -419.02, 0.76, 19.92, 20.67, 0.000, 0.000, 0.000, 14:44:01.667
66, 139.00, 7.75, 8.78, 7.56, 0.000, 0.000, 0.000, 14:44:01.667
67, 379.89, 16.60, 2.23, 7.57, 0.000, 0.000, 0.000, 14:44:01.667
68, -323.28, 7.67, 12.56, 14.56, 0.000, 0.000, 0.000, 14:44:01.668
69, -98.97, 3.46, 21.51, 17.39, 0.000, 0.000, 0.000, 14:44:01.689
70, 426.75, 12.69, 3.48, 5.81, 0.000, 0.000, 0.000, 14:44:01.689
71, -61.29, 8.95, 9.48, 10.54, 0.000, 0.000, 0.000, 14:44:01.690
72, -329.02, 0.49, 21.31, 21.48, 0.000, 0.000, 0.000, 14:44:01.690
73, 335.33, 16.54, 6.91, 11.72, 0.000, 0.000, 0.000, 14:44:01.712
74, 227.55, 9.39, 7.82, 10.14, 0.000, 0.000, 0.000, 14:44:01.712
75, -414.52, 2.62, 24.13, 16.09, 0.000, 0.000, 0.000, 14:44:01.712
76, 150.24, 6.18, 16.82, 14.63, 0.000, 0.000, 0.000, 14:44:01.713
77, 399.15, 18.52, 3.67, 5.98, 0.000, 0.000, 0.000, 14:44:01.734
78, -305.78, 11.66, 11.62, 14.90, 0.000, 0.000, 0.000, 14:44:01.734
79, -139.83, -0.57, 17.37, 13.25, 0.000, 0.000, 0.000, 14:44:01.735
80, 454.80, 17.37, 3.35, 2.79, 0.000, 0.000, 0.000, 14:44:01.735
81, -62.79, 13.95, 6.50, 11.88, 0.000, 0.000, 0.000, 14:44:01.757
82, -331.87, -0.61, 20.22, 17.58, 0.000, 0.000, 0.000, 14:44:01.757
83, 330.17, 11.80, 0.62, 6.05, 0.000, 0.000, 0.000, 14:44:01.757
84, 233.94, 14.66, 6.18, 8.01, 0.000, 0.000, 0.000, 14:44:01.758
85, -420.56, 1.38, 20.58, 19.70, 0.000, 0.000, 0.000, 14:44:01.758
86, 143.32, 7.04, 10.60, 12.81, 0.000, 0.000, 0.000, 14:44:01.758
87, 396.55, 14.51, 5.50, 10.31, 0.000, 0.000, 0.000, 14:44:01.779
88, -312.48, 4.93, 13.67, 14.20, 0.000, 0.000, 0.000, 14:44:01.779
89, -117.15, 2.41, 18.47, 18.22, 0.000, 0.000, 0.000, 14:44:01.780
90, 440.23, 11.66, 1.30, 5.91, 0.000, 0.000, 0.000, 14:44:01.780
91, -69.04, 9.30, 9.84, 9.97, 0.000, 0.000, 0.000, 14:44:01.802
92, -312.42, -0.27, 21.81, 21.27, 0.000, 0.000, 0.000, 14:44:01.802
93, 320.65, 11.03, 6.27, 5.99, 0.000, 0.000, 0.000, 14:44:01.802
94, 200.97, 10.60, 6.25, 6.51, 0.000, 0.000, 0.000, 14:44:01.802
95, -399.12, 2.19, 17.10, 23.27, 0.000, 0.000, 0.000, 14:44:01.824
96, 147.29, 13.47, 10.68, 10.49, 0.000, 0.000, 0.000, 14:44:01.825
97, 391.72, 8.04, 2.46, 8.86, 0.000, 0.000, 0.000, 14:44:01.825
98, -294.62, 1.64, 14.71, 14.18, 0.000, 0.000, 0.000, 14:44:01.825
99, -111.52, 0.99, 17.78, 14.77, 0.000, 0.000, 0.000, 14:44:01.847
100, 429.50, 16.83, 0.76, 6.74, 0.000, 0.000, 0.000, 14:44:01.847
101, -59.37, 11.14, 8.03, 10.55, 0.000, 0.000, 0.000, 14:44:01.847
102, -316.32, 2.56, 19.87, 17.34, 0.000, 0.000, 0.000, 14:44:01.848
103, 304.72, 9.81, 6.11, 9.50, 0.000, 0.000, 0.000, 14:44:01.848
104, 244.00, 17.86, 4.85, 5.34, 0.000, 0.000, 0.000, 14:44:01.848
105, -411.20, 4.48, 17.14, 19.61, 0.000, 0.000, 0.000, 14:44:01.870
106, 138.56, 4.60, 10.94, 14.50, 0.000, 0.000, 0.000, 14:44:01.870
107, 395.38, 18.69, 8.04, 5.73, 0.000, 0.000, 0.000, 14:44:01.870
108, -282.00, 11.25, 14.59, 14.07, 0.000, 0.000, 0.000, 14:44:01.871
109, -129.80, 2.42, 17.22, 18.60, 0.000, 0.000, 0.000, 14:44:01.891
110, 432.33, 10.14, 5.09, 7.10, 0.000, 0.000, 0.000, 14:44:01.892
111, -64.32, 11.60, 11.24, 8.36, 0.000, 0.000, 0.000, 14:44:01.892
112, -339.15, -0.64, 18.75, 20.52, 0.000, 0.000, 0.000, 14:44:01.892
113, 324.87, 12.05, 4.06, 7.94, 0.000, 0.000, 0.000, 14:44:01.914
114, 232.33, 16.92, 7.40, 7.84, 0.000, 0.000, 0.000, 14:44:01.914
115, -433.98, -2.24, 19.07, 15.92, 0.000, 0.000, 0.000, 14:44:01.914
116, 127.83, 5.50, 11.08, 15.40, 0.000, 0.000, 0.000, 14:44:01.915
117, 401.76, 12.20, 0.80, 6.52, 0.000, 0.000, 0.000, 14:44:01.937
118, -290.07, 7.71, 12.39, 14.63, 0.000, 0.000, 0.000, 14:44:01.937
119, -118.88, -1.36, 15.93, 16.49, 0.000, 0.000, 0.000, 14:44:01.937
120, 436.66, 17.71, 2.79, 4.39, 0.000, 0.000, 0.000, 14:44:01.938
121, -64.57, 12.61, 12.20, 9.60, 0.000, 0.000, 0.000, 14:44:01.938
122, -361.55, 0.06, 20.53, 19.18, 0.000, 0.000, 0.000, 14:44:01.938
123, 285.74, 15.23, 8.10, 7.33, 0.000, 0.000, 0.000, 14:44:01.959
124, 250.55, 11.11, 6.40, 10.24, 0.000, 0.000, 0.000, 14:44:01.959
125, -391.98, 1.43, 21.56, 17.37, 0.000, 0.000, 0.000, 14:44:01.959
126, 202.68, 9.50, 7.83, 9.94, 0.000, 0.000, 0.000, 14:44:01.960
127, 402.86, 16.92, 2.17, 4.26, 0.000, 0.000, 0.000, 14:44:01.982
128, -326.49, 4.83, 10.81, 9.22, 0.000, 0.000, 0.000, 14:44:01.982
129, -172.66, 1.30, 17.87, 18.56, 0.000, 0.000, 0.000, 14:44:01.982
130, 416.82, 16.89, 5.13, 10.32, 0.000, 0.000, 0.000, 14:44:01.982
131, -10.17, 12.25, 10.16, 13.22, 0.000, 0.000, 0.000, 14:44:02.004
132, -286.80, 4.94, 21.33, 17.32, 0.000, 0.000, 0.000, 14:44:02.004
133, 329.67, 5.32, 8.76, 12.34, 0.000, 0.000, 0.000, 14:44:02.005
134, 134.60, 18.66, 5.64, 5.71, 0.000, 0.000, 0.000, 14:44:02.005
135, -477.21, 2.63, 16.05, 15.60, 0.000, 0.000, 0.000, 14:44:02.026
136, 52.28, 7.22, 13.21, 13.16, 0.000, 0.000, 0.000, 14:44:02.027
137, 385.28, 12.37, 2.75, 4.47, 0.000, 0.000, 0.000, 14:44:02.027
138, -249.51, 9.70, 11.22, 11.21, 0.000, 0.000, 0.000, 14:44:02.027
139, -126.15, 0.27, 19.67, 16.10, 0.000, 0.000, 0.000, 14:44:02.028
140, 366.80, 12.91, 6.21, 7.52, 0.000, 0.000, 0.000, 14:44:02.028
141, -46.29, 13.13, 10.91, 9.76, 0.000, 0.000, 0.000, 14:44:02.049
142, -226.31, -0.99, 22.53, 22.22, 0.000, 0.000, 0.000, 14:44:02.049
143, 323.26, 15.94, 4.41, 7.46, 0.000, 0.000, 0.000, 14:44:02.050
144, 277.16, 12.81, 3.07, 6.16, 0.000, 0.000, 0.000, 14:44:02.050
145, -375.44, 1.82, 19.05, 15.72, 0.000, 0.000, 0.000, 14:44:02.072
146, 31.71, 3.68, 13.32, 17.51, 0.000, 0.000, 0.000, 14:44:02.072
147, 353.07, 16.69, 3.09, 7.99, 0.000, 0.000, 0.000, 14:44:02.072
148, -189.01, 11.22, 11.82, 14.25, 0.000, 0.000, 0.000, 14:44:02.073
149, -9.24, 2.38, 17.36, 17.47, 0.000, 0.000, 0.000, 14:44:02.094
150, 347.10, 17.72, 3.80, 5.01, 0.000, 0.000, 0.000, 14:44:02.094
151, -292.68, 3.33, 6.20, 9.92, 0.000, 0.000, 0.000, 14:44:02.094
152, -500.22, -1.09, 21.02, 17.63, 0.000, 0.000, 0.000, 14:44:02.095
153, 478.41, 11.87, 4.80, 7.27, 0.000, 0.000, 0.000, 14:44:02.117
154, 437.02, 16.46, 1.69, 3.51, 0.000, 0.000, 0.000, 14:44:02.117
155, -401.33, 1.89, 18.66, 18.80, 0.000, 0.000, 0.000, 14:44:02.117
156, -112.42, 4.59, 13.47, 13.67, 0.000, 0.000, 0.000, 14:44:02.118
157, 187.52, 12.98, 2.53, 5.59, 0.000, 0.000, 0.000, 14:44:02.118
158, -349.82, 7.34, 15.57, 10.85, 0.000, 0.000, 0.000, 14:44:02.118
159, 52.58, 4.80, 19.51, 20.25, 0.000, 0.000, 0.000, 14:44:02.139
160, 655.78, 12.77, 7.74, 11.32, 0.000, 0.000, 0.000, 14:44:02.139
161, -10.61, 12.51, 6.67, 8.58, 0.000, 0.000, 0.000, 14:44:02.140
162, -437.64, 0.81, 20.74, 22.26, 0.000, 0.000, 0.000, 14:44:02.140
163, 353.92, 7.46, 10.86, 13.05, 0.000, 0.000, 0.000, 14:44:02.161
164, 372.34, 14.05, 1.46, 6.33, 0.000, 0.000, 0.000, 14:44:02.162
165, -358.98, 4.93, 18.88, 19.70, 0.000, 0.000, 0.000, 14:44:02.162
166, 10.86, 4.48, 14.65, 14.06, 0.000, 0.000, 0.000, 14:44:02.162
167, 219.10, 18.50, 2.82, 3.08, 0.000, 0.000, 0.000, 14:44:02.184
168, -459.23, 11.85, 13.18, 11.22, 0.000, 0.000, 0.000, 14:44:02.184
169, -93.18, -4.27, 16.94, 14.05, 0.000, 0.000, 0.000, 14:44:02.185
170, 501.38, 11.92, 5.16, 6.63, 0.000, 0.000, 0.000, 14:44:02.185
171, -214.83, 11.18, 8.65, 7.37, 0.000, 0.000, 0.000, 14:44:02.206
172, -543.52, -3.03, 24.05, 17.56, 0.000, 0.000, 0.000, 14:44:02.207
173, 428.33, 10.79, 7.15, 9.26, 0.000, 0.000, 0.000, 14:44:02.207
174, 273.94, 17.38, 6.22, 8.36, 0.000, 0.000, 0.000, 14:44:02.207
175, -242.10, 0.88, 15.04, 15.46, 0.000, 0.000, 0.000, 14:44:02.208
176, 204.59, 4.29, 11.15, 10.11, 0.000, 0.000, 0.000, 14:44:02.208
177, 400.15, 18.88, 5.30, 4.97, 0.000, 0.000, 0.000, 14:44:02.229
178, -288.10, 6.99, 12.93, 13.14, 0.000, 0.000, 0.000, 14:44:02.229
179, -165.63, 4.56, 17.79, 20.83, 0.000, 0.000, 0.000, 14:44:02.230
180, 518.16, 13.01, 5.36, 6.84, 0.000, 0.000, 0.000, 14:44:02.230
181, 49.38, 9.71, 8.80, 11.11, 0.000, 0.000, 0.000, 14:44:02.252
182, -476.53, -4.74, 24.76, 21.67, 0.000, 0.000, 0.000, 14:44:02.252
183, 234.92, 8.89, 5.61, 10.76, 0.000, 0.000, 0.000, 14:44:02.252
184, 244.37, 15.44, 3.34, 5.36, 0.000, 0.000, 0.000, 14:44:02.252
185, -541.17, 2.98, 19.73, 17.73, 0.000, 0.000, 0.000, 14:44:02.274
186, 118.02, 6.68, 9.61, 13.48, 0.000, 0.000, 0.000, 14:44:02.274
187, 473.52, 10.43, 4.00, 5.25, 0.000, 0.000, 0.000, 14:44:02.275
188, -289.63, 9.55, 10.75, 11.10, 0.000, 0.000, 0.000, 14:44:02.275
189, -108.26, 0.24, 18.03, 21.90, 0.000, 0.000, 0.000, 14:44:02.297
190, 272.60, 16.56, 4.40, 4.09, 0.000, 0.000, 0.000, 14:44:02.297
191, 37.30, 12.99, 2.42, 13.64, 0.000, 0.000, 0.000, 14:44:02.297
192, -256.56, 2.67, 17.03, 17.09, 0.000, 0.000, 0.000, 14:44:02.297
193, 515.29, 8.58, 11.07, 6.98, 0.000, 0.000, 0.000, 14:44:02.298
194, 220.20, 11.99, 0.18, 5.32, 0.000, 0.000, 0.000, 14:44:02.298
195, -500.90, 3.17, 14.08, 15.79, 0.000, 0.000, 0.000, 14:44:02.320
196, 167.08, 4.68, 13.08, 14.72, 0.000, 0.000, 0.000, 14:44:02.320
197, 445.82, 12.76, 5.26, 5.47, 0.000, 0.000, 0.000, 14:44:02.320
198, -337.32, 6.64, 15.23, 12.85, 0.000, 0.000, 0.000, 14:44:02.321
199, -276.80, 0.78, 18.76, 17.00, 0.000, 0.000, 0.000, 14:44:02.342
200, 380.09, 12.88, 5.47, 8.40, 0.000, 0.000, 0.000, 14:44:02.342
0, 64.65, 15.72, 7.08, 12.13, 0.000, 0.000, 0.000, 14:44:02.342
1, -415.85, 2.14, 21.32, 22.36, 0.000, 0.000, 0.000, 14:44:02.343
2, 49.38, 10.59, 7.56, 10.84, 0.000, 0.000, 0.000, 14:44:02.343
3, 433.57, 19.16, 3.46, 9.02, 0.000, 0.000, 0.000, 14:44:02.365
4, -386.83, -3.28, 20.75, 18.21, 0.000, 0.000, 0.000, 14:44:02.365
5, 125.12, 8.61, 12.59, 10.76, 0.000, 0.000, 0.000, 14:44:02.365
6, 441.30, 13.88, 7.74, 8.08, 0.000, 0.000, 0.000, 14:44:02.365
7, -374.35, 6.96, 15.30, 11.71, 0.000, 0.000, 0.000, 14:44:02.387
8, -30.55, 0.80, 20.27, 22.78, 0.000, 0.000, 0.000, 14:44:02.387
9, 660.01, 15.37, 7.69, 6.22, 0.000, 0.000, 0.000, 14:44:02.390
10, 10.63, 12.45, 5.56, 7.65, 0.000, 0.000, 0.000, 14:44:02.390
11, -410.80, -2.52, 19.37, 19.53, 0.000, 0.000, 0.000, 14:44:02.409
12, 171.37, 17.87, 2.55, 7.21, 0.000, 0.000, 0.000, 14:44:02.409
13, 157.57, 11.83, 7.66, 7.36, 0.000, 0.000, 0.000, 14:44:02.410
14, -335.53, 3.52, 19.00, 16.92, 0.000, 0.000, 0.000, 14:44:02.410
15, -17.44, 5.55, 16.92, 11.43, 0.000, 0.000, 0.000, 14:44:02.431
16, 450.67, 12.38, -0.08, 4.71, 0.000, 0.000, 0.000, 14:44:02.432
17, -226.22, 11.17, 8.56, 11.97, 0.000, 0.000, 0.000, 14:44:02.432
18, -202.29, -0.50, 19.72, 15.06, 0.000, 0.000, 0.000, 14:44:02.432
19, 300.92, 15.86, 5.22, 6.43, 0.000, 0.000, 0.000, 14:44:02.433
20, -8.11, 12.99, 7.19, 11.60, 0.000, 0.000, 0.000, 14:44:02.433
21, -272.13, 0.12, 24.61, 18.52, 0.000, 0.000, 0.000, 14:44:02.454
22, 506.76, 5.74, 7.10, 12.24, 0.000, 0.000, 0.000, 14:44:02.454
23, 355.60, 16.99, 4.04, 7.15, 0.000, 0.000, 0.000, 14:44:02.455
24, -570.46, 3.01, 19.44, 19.30, 0.000, 0.000, 0.000, 14:44:02.455
25, 4.96, 3.68, 12.32, 11.10, 0.000, 0.000, 0.000, 14:44:02.476
26, 442.90, 12.15, 5.40, 4.58, 0.000, 0.000, 0.000, 14:44:02.477
27, -215.43, 11.87, 13.43, 11.43, 0.000, 0.000, 0.000, 14:44:02.477
28, -137.79, -0.01, 17.67, 17.82, 0.000, 0.000, 0.000, 14:44:02.477
29, 231.72, 13.13, 4.69, 8.16, 0.000, 0.000, 0.000, 14:44:02.499
30, -130.83, 15.38, 8.61, 10.18, 0.000, 0.000, 0.000, 14:44:02.499
31, -218.41, -4.31, 23.25, 22.09, 0.000, 0.000, 0.000, 14:44:02.500
32, 316.20, 10.83, 3.38, 9.09, 0.000, 0.000, 0.000, 14:44:02.500
33, 256.12, 13.60, 7.01, 6.77, 0.000, 0.000, 0.000, 14:44:02.521
34, -425.52, 5.47, 14.84, 18.42, 0.000, 0.000, 0.000, 14:44:02.522
35, 124.28, 3.17, 12.89, 11.98, 0.000, 0.000, 0.000, 14:44:02.522
36, 493.05, 18.66, 1.90, 5.21, 0.000, 0.000, 0.000, 14:44:02.522
37, -257.14, 8.30, 12.18, 12.69, 0.000, 0.000, 0.000, 14:44:02.523
38, -36.26, 0.76, 19.17, 18.43, 0.000, 0.000, 0.000, 14:44:02.523
39, 377.74, 19.53, 4.73, 6.38, 0.000, 0.000, 0.000, 14:44:02.544
40, -80.99, 9.40, 6.24, 11.45, 0.000, 0.000, 0.000, 14:44:02.544
41, -417.19, -1.48, 19.02, 20.61, 0.000, 0.000, 0.000, 14:44:02.545
42, 339.71, 10.54, 9.33, 9.33, 0.000, 0.000, 0.000, 14:44:02.545
43, 275.04, 17.31, 7.12, 11.60, 0.000, 0.000, 0.000, 14:44:02.567
44, -417.68, 1.01, 16.64, 16.69, 0.000, 0.000, 0.000, 14:44:02.567
45, -65.85, 4.71, 13.93, 14.66, 0.000, 0.000, 0.000, 14:44:02.567
46, 364.66, 10.77, 4.86, 5.20, 0.000, 0.000, 0.000, 14:44:02.567
47, -189.11, 8.77, 13.55, 12.65, 0.000, 0.000, 0.000, 14:44:02.589
48, -66.02, 4.37, 16.26, 17.16, 0.000, 0.000, 0.000, 14:44:02.589
49, 429.96, 9.61, 2.37, 6.34, 0.000, 0.000, 0.000, 14:44:02.590
50, -27.57, 16.83, 4.97, 10.07, 0.000, 0.000, 0.000, 14:44:02.590
51, -223.45, 1.28, 20.08, 19.97, 0.000, 0.000, 0.000, 14:44:02.611
52, 254.51, 9.46, 10.42, 7.63, 0.000, 0.000, 0.000, 14:44:02.612
53, 315.89, 13.62, 6.00, 2.50, 0.000, 0.000, 0.000, 14:44:02.612
54, -356.45, 2.47, 17.74, 18.28, 0.000, 0.000, 0.000, 14:44:02.612
55, 51.58, 4.71, 14.53, 11.12, 0.000, 0.000, 0.000, 14:44:02.613
56, 411.65, 18.41, 3.24, 5.94, 0.000, 0.000, 0.000, 14:44:02.613
57, -282.96, 13.06, 14.93, 17.75, 0.000, 0.000, 0.000, 14:44:02.634
58, -333.62, 1.24, 20.50, 20.25, 0.000, 0.000, 0.000, 14:44:02.634
59, 206.51, 9.89, 2.41, 4.10, 0.000, 0.000, 0.000, 14:44:02.634
60, 133.57, 12.50, 7.47, 8.96, 0.000, 0.000, 0.000, 14:44:02.635
61, -334.88, -2.51, 24.18, 20.60, 0.000, 0.000, 0.000, 14:44:02.656
62, 227.98, 7.80, 7.20, 9.03, 0.000, 0.000, 0.000, 14:44:02.657
63, 255.35, 11.82, 4.69, 6.27, 0.000, 0.000, 0.000, 14:44:02.657
64, -227.36, 0.97, 17.99, 16.58, 0.000, 0.000, 0.000, 14:44:02.657
65, 69.36, 6.26, 12.34, 15.62, 0.000, 0.000, 0.000, 14:44:02.679
66, 530.16, 18.61, 1.54, 6.51, 0.000, 0.000, 0.000, 14:44:02.679
67, -276.11, 3.80, 10.76, 13.96, 0.000, 0.000, 0.000, 14:44:02.680
68, -229.28, 1.32, 17.42, 18.56, 0.000, 0.000, 0.000, 14:44:02.680
69, 498.31, 9.34, 2.89, 10.31, 0.000, 0.000, 0.000, 14:44:02.702
70, -4.66, 14.95, 7.98, 8.46, 0.000, 0.000, 0.000, 14:44:02.702
71, -357.54, 0.47, 22.32, 16.10, 0.000, 0.000, 0.000, 14:44:02.702
72, 244.31, 15.05, 7.37, 7.26, 0.000, 0.000, 0.000, 14:44:02.702
73, 265.58, 13.93, 7.85, 8.58, 0.000, 0.000, 0.000, 14:44:02.703
74, -430.60, 2.63, 19.34, 16.81, 0.000, 0.000, 0.000, 14:44:02.703
75, 32.49, 6.37, 13.36, 14.21, 0.000, 0.000, 0.000, 14:44:02.724
76, 430.75, 11.93, 5.27, 2.79, 0.000, 0.000, 0.000, 14:44:02.724
77, -334.06, 7.95, 8.52, 12.94, 0.000, 0.000, 0.000, 14:44:02.724
78, -230.86, 1.34, 15.64, 16.69, 0.000, 0.000, 0.000, 14:44:02.725
79, 363.70, 12.17, 2.29, 6.29, 0.000, 0.000, 0.000, 14:44:02.746
80, 168.92, 14.32, 4.76, 8.72, 0.000, 0.000, 0.000, 14:44:02.747
81, -442.07, -1.81, 23.90, 21.89, 0.000, 0.000, 0.000, 14:44:02.769
82, 477.81, 11.64, 8.41, 11.65, 0.000, 0.000, 0.000, 14:44:02.769
83, 301.76, 15.96, 1.83, 5.58, 0.000, 0.000, 0.000, 14:44:02.769
84, -448.54, 0.27, 17.93, 19.86, 0.000, 0.000, 0.000, 14:44:02.770
85, 113.66, 11.12, 13.18, 10.80, 0.000, 0.000, 0.000, 14:44:02.770
86, 562.07, 14.77, 5.65, 3.55, 0.000, 0.000, 0.000, 14:44:02.771
87, -249.35, 7.97, 10.31, 11.18, 0.000, 0.000, 0.000, 14:44:02.792
88, -282.40, 3.68, 18.01, 17.97, 0.000, 0.000, 0.000, 14:44:02.792
89, 353.95, 11.46, 4.78, 9.71, 0.000, 0.000, 0.000, 14:44:02.792
90, 115.42, 8.56, 4.48, 9.56, 0.000, 0.000, 0.000, 14:44:02.793
91, -408.59, -2.11, 23.39, 23.58, 0.000, 0.000, 0.000, 14:44:02.793
92, -40.25, 15.15, 5.66, 8.10, 0.000, 0.000, 0.000, 14:44:02.793
93, 328.77, 18.36, 6.80, 6.24, 0.000, 0.000, 0.000, 14:44:02.814
94, -231.22, -0.71, 18.12, 12.18, 0.000, 0.000, 0.000, 14:44:02.814
95, 72.48, 3.19, 12.86, 13.31, 0.000, 0.000, 0.000, 14:44:02.814
96, 493.56, 16.27, 3.82, 7.55, 0.000, 0.000, 0.000, 14:44:02.814
97, -189.05, 4.94, 12.41, 11.10, 0.000, 0.000, 0.000, 14:44:02.837
98, -289.00, -0.51, 19.48, 18.29, 0.000, 0.000, 0.000, 14:44:02.837
99, 299.82, 12.62, 3.75, 8.21, 0.000, 0.000, 0.000, 14:44:02.837
100, 210.07, 11.96, 1.38, 6.20, 0.000, 0.000, 0.000, 14:44:02.837
101, -305.21, 3.62, 22.37, 18.59, 0.000, 0.000, 0.000, 14:44:02.859
102, 280.33, 14.03, 8.34, 10.45, 0.000, 0.000, 0.000, 14:44:02.859
103, 314.91, 10.63, 5.42, 8.52, 0.000, 0.000, 0.000, 14:44:02.859
104, -488.12, 0.56, 19.61, 18.33, 0.000, 0.000, 0.000, 14:44:02.860
105, 6.54, 5.11, 15.17, 14.73, 0.000, 0.000, 0.000, 14:44:02.882
106, 402.87, 17.53, 5.39, 5.72, 0.000, 0.000, 0.000, 14:44:02.882
107, -272.26, 8.04, 10.28, 13.43, 0.000, 0.000, 0.000, 14:44:02.882
108, -81.45, 2.30, 21.56, 17.79, 0.000, 0.000, 0.000, 14:44:02.882
109, 353.29, 13.78, 1.80, 5.42, 0.000, 0.000, 0.000, 14:44:02.883
110, 3.71, 13.65, 6.19, 5.68, 0.000, 0.000, 0.000, 14:44:02.883
111, -455.79, 2.01, 21.64, 18.80, 0.000, 0.000, 0.000, 14:44:02.904
112, 307.33, 10.14, 7.10, 10.72, 0.000, 0.000, 0.000, 14:44:02.904
113, 354.36, 17.40, 5.18, 5.05, 0.000, 0.000, 0.000, 14:44:02.905
114, -339.88, 2.25, 16.96, 14.93, 0.000, 0.000, 0.000, 14:44:02.905
115, 76.70, 4.36, 16.06, 16.52, 0.000, 0.000, 0.000, 14:44:02.927
116, 354.12, 10.21, 6.88, 10.02, 0.000, 0.000, 0.000, 14:44:02.927
117, -244.43, 10.77, 13.46, 13.73, 0.000, 0.000, 0.000, 14:44:02.927
118, -179.06, 0.13, 22.42, 17.88, 0.000, 0.000, 0.000, 14:44:02.928
119, 418.69, 15.70, 3.44, 7.37, 0.000, 0.000, 0.000, 14:44:02.949
120, 66.46, 19.63, 7.07, 7.22, 0.000, 0.000, 0.000, 14:44:02.950
121, -384.61, -5.81, 23.05, 16.98, 0.000, 0.000, 0.000, 14:44:02.950
122, 271.17, 11.62, 11.81, 9.05, 0.000, 0.000, 0.000, 14:44:02.950
123, 281.41, 11.53, 2.01, 9.67, 0.000, 0.000, 0.000, 14:44:02.971
124, -436.31, 1.58, 17.80, 15.57, 0.000, 0.000, 0.000, 14:44:02.972
125, -20.84, 3.03, 10.77, 16.43, 0.000, 0.000, 0.000, 14:44:02.972
126, 318.77, 14.43, 7.10, 4.34, 0.000, 0.000, 0.000, 14:44:02.972
127, -236.53, 3.53, 7.86, 12.50, 0.000, 0.000, 0.000, 14:44:02.973
128, -205.11, 1.45, 21.50, 20.60, 0.000, 0.000, 0.000, 14:44:02.973
129, 535.13, 18.84, 2.27, 6.54, 0.000, 0.000, 0.000, 14:44:02.994
130, 59.13, 12.21, 4.60, 8.25, 0.000, 0.000, 0.000, 14:44:02.995
131, -475.58, -0.22, 18.39, 21.72, 0.000, 0.000, 0.000, 14:44:02.995
132, 256.06, 9.41, 8.04, 8.37, 0.000, 0.000, 0.000, 14:44:02.995
133, 463.62, 15.42, 5.49, 8.15, 0.000, 0.000, 0.000, 14:44:03.016
134, -308.09, 2.29, 15.65, 16.13, 0.000, 0.000, 0.000, 14:44:03.017
135, 40.49, 6.41, 12.78, 13.85, 0.000, 0.000, 0.000, 14:44:03.017
136, 388.63, 13.08, 5.10, 2.03, 0.000, 0.000, 0.000, 14:44:03.017
137, -282.09, 6.54, 11.72, 9.66, 0.000, 0.000, 0.000, 14:44:03.039
138, -241.20, 6.86, 20.13, 17.85, 0.000, 0.000, 0.000, 14:44:03.039
139, 456.56, 10.37, 5.83, 6.25, 0.000, 0.000, 0.000, 14:44:03.040
140, 51.56, 17.04, 6.74, 6.66, 0.000, 0.000, 0.000, 14:44:03.040
141, -435.79, -5.72, 21.87, 22.24, 0.000, 0.000, 0.000, 14:44:03.062
142, 33.61, 7.56, 4.49, 11.50, 0.000, 0.000, 0.000, 14:44:03.062
143, 348.25, 12.73, 1.97, 7.79, 0.000, 0.000, 0.000, 14:44:03.062
144, -257.97, 3.57, 15.07, 18.34, 0.000, 0.000, 0.000, 14:44:03.062
145, 68.99, 6.75, 13.54, 15.64, 0.000, 0.000, 0.000, 14:44:03.063
146, 414.47, 14.65, 5.70, 7.25, 0.000, 0.000, 0.000, 14:44:03.063
147, -410.58, 12.97, 11.15, 10.58, 0.000, 0.000, 0.000, 14:44:03.084
148, -49.48, -0.14, 19.04, 16.85, 0.000, 0.000, 0.000, 14:44:03.085
149, 482.10, 13.10, 9.67, 10.25, 0.000, 0.000, 0.000, 14:44:03.085
150, 21.57, 13.96, 8.05, 9.37, 0.000, 0.000, 0.000, 14:44:03.085
151, -213.30, 0.71, 17.75, 21.19, 0.000, 0.000, 0.000, 14:44:03.107
152, 257.60, 8.53, 9.96, 10.65, 0.000, 0.000, 0.000, 14:44:03.107
153, 171.06, 17.18, 4.94, 7.18, 0.000, 0.000, 0.000, 14:44:03.107
154, -338.66, 3.88, 15.62, 18.35, 0.000, 0.000, 0.000, 14:44:03.107
155, -72.80, 2.01, 12.84, 13.29, 0.000, 0.000, 0.000, 14:44:03.129
156, 293.83, 17.56, 6.58, 5.00, 0.000, 0.000, 0.000, 14:44:03.129
157, -43.49, 1.83, 12.26, 9.49, 0.000, 0.000, 0.000, 14:44:03.130
158, -219.99, -1.96, 19.19, 19.04, 0.000, 0.000, 0.000, 14:44:03.130
159, 327.14, 15.44, 3.31, 4.40, 0.000, 0.000, 0.000, 14:44:03.151
160, 84.00, 17.01, 8.60, 10.51, 0.000, 0.000, 0.000, 14:44:03.152
161, -483.80, 0.40, 21.13, 21.30, 0.000, 0.000, 0.000, 14:44:03.152
162, 325.96, 9.34, 9.49, 5.28, 0.000, 0.000, 0.000, 14:44:03.153
163, 376.05, 14.34, 5.62, 5.98, 0.000, 0.000, 0.000, 14:44:03.153
164, -355.17, 4.74, 17.60, 14.38, 0.000, 0.000, 0.000, 14:44:03.153
165, -11.90, 8.07, 16.27, 18.47, 0.000, 0.000, 0.000, 14:44:03.175
166, 450.88, 11.91, 4.06, 8.98, 0.000, 0.000, 0.000, 14:44:03.175
167, -272.03, 8.47, 12.67, 11.52, 0.000, 0.000, 0.000, 14:44:03.176
168, -123.78, 2.73, 18.36, 17.78, 0.000, 0.000, 0.000, 14:44:03.176
169, 300.36, 12.89, 1.68, 5.31, 0.000, 0.000, 0.000, 14:44:03.197
170, 41.60, 15.41, 4.53, 10.47, 0.000, 0.000, 0.000, 14:44:03.197
171, -275.81, -1.17, 18.50, 23.65, 0.000, 0.000, 0.000, 14:44:03.197
172, 196.57, 7.21, 8.35, 9.48, 0.000, 0.000, 0.000, 14:44:03.197
173, 173.80, 15.51, 3.67, 3.44, 0.000, 0.000, 0.000, 14:44:03.219
174, -354.60, 7.21, 15.67, 10.25, 0.000, 0.000, 0.000, 14:44:03.219
175, 188.52, -0.30, 12.03, 12.20, 0.000, 0.000, 0.000, 14:44:03.220
176, 371.39, 15.93, 4.17, 9.11, 0.000, 0.000, 0.000, 14:44:03.220
177, -159.93, 12.85, 11.71, 9.09, 0.000, 0.000, 0.000, 14:44:03.242
178, -177.20, -1.39, 16.39, 19.98, 0.000, 0.000, 0.000, 14:44:03.242
179, 414.92, 11.06, 0.53, 4.17, 0.000, 0.000, 0.000, 14:44:03.242
180, -3.78, 14.48, 5.68, 6.71, 0.000, 0.000, 0.000, 14:44:03.242
181, -431.70, 1.31, 22.17, 19.82, 0.000, 0.000, 0.000, 14:44:03.243
182, 219.70, 10.96, 11.16, 12.19, 0.000, 0.000, 0.000, 14:44:03.243
183, 332.84, 12.94, 5.51, 11.37, 0.000, 0.000, 0.000, 14:44:03.264
184, -333.10, 1.06, 20.01, 21.96, 0.000, 0.000, 0.000, 14:44:03.264
185, 61.37, 7.70, 14.40, 12.92, 0.000, 0.000, 0.000, 14:44:03.264
186, 395.21, 12.67, 6.40, 5.22, 0.000, 0.000, 0.000, 14:44:03.264
187, -330.02, 8.62, 9.33, 10.22, 0.000, 0.000, 0.000, 14:44:03.286
188, -182.83, -2.03, 18.09, 20.06, 0.000, 0.000, 0.000, 14:44:03.287
189, 475.35, 16.30, 5.72, 1.95, 0.000, 0.000, 0.000, 14:44:03.287
190, 113.21, 16.95, 6.07, 8.60, 0.000, 0.000, 0.000, 14:44:03.287
191, -485.07, 1.59, 19.59, 23.08, 0.000, 0.000, 0.000, 14:44:03.309
192, 272.99, 15.98, 9.50, 10.57, 0.000, 0.000, 0.000, 14:44:03.310
193, 283.99, 10.16, 3.73, 5.85, 0.000, 0.000, 0.000, 14:44:03.310
194, -276.88, 4.32, 14.20, 13.47, 0.000, 0.000, 0.000, 14:44:03.310
195, -12.79, 5.46, 13.22, 16.87, 0.000, 0.000, 0.000, 14:44:03.332
196, 442.02, 15.72, 1.90, 5.54, 0.000, 0.000, 0.000, 14:44:03.332
197, -169.47, 9.09, 12.47, 11.22, 0.000, 0.000, 0.000, 14:44:03.332
198, -215.80, -0.68, 19.15, 19.26, 0.000, 0.000, 0.000, 14:44:03.332
199, 286.83, 13.55, 4.04, 3.10, 0.000, 0.000, 0.000, 14:44:03.333
200, -74.54, 14.80, 6.92, 4.40, 0.000, 0.000, 0.000, 14:44:03.333
0, -252.52, 2.52, 25.41, 18.55, 0.000, 0.000, 0.000, 14:44:03.354
1, 275.37, 7.05, 7.35, 12.02, 0.000, 0.000, 0.000, 14:44:03.354
2, 307.51, 13.24, 2.22, 11.82, 0.000, 0.000, 0.000, 14:44:03.355
3, -414.04, 1.68, 17.43, 17.39, 0.000, 0.000, 0.000, 14:44:03.377
4, 12.75, -1.65, 16.70, 16.21, 0.000, 0.000, 0.000, 14:44:03.377
5, 475.54, 11.99, 6.65, 5.23, 0.000, 0.000, 0.000, 14:44:03.377
6, -177.47, 11.79, 12.24, 11.19, 0.000, 0.000, 0.000, 14:44:03.377
7, -273.30, 0.83, 19.19, 22.11, 0.000, 0.000, 0.000, 14:44:03.378
8, 351.63, 13.02, 8.35, 6.37, 0.000, 0.000, 0.000, 14:44:03.378
9, 148.89, 14.17, 8.51, 8.81, 0.000, 0.000, 0.000, 14:44:03.399
10, -340.50, -2.89, 18.05, 20.08, 0.000, 0.000, 0.000, 14:44:03.400
11, 255.47, 12.35, 2.20, 9.28, 0.000, 0.000, 0.000, 14:44:03.400
12, 325.63, 14.38, 4.57, 8.48, 0.000, 0.000, 0.000, 14:44:03.400
13, -379.45, 3.52, 15.52, 14.58, 0.000, 0.000, 0.000, 14:44:03.421
14, -22.35, -0.96, 13.42, 18.11, 0.000, 0.000, 0.000, 14:44:03.422
15, 434.63, 17.57, 4.80, 6.00, 0.000, 0.000, 0.000, 14:44:03.422
16, -183.01, 11.92, 12.10, 8.43, 0.000, 0.000, 0.000, 14:44:03.422
17, -253.38, 0.20, 20.28, 18.68, 0.000, 0.000, 0.000, 14:44:03.444
18, 390.07, 14.78, 4.30, 7.67, 0.000, 0.000, 0.000, 14:44:03.444
19, 97.93, 13.84, 8.00, 9.51, 0.000, 0.000, 0.000, 14:44:03.445
20, -401.73, -2.58, 17.94, 21.41, 0.000, 0.000, 0.000, 14:44:03.445
21, 261.15, 14.00, 7.84, 11.09, 0.000, 0.000, 0.000, 14:44:03.467
22, 332.17, 17.21, 6.31, 11.43, 0.000, 0.000, 0.000, 14:44:03.467
23, -384.29, 2.23, 15.78, 16.91, 0.000, 0.000, 0.000, 14:44:03.467
24, 2.31, 6.73, 14.19, 15.38, 0.000, 0.000, 0.000, 14:44:03.468
25, 427.42, 12.84, 3.58, 6.51, 0.000, 0.000, 0.000, 14:44:03.468
26, -192.10, 8.86, 9.78, 10.26, 0.000, 0.000, 0.000, 14:44:03.468
27, -230.14, -0.35, 18.28, 17.96, 0.000, 0.000, 0.000, 14:44:03.489
28, 358.83, 9.59, 5.19, 4.23, 0.000, 0.000, 0.000, 14:44:03.490
29, 110.30, 17.31, 5.59, 9.10, 0.000, 0.000, 0.000, 14:44:03.490
30, -377.19, -0.18, 21.25, 18.03, 0.000, 0.000, 0.000, 14:44:03.490
31, 232.25, 11.86, 8.15, 9.56, 0.000, 0.000, 0.000, 14:44:03.511
32, 313.40, 14.96, 4.84, 5.91, 0.000, 0.000, 0.000, 14:44:03.512
33, -361.46, 6.07, 15.47, 15.77, 0.000, 0.000, 0.000, 14:44:03.512
34, -12.14, 8.73, 15.79, 13.66, 0.000, 0.000, 0.000, 14:44:03.512
35, 456.90, 11.34, 8.14, 8.66, 0.000, 0.000, 0.000, 14:44:03.534
36, -177.85, 11.92, 8.40, 14.52, 0.000, 0.000, 0.000, 14:44:03.534
37, -258.93, -5.13, 18.93, 20.20, 0.000, 0.000, 0.000, 14:44:03.535
38, 385.43, 14.05, 5.96, 6.40, 0.000, 0.000, 0.000, 14:44:03.535
39, 99.12, 10.02, 7.44, 7.53, 0.000, 0.000, 0.000, 14:44:03.556
40, -392.72, 1.42, 23.19, 19.10, 0.000, 0.000, 0.000, 14:44:03.557
41, 238.63, 7.39, 5.51, 7.55, 0.000, 0.000, 0.000, 14:44:03.557
42, 344.25, 14.29, 4.26, 6.29, 0.000, 0.000, 0.000, 14:44:03.557
43, -366.34, 2.50, 18.85, 16.17, 0.000, 0.000, 0.000, 14:44:03.558
44, -19.73, 3.95, 13.30, 14.90, 0.000, 0.000, 0.000, 14:44:03.558
45, 438.43, 14.48, 2.80, 7.88, 0.000, 0.000, 0.000, 14:44:03.579
46, -164.68, 8.17, 7.79, 13.04, 0.000, 0.000, 0.000, 14:44:03.579
47, -281.81, 2.28, 22.21, 20.53, 0.000, 0.000, 0.000, 14:44:03.580
48, 391.30, 10.97, 6.67, 6.43, 0.000, 0.000, 0.000, 14:44:03.580
49, 117.55, 15.99, 7.35, 6.45, 0.000, 0.000, 0.000, 14:44:03.601
50, -395.38, -0.65, 18.51, 16.68, 0.000, 0.000, 0.000, 14:44:03.602
51, 240.14, 9.70, 6.46, 6.72, 0.000, 0.000, 0.000, 14:44:03.602
52, 350.12, 17.13, 6.17, 5.28, 0.000, 0.000, 0.000, 14:44:03.602
53, -356.58, 5.89, 14.94, 16.47, 0.000, 0.000, 0.000, 14:44:03.624
54, 15.24, 4.67, 18.24, 18.95, 0.000, 0.000, 0.000, 14:44:03.624
55, 465.73, 8.87, 4.71, 9.49, 0.000, 0.000, 0.000, 14:44:03.625
56, -161.31, 11.50, 15.49, 9.50, 0.000, 0.000, 0.000, 14:44:03.625
57, -275.36, -2.33, 20.16, 18.65, 0.000, 0.000, 0.000, 14:44:03.646
58, 365.00, 11.13, 2.30, 4.43, 0.000, 0.000, 0.000, 14:44:03.647
59, 98.71, 18.08, 4.67, 6.38, 0.000, 0.000, 0.000, 14:44:03.647
60, -421.66, 2.50, 15.69, 18.24, 0.000, 0.000, 0.000, 14:44:03.647
61, 199.67, 8.02, 11.64, 11.97, 0.000, 0.000, 0.000, 14:44:03.648
62, 350.98, 11.32, 3.91, 6.63, 0.000, 0.000, 0.000, 14:44:03.648
63, -376.96, 6.96, 16.74, 16.59, 0.000, 0.000, 0.000, 14:44:03.669
64, -36.62, 2.16, 16.92, 12.60, 0.000, 0.000, 0.000, 14:44:03.669
65, 447.31, 13.99, 6.64, 8.45, 0.000, 0.000, 0.000, 14:44:03.669
66, -186.14, 11.31, 8.76, 10.69, 0.000, 0.000, 0.000, 14:44:03.670
67, -251.65, -2.83, 18.38, 16.43, 0.000, 0.000, 0.000, 14:44:03.691
68, 384.39, 7.41, 5.90, 8.06, 0.000, 0.000, 0.000, 14:44:03.692
69, 100.82, 15.08, 6.28, 6.93, 0.000, 0.000, 0.000, 14:44:03.692
70, -386.90, -1.10, 21.35, 19.69, 0.000, 0.000, 0.000, 14:44:03.692
71, 228.21, 6.83, 11.15, 10.29, 0.000, 0.000, 0.000, 14:44:03.714
72, 346.69, 19.41, 7.13, 11.40, 0.000, 0.000, 0.000, 14:44:03.714
73, -362.31, -0.02, 11.67, 14.21, 0.000, 0.000, 0.000, 14:44:03.714
74, -43.27, 4.72, 14.24, 16.69, 0.000, 0.000, 0.000, 14:44:03.715
75, 445.07, 15.04, 3.24, 1.85, 0.000, 0.000, 0.000, 14:44:03.736
76, -161.56, 9.71, 9.50, 12.08, 0.000, 0.000, 0.000, 14:44:03.736
77, -286.06, -0.48, 19.33, 16.86, 0.000, 0.000, 0.000, 14:44:03.737
78, 399.87, 11.56, -0.11, 4.70, 0.000, 0.000, 0.000, 14:44:03.737
79, 112.20, 15.07, 2.80, 5.80, 0.000, 0.000, 0.000, 14:44:03.738
80, -402.79, 2.63, 23.14, 22.28, 0.000, 0.000, 0.000, 14:44:03.738
81, 217.10, 12.57, 8.26, 12.14, 0.000, 0.000, 0.000, 14:44:03.759
82, 356.92, 13.30, 5.72, 12.61, 0.000, 0.000, 0.000, 14:44:03.759
83, -342.56, 4.00, 20.64, 17.69, 0.000, 0.000, 0.000, 14:44:03.759
84, -30.38, 2.39, 18.07, 14.61, 0.000, 0.000, 0.000, 14:44:03.760
85, 441.65, 13.54, 4.48, 7.04, 0.000, 0.000, 0.000, 14:44:03.782
86, -146.35, 9.73, 11.05, 11.15, 0.000, 0.000, 0.000, 14:44:03.782
87, -262.85, -1.13, 20.11, 21.12, 0.000, 0.000, 0.000, 14:44:03.782
88, 357.04, 12.18, 4.03, 9.42, 0.000, 0.000, 0.000, 14:44:03.782
89, 146.62, 13.79, 5.05, 5.48, 0.000, 0.000, 0.000, 14:44:03.804
90, -420.22, 4.02, 22.95, 17.51, 0.000, 0.000, 0.000, 14:44:03.804
91, 215.00, 5.99, 6.87, 11.45, 0.000, 0.000, 0.000, 14:44:03.805
92, 362.30, 15.56, 4.97, 5.57, 0.000, 0.000, 0.000, 14:44:03.805
93, -365.84, 5.77, 17.51, 17.55, 0.000, 0.000, 0.000, 14:44:03.826
94, -41.68, 6.48, 12.57, 20.02, 0.000, 0.000, 0.000, 14:44:03.827
95, 429.19, 16.94, 5.29, 3.90, 0.000, 0.000, 0.000, 14:44:03.827
96, -149.01, 11.83, 8.44, 10.29, 0.000, 0.000, 0.000, 14:44:03.827
97, -238.38, -0.48, 18.48, 16.41, 0.000, 0.000, 0.000, 14:44:03.828
98, 387.23, 14.97, 0.47, 2.54, 0.000, 0.000, 0.000, 14:44:03.828
99, 130.77, 15.93, 7.12, 8.73, 0.000, 0.000, 0.000, 14:44:03.849
100, -393.84, 1.78, 19.46, 23.24, 0.000, 0.000, 0.000, 14:44:03.849
101, 188.53, 4.31, 9.47, 9.33, 0.000, 0.000, 0.000, 14:44:03.871
102, 375.06, 17.13, 5.26, 6.23, 0.000, 0.000, 0.000, 14:44:03.872
103, -336.81, 5.93, 15.80, 10.52, 0.000, 0.000, 0.000, 14:44:03.872
104, -33.05, 1.04, 19.26, 17.58, 0.000, 0.000, 0.000, 14:44:03.872
105, 429.59, 14.02, 5.74, 6.11, 0.000, 0.000, 0.000, 14:44:03.873
106, -134.66, 9.20, 8.72, 13.28, 0.000, 0.000, 0.000, 14:44:03.873
107, -283.54, 0.20, 17.81, 23.14, 0.000, 0.000, 0.000, 14:44:03.894
108, 378.30, 17.94, 4.88, 4.41, 0.000, 0.000, 0.000, 14:44:03.894
109, 139.22, 11.35, 4.70, 6.62, 0.000, 0.000, 0.000, 14:44:03.894
110, -407.59, 0.56, 17.75, 17.45, 0.000, 0.000, 0.000, 14:44:03.895
111, 209.21, 7.17, 9.19, 8.89, 0.000, 0.000, 0.000, 14:44:03.917
112, 353.75, 13.16, 1.91, 4.39, 0.000, 0.000, 0.000, 14:44:03.917
113, -358.57, 3.18, 14.40, 14.15, 0.000, 0.000, 0.000, 14:44:03.917
114, -60.79, -0.88, 16.64, 15.54, 0.000, 0.000, 0.000, 14:44:03.917
115, 421.77, 14.64, 5.22, 8.02, 0.000, 0.000, 0.000, 14:44:03.918
116, -131.43, 9.77, 12.10, 11.47, 0.000, 0.000, 0.000, 14:44:03.918
117, -284.73, 3.64, 23.69, 19.55, 0.000, 0.000, 0.000, 14:44:03.939
118, 381.72, 12.20, 4.70, 7.06, 0.000, 0.000, 0.000, 14:44:03.939
119, 158.52, 14.47, 2.91, 5.40, 0.000, 0.000, 0.000, 14:44:03.939
120, -412.27, 0.67, 20.93, 18.49, 0.000, 0.000, 0.000, 14:44:03.940
121, 189.96, 8.47, 8.06, 11.34, 0.000, 0.000, 0.000, 14:44:03.961
122, 364.30, 15.07, 7.05, 5.80, 0.000, 0.000, 0.000, 14:44:03.962
123, -363.85, 2.92, 14.54, 13.68, 0.000, 0.000, 0.000, 14:44:03.962
124, -67.89, 0.59, 15.77, 17.13, 0.000, 0.000, 0.000, 14:44:03.962
125, 445.48, 12.52, 5.84, 6.15, 0.000, 0.000, 0.000, 14:44:03.984
126, -133.78, 17.56, 8.39, 10.35, 0.000, 0.000, 0.000, 14:44:03.984
127, -286.21, -5.77, 18.03, 16.15, 0.000, 0.000, 0.000, 14:44:03.985
128, 355.65, 13.61, 7.35, 8.05, 0.000, 0.000, 0.000, 14:44:03.985
129, 155.38, 15.18, 5.14, 10.67, 0.000, 0.000, 0.000, 14:44:04.007
130, -421.21, -0.93, 21.96, 24.58, 0.000, 0.000, 0.000, 14:44:04.007
131, 205.28, 6.89, 9.34, 9.87, 0.000, 0.000, 0.000, 14:44:04.007
132, 362.05, 21.38, 5.41, 6.30, 0.000, 0.000, 0.000, 14:44:04.007
133, -351.26, 5.85, 15.65, 15.47, 0.000, 0.000, 0.000, 14:44:04.008
134, -59.40, 3.96, 13.44, 12.78, 0.000, 0.000, 0.000, 14:44:04.008
135, 441.77, 15.43, 5.26, 7.07, 0.000, 0.000, 0.000, 14:44:04.029
136, -128.77, 6.84, 9.03, 10.49, 0.000, 0.000, 0.000, 14:44:04.029
137, -304.58, 0.57, 24.45, 17.55, 0.000, 0.000, 0.000, 14:44:04.029
138, 369.20, 12.87, 4.45, 7.16, 0.000, 0.000, 0.000, 14:44:04.030
139, 145.41, 15.45, 8.68, 9.22, 0.000, 0.000, 0.000, 14:44:04.051
140, -409.03, -0.98, 19.46, 22.42, 0.000, 0.000, 0.000, 14:44:04.052
141, 188.04, 7.10, 5.93, 9.74, 0.000, 0.000, 0.000, 14:44:04.052
142, 369.44, 16.84, 3.99, 5.25, 0.000, 0.000, 0.000, 14:44:04.052
143, -339.62, 1.97, 19.04, 17.29, 0.000, 0.000, 0.000, 14:44:04.074
144, -56.54, 5.75, 20.89, 15.60, 0.000, 0.000, 0.000, 14:44:04.074
145, 429.31, 10.74, 3.04, 8.25, 0.000, 0.000, 0.000, 14:44:04.074
146, -131.76, 11.41, 8.78, 11.94, 0.000, 0.000, 0.000, 14:44:04.075
147, -287.48, 0.21, 22.39, 18.62, 0.000, 0.000, 0.000, 14:44:04.097
148, 358.81, 14.61, 1.44, 0.97, 0.000, 0.000, 0.000, 14:44:04.097
149, 174.28, 9.57, 4.50, 6.07, 0.000, 0.000, 0.000, 14:44:04.097
150, -419.82, 5.39, 18.29, 18.86, 0.000, 0.000, 0.000, 14:44:04.097
151, 193.31, 7.82, 11.20, 10.10, 0.000, 0.000, 0.000, 14:44:04.098
152, 372.11, 13.91, 3.49, 6.77, 0.000, 0.000, 0.000, 14:44:04.098
153, -348.98, 13.44, 16.22, 18.08, 0.000, 0.000, 0.000, 14:44:04.119
154, -92.93, -2.49, 15.01, 14.09, 0.000, 0.000, 0.000, 14:44:04.119
155, 438.86, 13.81, 1.74, 9.79, 0.000, 0.000, 0.000, 14:44:04.119
156, -103.43, 12.85, 9.24, 9.64, 0.000, 0.000, 0.000, 14:44:04.119
157, -289.48, 0.92, 19.41, 17.11, 0.000, 0.000, 0.000, 14:44:04.141
158, 365.73, 7.78, 8.59, 14.88, 0.000, 0.000, 0.000, 14:44:04.142
159, 169.60, 13.40, 2.68, 6.13, 0.000, 0.000, 0.000, 14:44:04.142
160, -412.25, 1.23, 20.55, 20.29, 0.000, 0.000, 0.000, 14:44:04.142
161, 179.63, 11.32, 8.82, 11.14, 0.000, 0.000, 0.000, 14:44:04.164
162, 361.94, 19.23, 3.89, 3.57, 0.000, 0.000, 0.000, 14:44:04.165
163, -346.61, 1.39, 13.95, 16.58, 0.000, 0.000, 0.000, 14:44:04.165
164, -69.98, 0.46, 20.80, 15.10, 0.000, 0.000, 0.000, 14:44:04.165
165, 432.89, 14.18, 4.57, 6.46, 0.000, 0.000, 0.000, 14:44:04.186
166, -114.34, 7.71, 8.90, 11.48, 0.000, 0.000, 0.000, 14:44:04.187
167, -290.37, -3.77, 21.02, 21.91, 0.000, 0.000, 0.000, 14:44:04.187
168, 353.75, 12.17, 9.04, 9.81, 0.000, 0.000, 0.000, 14:44:04.187
169, 178.56, 17.20, 4.52, 11.41, 0.000, 0.000, 0.000, 14:44:04.188
170, -409.46, 1.79, 19.77, 18.01, 0.000, 0.000, 0.000, 14:44:04.188
171, 184.14, 14.58, 9.26, 12.45, 0.000, 0.000, 0.000, 14:44:04.209
172, 353.65, 11.85, 3.28, 7.74, 0.000, 0.000, 0.000, 14:44:04.209
173, -354.49, 5.96, 15.50, 15.89, 0.000, 0.000, 0.000, 14:44:04.209
174, -76.59, 2.74, 18.46, 16.13, 0.000, 0.000, 0.000, 14:44:04.210
175, 466.79, 16.52, 2.34, 4.88, 0.000, 0.000, 0.000, 14:44:04.232
176, -105.86, 11.15, 11.41, 13.72, 0.000, 0.000, 0.000, 14:44:04.232
177, -299.00, 1.94, 23.51, 15.61, 0.000, 0.000, 0.000, 14:44:04.232
178, 361.08, 13.79, 1.53, 4.45, 0.000, 0.000, 0.000, 14:44:04.232
179, 150.25, 13.70, 2.97, 6.89, 0.000, 0.000, 0.000, 14:44:04.254
180, -409.01, 5.21, 18.11, 17.70, 0.000, 0.000, 0.000, 14:44:04.254
181, 189.36, 0.17, 10.76, 10.73, 0.000, 0.000, 0.000, 14:44:04.254
182, 350.38, 13.95, 5.03, 7.46, 0.000, 0.000, 0.000, 14:44:04.255
183, -341.70, 7.88, 13.15, 12.33, 0.000, 0.000, 0.000, 14:44:04.276
184, -69.51, 1.89, 16.33, 16.77, 0.000, 0.000, 0.000, 14:44:04.277
185, 419.61, 11.68, 6.31, 6.43, 0.000, 0.000, 0.000, 14:44:04.277
186, -90.89, 13.21, 8.96, 4.87, 0.000, 0.000, 0.000, 14:44:04.277
187, -294.46, -0.76, 16.77, 17.75, 0.000, 0.000, 0.000, 14:44:04.277
188, 360.39, 9.74, 4.02, 9.33, 0.000, 0.000, 0.000, 14:44:04.277
189, 171.47, 15.02, 6.47, 6.68, 0.000, 0.000, 0.000, 14:44:04.299
190, -402.35, -1.91, 18.82, 20.70, 0.000, 0.000, 0.000, 14:44:04.299
191, 168.94, 7.97, 6.62, 13.15, 0.000, 0.000, 0.000, 14:44:04.299
192, 369.97, 17.03, 7.20, 7.24, 0.000, 0.000, 0.000, 14:44:04.300
193, -339.91, 6.45, 19.11, 14.50, 0.000, 0.000, 0.000, 14:44:04.321
194, -122.97, -2.14, 17.84, 15.43, 0.000, 0.000, 0.000, 14:44:04.322
195, 468.44, 13.88, 3.76, 6.58, 0.000, 0.000, 0.000, 14:44:04.322
196, -83.28, 12.54, 5.17, 8.88, 0.000, 0.000, 0.000, 14:44:04.322
197, -303.22, -4.36, 20.92, 21.75, 0.000, 0.000, 0.000, 14:44:04.344
198, 343.69, 14.74, 2.14, 8.65, 0.000, 0.000, 0.000, 14:44:04.344
199, 193.71, 14.22, 8.58, 10.53, 0.000, 0.000, 0.000, 14:44:04.344
200, -418.63, -1.26, 19.38, 19.03, 0.000, 0.000, 0.000, 14:44:04.345
0, 164.34, 4.27, 9.83, 12.23, 0.000, 0.000, 0.000, 14:44:04.345
1, 384.56, 14.82, 6.86, 8.82, 0.000, 0.000, 0.000, 14:44:04.366
2, -336.30, 6.57, 17.91, 17.69, 0.000, 0.000, 0.000, 14:44:04.367
3, -127.31, 2.88, 18.35, 17.60, 0.000, 0.000, 0.000, 14:44:04.367
4, 442.27, 11.99, 2.23, 7.76, 0.000, 0.000, 0.000, 14:44:04.367
5, -67.56, 9.78, 7.73, 6.68, 0.000, 0.000, 0.000, 14:44:04.389
6, -309.42, 5.84, 19.15, 17.83, 0.000, 0.000, 0.000, 14:44:04.389
7, 353.38, 5.08, 7.69, 9.88, 0.000, 0.000, 0.000, 14:44:04.389
8, 198.56, 18.68, 9.01, 5.33, 0.000, 0.000, 0.000, 14:44:04.390
9, -430.83, 3.15, 22.24, 18.64, 0.000, 0.000, 0.000, 14:44:04.421
10, 163.83, 10.27, 8.35, 11.49, 0.000, 0.000, 0.000, 14:44:04.421
11, 382.05, 12.95, 5.89, 2.63, 0.000, 0.000, 0.000, 14:44:04.422
12, -362.91, 13.32, 12.79, 16.85, 0.000, 0.000, 0.000, 14:44:04.422
13, -79.81, 3.24, 13.51, 15.41, 0.000, 0.000, 0.000, 14:44:04.422
14, 474.27, 15.47, 3.11, 7.00, 0.000, 0.000, 0.000, 14:44:04.422
15, -95.22, 13.74, 3.87, 11.55, 0.000, 0.000, 0.000, 14:44:04.434
16, -314.11, -0.32, 21.76, 19.06, 0.000, 0.000, 0.000, 14:44:04.434
17, 353.83, 10.93, 8.15, 6.92, 0.000, 0.000, 0.000, 14:44:04.435
18, 186.17, 13.65, 9.34, 9.41, 0.000, 0.000, 0.000, 14:44:04.435
19, -414.81, 4.17, 21.60, 19.91, 0.000, 0.000, 0.000, 14:44:04.459
20, 174.63, 5.40, 9.86, 14.67, 0.000, 0.000, 0.000, 14:44:04.459
21, 370.82, 14.86, 6.15, 9.85, 0.000, 0.000, 0.000, 14:44:04.459
22, -342.12, 8.33, 14.07, 13.48, 0.000, 0.000, 0.000, 14:44:04.460
23, -94.54, 1.79, 18.08, 18.87, 0.000, 0.000, 0.000, 14:44:04.479
24, 436.70, 20.93, 6.30, 6.01, 0.000, 0.000, 0.000, 14:44:04.479
25, -70.26, 6.22, 7.95, 8.22, 0.000, 0.000, 0.000, 14:44:04.479
26, -296.10, -1.00, 21.45, 23.44, 0.000, 0.000, 0.000, 14:44:04.480
27, 333.26, 10.06, 3.21, 6.81, 0.000, 0.000, 0.000, 14:44:04.501
28, 196.86, 11.75, 4.93, 8.36, 0.000, 0.000, 0.000, 14:44:04.502
29, -406.50, -2.52, 21.74, 21.54, 0.000, 0.000, 0.000, 14:44:04.502
30, 155.63, 9.04, 9.61, 10.10, 0.000, 0.000, 0.000, 14:44:04.502
31, 380.71, 15.26, 2.20, 7.54, 0.000, 0.000, 0.000, 14:44:04.503
32, -314.83, 4.81, 16.28, 10.32, 0.000, 0.000, 0.000, 14:44:04.503
33, -123.18, 2.39, 16.01, 16.03, 0.000, 0.000, 0.000, 14:44:04.525
34, 450.80, 9.28, 9.15, 12.45, 0.000, 0.000, 0.000, 14:44:04.525
35, -74.73, 9.27, 9.73, 8.28, 0.000, 0.000, 0.000, 14:44:04.525
36, -314.57, -0.62, 19.70, 17.29, 0.000, 0.000, 0.000, 14:44:04.525
37, 344.69, 12.96, 6.96, 5.54, 0.000, 0.000, 0.000, 14:44:04.547
38, 214.72, 14.11, 8.05, 6.69, 0.000, 0.000, 0.000, 14:44:04.547
39, -408.72, 3.53, 19.43, 21.00, 0.000, 0.000, 0.000, 14:44:04.547
40, 140.09, 8.77, 5.79, 13.30, 0.000, 0.000, 0.000, 14:44:04.548
41, 396.54, 15.83, 2.88, 5.96, 0.000, 0.000, 0.000, 14:44:04.569
42, -313.93, 12.49, 10.66, 14.51, 0.000, 0.000, 0.000, 14:44:04.569
43, -132.33, -2.03, 20.35, 16.62, 0.000, 0.000, 0.000, 14:44:04.570
44, 429.17, 17.18, 4.59, 2.12, 0.000, 0.000, 0.000, 14:44:04.570
45, -83.12, 11.98, 6.97, 9.89, 0.000, 0.000, 0.000, 14:44:04.591
46, -314.14, 0.53, 20.69, 25.14, 0.000, 0.000, 0.000, 14:44:04.592
47, 344.29, 11.42, 8.16, 8.56, 0.000, 0.000, 0.000, 14:44:04.592
48, 211.42, 15.98, 7.03, 6.10, 0.000, 0.000, 0.000, 14:44:04.592
49, -437.19, -2.03, 14.86, 18.39, 0.000, 0.000, 0.000, 14:44:04.593
50, 153.30, 4.25, 7.62, 7.72, 0.000, 0.000, 0.000, 14:44:04.593
51, 394.12, 17.85, 4.80, 7.55, 0.000, 0.000, 0.000, 14:44:04.614
52, -328.66, 8.18, 16.36, 15.45, 0.000, 0.000, 0.000, 14:44:04.614
53, -102.39, 1.85, 17.67, 17.98, 0.000, 0.000, 0.000, 14:44:04.615
54, 438.40, 16.27, 4.16, 5.99, 0.000, 0.000, 0.000, 14:44:04.615
55, -73.34, 10.85, 9.26, 10.30, 0.000, 0.000, 0.000, 14:44:04.636
56, -327.28, 0.05, 23.74, 21.63, 0.000, 0.000, 0.000, 14:44:04.637
57, 332.74, 11.92, 7.84, 5.79, 0.000, 0.000, 0.000, 14:44:04.637
58, 206.31, 11.03, 2.23, 4.92, 0.000, 0.000, 0.000, 14:44:04.637
59, -415.05, -3.28, 19.25, 21.68, 0.000, 0.000, 0.000, 14:44:04.659
60, 165.94, 11.61, 10.23, 14.44, 0.000, 0.000, 0.000, 14:44:04.659
61, 386.80, 9.83, 4.63, 3.99, 0.000, 0.000, 0.000, 14:44:04.659
62, -315.10, 4.18, 14.91, 13.81, 0.000, 0.000, 0.000, 14:44:04.659
63, -107.66, 0.39, 15.11, 13.02, 0.000, 0.000, 0.000, 14:44:04.681
64, 438.31, 12.52, 3.97, 6.33, 0.000, 0.000, 0.000, 14:44:04.682
65, -45.91, 9.01, 9.09, 8.73, 0.000, 0.000, 0.000, 14:44:04.682
66, -285.32, -3.24, 19.04, 21.31, 0.000, 0.000, 0.000, 14:44:04.682
67, 344.52, 9.86, 0.92, 7.65, 0.000, 0.000, 0.000, 14:44:04.683
68, 218.22, 14.26, 1.67, 5.57, 0.000, 0.000, 0.000, 14:44:04.683
69, -420.81, 5.33, 17.85, 18.26, 0.000, 0.000, 0.000, 14:44:04.704
70, 112.36, 4.02, 12.52, 10.57, 0.000, 0.000, 0.000, 14:44:04.704
71, 378.46, 15.10, 4.55, 8.46, 0.000, 0.000, 0.000, 14:44:04.705
72, -305.22, 8.26, 17.24, 14.10, 0.000, 0.000, 0.000, 14:44:04.705
73, -147.65, 5.26, 17.93, 18.61, 0.000, 0.000, 0.000, 14:44:04.726
74, 430.05, 13.50, 3.47, 7.30, 0.000, 0.000, 0.000, 14:44:04.727
75, -67.64, 14.24, 7.52, 9.82, 0.000, 0.000, 0.000, 14:44:04.727
76, -338.96, -1.52, 23.71, 18.46, 0.000, 0.000, 0.000, 14:44:04.727
77, 326.03, 13.93, 4.54, 10.21, 0.000, 0.000, 0.000, 14:44:04.749
78, 220.87, 18.30, 7.06, 6.78, 0.000, 0.000, 0.000, 14:44:04.749
79, -407.39, -6.39, 21.18, 17.47, 0.000, 0.000, 0.000, 14:44:04.749
80, 137.31, 8.35, 12.06, 11.10, 0.000, 0.000, 0.000, 14:44:04.750
81, 402.46, 17.74, 6.45, 3.87, 0.000, 0.000, 0.000, 14:44:04.771
82, -311.98, 8.60, 13.66, 15.80, 0.000, 0.000, 0.000, 14:44:04.772
83, -150.97, 0.47, 15.31, 15.82, 0.000, 0.000, 0.000, 14:44:04.772
84, 463.53, 15.36, 6.19, 6.33, 0.000, 0.000, 0.000, 14:44:04.772
85, -50.52, 11.22, 7.78, 11.67, 0.000, 0.000, 0.000, 14:44:04.773
86, -328.44, -0.56, 19.92, 19.79, 0.000, 0.000, 0.000, 14:44:04.773
87, 330.73, 14.37, 5.20, 6.34, 0.000, 0.000, 0.000, 14:44:04.794
88, 232.71, 11.57, 5.74, 8.49, 0.000, 0.000, 0.000, 14:44:04.794
89, -428.84, 2.19, 20.79, 19.46, 0.000, 0.000, 0.000, 14:44:04.794
90, 134.41, 5.18, 12.89, 11.03, 0.000, 0.000, 0.000, 14:44:04.795
91, 411.25, 16.91, 3.19, 7.75, 0.000, 0.000, 0.000, 14:44:04.816
92, -297.03, 3.24, 11.64, 10.86, 0.000, 0.000, 0.000, 14:44:04.817
93, -122.27, -0.19, 16.20, 19.12, 0.000, 0.000, 0.000, 14:44:04.817
94, 441.36, 15.91, 4.59, 8.19, 0.000, 0.000, 0.000, 14:44:04.817
95, -61.72, 12.60, 8.84, 11.24, 0.000, 0.000, 0.000, 14:44:04.840
96, -332.80, 4.61, 18.43, 19.74, 0.000, 0.000, 0.000, 14:44:04.840
97, 330.31, 4.94, 8.31, 6.67, 0.000, 0.000, 0.000, 14:44:04.841
98, 225.55, 13.56, 2.98, 5.35, 0.000, 0.000, 0.000, 14:44:04.841
99, -435.12, 5.35, 18.85, 17.54, 0.000, 0.000, 0.000, 14:44:04.862
100, 146.09, 5.36, 12.69, 12.82, 0.000, 0.000, 0.000, 14:44:04.862
101, 411.11, 14.81, 4.07, 8.30, 0.000, 0.000, 0.000, 14:44:04.863
102, -278.35, 6.76, 15.06, 12.78, 0.000, 0.000, 0.000, 14:44:04.863
103, -122.58, 1.21, 12.12, 15.14, 0.000, 0.000, 0.000, 14:44:04.863
104, 436.40, 10.82, 3.15, 4.85, 0.000, 0.000, 0.000, 14:44:04.863
105, -47.75, 15.76, 4.99, 10.60, 0.000, 0.000, 0.000, 14:44:04.884
106, -341.21, -2.23, 22.63, 19.75, 0.000, 0.000, 0.000, 14:44:04.884
107, 311.02, 11.89, 4.32, 9.16, 0.000, 0.000, 0.000, 14:44:04.884
108, 248.06, 15.28, 4.30, 5.33, 0.000, 0.000, 0.000, 14:44:04.885
109, -403.68, 1.40, 18.84, 19.74, 0.000, 0.000, 0.000, 14:44:04.906
110, 137.08, 10.02, 11.39, 12.21, 0.000, 0.000, 0.000, 14:44:04.907
111, 410.26, 15.42, 2.83, 9.84, 0.000, 0.000, 0.000, 14:44:04.907
112, -284.86, 10.30, 13.59, 11.67, 0.000, 0.000, 0.000, 14:44:04.907
113, -147.20, 4.47, 17.68, 16.93, 0.000, 0.000, 0.000, 14:44:04.929
114, 435.66, 13.29, 5.47, 9.00, 0.000, 0.000, 0.000, 14:44:04.930
115, -49.12, 8.08, 7.58, 10.46, 0.000, 0.000, 0.000, 14:44:04.930
116, -350.10, 2.82, 22.62, 17.10, 0.000, 0.000, 0.000, 14:44:04.930
117, 319.64, 12.00, 8.53, 8.45, 0.000, 0.000, 0.000, 14:44:04.951
118, 260.93, 14.26, 9.11, 8.82, 0.000, 0.000, 0.000, 14:44:04.952
119, -423.36, 0.15, 17.69, 20.60, 0.000, 0.000, 0.000, 14:44:04.952
120, 125.71, 3.98, 14.58, 13.36, 0.000, 0.000, 0.000, 14:44:04.952
121, 417.82, 12.73, 3.93, 7.32, 0.000, 0.000, 0.000, 14:44:04.953
122, -307.86, 9.15, 15.29, 9.42, 0.000, 0.000, 0.000, 14:44:04.953
123, -160.30, 0.20, 18.32, 18.54, 0.000, 0.000, 0.000, 14:44:04.974
124, 444.83, 13.50, 3.47, 5.13, 0.000, 0.000, 0.000, 14:44:04.974
125, -36.68, 15.89, 8.28, 10.15, 0.000, 0.000, 0.000, 14:44:04.997
126, -344.48, 0.11, 21.96, 21.98, 0.000, 0.000, 0.000, 14:44:04.997
127, 312.46, 10.70, 6.11, 10.31, 0.000, 0.000, 0.000, 14:44:04.997
128, 231.68, 15.07, 4.71, 7.33, 0.000, 0.000, 0.000, 14:44:04.997
129, -419.06, 1.20, 20.87, 18.38, 0.000, 0.000, 0.000, 14:44:04.998
130, 106.10, 7.54, 15.67, 16.77, 0.000, 0.000, 0.000, 14:44:04.998
131, 408.77, 12.04, 1.41, 6.00, 0.000, 0.000, 0.000, 14:44:05.019
132, -292.77, 11.48, 13.38, 15.14, 0.000, 0.000, 0.000, 14:44:05.019
133, -146.28, -3.43, 15.30, 18.03, 0.000, 0.000, 0.000, 14:44:05.020
134, 431.15, 16.44, 5.34, 7.92, 0.000, 0.000, 0.000, 14:44:05.020
135, -42.61, 11.01, 9.42, 9.09, 0.000, 0.000, 0.000, 14:44:05.041
136, -346.55, 0.83, 21.66, 23.22, 0.000, 0.000, 0.000, 14:44:05.041
137, 309.16, 6.86, 5.23, 9.32, 0.000, 0.000, 0.000, 14:44:05.042
138, 232.49, 12.89, 1.25, 3.09, 0.000, 0.000, 0.000, 14:44:05.042
139, -417.45, 0.19, 19.10, 16.20, 0.000, 0.000, 0.000, 14:44:05.043
140, 114.91, 4.92, 10.31, 9.16, 0.000, 0.000, 0.000, 14:44:05.043
141, 402.49, 18.90, 7.25, 6.82, 0.000, 0.000, 0.000, 14:44:05.064
142, -294.41, 10.32, 11.50, 12.82, 0.000, 0.000, 0.000, 14:44:05.064
143, -140.91, 0.22, 21.33, 19.31, 0.000, 0.000, 0.000, 14:44:05.065
144, 416.80, 15.64, 3.65, 2.37, 0.000, 0.000, 0.000, 14:44:05.065
145, -19.73, 12.30, 7.09, 8.39, 0.000, 0.000, 0.000, 14:44:05.087
146, -346.75, -0.78, 16.45, 18.71, 0.000, 0.000, 0.000, 14:44:05.087
147, 307.88, 8.86, 5.62, 2.75, 0.000, 0.000, 0.000, 14:44:05.087
148, 262.89, 12.93, 3.77, 7.41, 0.000, 0.000, 0.000, 14:44:05.087
149, -408.98, 3.84, 18.02, 18.52, 0.000, 0.000, 0.000, 14:44:05.109
150, 101.71, 8.26, 13.32, 12.54, 0.000, 0.000, 0.000, 14:44:05.109
151, 409.30, 9.43, 7.20, 5.48, 0.000, 0.000, 0.000, 14:44:05.109
152, -281.17, 8.58, 15.91, 11.60, 0.000, 0.000, 0.000, 14:44:05.110
153, -174.76, 5.87, 16.36, 15.71, 0.000, 0.000, 0.000, 14:44:05.131
154, 437.37, 15.54, 3.59, 9.95, 0.000, 0.000, 0.000, 14:44:05.132
155, -13.60, 10.57, 4.90, 7.44, 0.000, 0.000, 0.000, 14:44:05.132
156, -368.00, -0.27, 22.76, 22.90, 0.000, 0.000, 0.000, 14:44:05.132
157, 308.52, 12.71, 13.62, 8.86, 0.000, 0.000, 0.000, 14:44:05.133
158, 250.77, 13.58, 8.05, 5.94, 0.000, 0.000, 0.000, 14:44:05.133
159, -427.16, 3.15, 17.69, 18.16, 0.000, 0.000, 0.000, 14:44:05.154
160, 112.55, 3.75, 10.25, 13.98, 0.000, 0.000, 0.000, 14:44:05.154
161, 427.90, 15.95, 1.22, 7.24, 0.000, 0.000, 0.000, 14:44:05.155
162, -278.99, 3.86, 12.39, 14.50, 0.000, 0.000, 0.000, 14:44:05.155
163, -161.73, 1.76, 19.29, 18.86, 0.000, 0.000, 0.000, 14:44:05.177
164, 445.68, 12.50, 4.87, 9.37, 0.000, 0.000, 0.000, 14:44:05.177
165, -37.52, 13.14, 6.12, 8.21, 0.000, 0.000, 0.000, 14:44:05.177
166, -366.22, -2.43, 20.53, 16.95, 0.000, 0.000, 0.000, 14:44:05.177
167, 328.07, 11.46, 7.35, 5.69, 0.000, 0.000, 0.000, 14:44:05.199
168, 249.43, 17.31, 4.04, 11.34, 0.000, 0.000, 0.000, 14:44:05.199
169, -421.75, -3.43, 16.72, 20.48, 0.000, 0.000, 0.000, 14:44:05.199
170, 96.73, 3.27, 11.80, 12.57, 0.000, 0.000, 0.000, 14:44:05.200
171, 420.25, 13.28, 2.02, 6.08, 0.000, 0.000, 0.000, 14:44:05.222
172, -270.81, 10.55, 15.63, 8.78, 0.000, 0.000, 0.000, 14:44:05.222
173, -155.82, 1.91, 18.77, 18.35, 0.000, 0.000, 0.000, 14:44:05.222
174, 427.67, 18.14, 2.17, 3.52, 0.000, 0.000, 0.000, 14:44:05.222
175, -14.07, 11.29, 6.21, 10.50, 0.000, 0.000, 0.000, 14:44:05.223
176, -346.67, -4.14, 20.91, 16.95, 0.000, 0.000, 0.000, 14:44:05.223
177, 293.07, 13.85, 8.33, 10.06, 0.000, 0.000, 0.000, 14:44:05.244
178, 255.59, 12.49, 7.88, 9.26, 0.000, 0.000, 0.000, 14:44:05.244
179, -405.92, 3.21, 17.21, 18.68, 0.000, 0.000, 0.000, 14:44:05.244
180, 101.25, 6.28, 9.16, 15.00, 0.000, 0.000, 0.000, 14:44:05.244
181, 417.18, 18.73, 0.66, 7.88, 0.000, 0.000, 0.000, 14:44:05.266
182, -258.32, 9.53, 15.43, 14.87, 0.000, 0.000, 0.000, 14:44:05.267
183, -165.09, 3.17, 20.86, 17.53, 0.000, 0.000, 0.000, 14:44:05.267
184, 425.00, 14.26, 5.34, 4.49, 0.000, 0.000, 0.000, 14:44:05.267
185, -13.90, 13.88, 3.64, 8.23, 0.000, 0.000, 0.000, 14:44:05.289
186, -359.56, 2.93, 19.19, 19.89, 0.000, 0.000, 0.000, 14:44:05.289
187, 295.27, 14.00, 6.52, 10.17, 0.000, 0.000, 0.000, 14:44:05.289
188, 248.61, 13.18, 6.87, 6.23, 0.000, 0.000, 0.000, 14:44:05.290
189, -397.17, -0.19, 18.50, 19.54, 0.000, 0.000, 0.000, 14:44:05.311
190, 95.25, 5.19, 14.71, 14.21, 0.000, 0.000, 0.000, 14:44:05.312
191, 408.73, 15.30, 2.98, 7.65, 0.000, 0.000, 0.000, 14:44:05.312
192, -260.73, 3.49, 9.31, 6.56, 0.000, 0.000, 0.000, 14:44:05.312
193, -170.38, 3.48, 17.50, 18.60, 0.000, 0.000, 0.000, 14:44:05.313
194, 427.98, 11.91, 4.56, 5.93, 0.000, 0.000, 0.000, 14:44:05.313
195, -9.16, 14.99, 12.13, 14.33, 0.000, 0.000, 0.000, 14:44:05.334
