%OpenBCI Raw EEG Data
%
%Sample Rate = 200.0 Hz
%First Column = SampleIndex
%Last Column = Timestamp 
%Other Columns = EEG data in microvolts followed by Accel Data (in G) interleaved with Aux Data
0, 470.40, 8.78, 6.97, 9.34, 0.000, 0.000, 0.000, 15:12:25.994
1, -284.22, 12.80, 6.55, 8.51, 0.000, 0.000, 0.000, 15:12:25.996
2, -272.27, -3.58, 19.87, 20.31, 0.000, 0.000, 0.000, 15:12:25.998
3, 471.73, 15.41, 8.37, 11.38, 0.000, 0.000, 0.000, 15:12:25.999
4, 38.55, 14.94, 4.49, 8.01, 0.000, 0.000, 0.000, 15:12:25.999
5, -505.22, 2.22, 15.95, 16.87, 0.000, 0.000, 0.000, 15:12:26.015
6, 313.14, 5.87, 12.84, 12.05, 0.000, 0.000, 0.000, 15:12:26.016
7, 302.49, 13.48, 3.78, 8.60, 0.000, 0.000, 0.000, 15:12:26.017
8, -479.19, 14.18, 11.73, 10.68, 0.000, 0.000, 0.000, 15:12:26.017
9, 20.58, 2.37, 15.78, 18.09, 0.000, 0.000, 0.000, 15:12:26.018
10, 456.92, 12.16, 6.85, 11.07, 0.000, 0.000, 0.000, 15:12:26.018
11, -282.35, 12.29, 8.10, 11.65, 0.000, 0.000, 0.000, 15:12:26.038
12, -290.61, 1.83, 15.69, 18.97, 0.000, 0.000, 0.000, 15:12:26.038
13, 456.80, 4.16, 7.84, 14.27, 0.000, 0.000, 0.000, 15:12:26.039
14, 25.05, 14.69, 9.28, 4.27, 0.000, 0.000, 0.000, 15:12:26.039
15, -512.08, 3.61, 18.42, 16.85, 0.000, 0.000, 0.000, 15:12:26.066
16, 317.09, 7.50, 16.25, 12.00, 0.000, 0.000, 0.000, 15:12:26.066
17, 310.97, 13.73, 5.44, 6.50, 0.000, 0.000, 0.000, 15:12:26.074
18, -487.54, 6.08, 10.83, 16.27, 0.000, 0.000, 0.000, 15:12:26.075
19, 11.02, -0.70, 19.35, 15.41, 0.000, 0.000, 0.000, 15:12:26.075
20, 468.68, 10.49, 5.46, 9.40, 0.000, 0.000, 0.000, 15:12:26.076
21, -321.81, 17.50, 9.53, 7.66, 0.000, 0.000, 0.000, 15:12:26.082
22, -294.80, -1.89, 18.51, 17.33, 0.000, 0.000, 0.000, 15:12:26.083
23, 495.75, 10.05, 7.96, 11.37, 0.000, 0.000, 0.000, 15:12:26.083
24, 51.48, 10.43, 5.10, 4.20, 0.000, 0.000, 0.000, 15:12:26.084
25, -471.93, 6.69, 14.86, 13.94, 0.000, 0.000, 0.000, 15:12:26.106
26, 350.24, 2.30, 13.33, 14.88, 0.000, 0.000, 0.000, 15:12:26.106
27, 345.64, 12.89, 5.05, 2.91, 0.000, 0.000, 0.000, 15:12:26.107
28, -454.53, 5.82, 11.34, 9.98, 0.000, 0.000, 0.000, 15:12:26.107
29, 52.83, 3.23, 14.13, 14.66, 0.000, 0.000, 0.000, 15:12:26.131
30, 499.27, 22.10, 3.98, 5.39, 0.000, 0.000, 0.000, 15:12:26.131
31, -250.88, 10.79, 9.07, 8.27, 0.000, 0.000, 0.000, 15:12:26.131
32, -271.44, 3.82, 20.90, 18.39, 0.000, 0.000, 0.000, 15:12:26.132
33, 480.71, 8.56, 8.38, 14.01, 0.000, 0.000, 0.000, 15:12:26.151
34, 30.16, 13.59, 7.34, 7.98, 0.000, 0.000, 0.000, 15:12:26.152
35, -524.67, 3.03, 17.87, 14.81, 0.000, 0.000, 0.000, 15:12:26.152
36, 283.94, 5.67, 12.62, 16.85, 0.000, 0.000, 0.000, 15:12:26.153
37, 321.06, 15.94, 5.20, 10.58, 0.000, 0.000, 0.000, 15:12:26.153
38, -498.04, 9.97, 13.10, 14.51, 0.000, 0.000, 0.000, 15:12:26.153
39, 9.48, 7.20, 14.33, 17.99, 0.000, 0.000, 0.000, 15:12:26.174
40, 431.69, 10.32, 0.82, 8.64, 0.000, 0.000, 0.000, 15:12:26.175
41, -316.75, 13.98, 6.55, 6.59, 0.000, 0.000, 0.000, 15:12:26.175
42, -282.50, -0.19, 20.05, 18.71, 0.000, 0.000, 0.000, 15:12:26.175
43, 444.15, 6.17, 10.71, 10.74, 0.000, 0.000, 0.000, 15:12:26.200
44, 50.05, 12.18, 7.57, 4.96, 0.000, 0.000, 0.000, 15:12:26.201
45, -476.32, 2.05, 17.10, 15.92, 0.000, 0.000, 0.000, 15:12:26.201
46, 311.39, 3.60, 12.60, 14.59, 0.000, 0.000, 0.000, 15:12:26.202
47, 271.54, 15.25, 3.40, 7.93, 0.000, 0.000, 0.000, 15:12:26.218
48, -468.29, 11.92, 8.02, 11.19, 0.000, 0.000, 0.000, 15:12:26.218
49, 80.74, -3.57, 20.85, 19.62, 0.000, 0.000, 0.000, 15:12:26.218
50, 479.53, 15.24, 3.68, 9.99, 0.000, 0.000, 0.000, 15:12:26.219
51, -270.76, 12.81, 3.41, 6.41, 0.000, 0.000, 0.000, 15:12:26.242
52, -279.35, 1.02, 18.90, 18.50, 0.000, 0.000, 0.000, 15:12:26.242
53, 454.19, 14.00, 10.46, 8.80, 0.000, 0.000, 0.000, 15:12:26.242
54, 43.70, 16.01, 6.50, 5.77, 0.000, 0.000, 0.000, 15:12:26.243
55, -483.75, 2.79, 18.33, 15.83, 0.000, 0.000, 0.000, 15:12:26.243
56, 295.73, 7.58, 11.21, 10.20, 0.000, 0.000, 0.000, 15:12:26.243
57, 320.89, 16.93, 3.41, 8.19, 0.000, 0.000, 0.000, 15:12:26.263
58, -481.94, 5.61, 12.51, 7.58, 0.000, 0.000, 0.000, 15:12:26.264
59, 13.46, 1.79, 20.23, 17.25, 0.000, 0.000, 0.000, 15:12:26.264
60, 463.27, 14.36, 7.77, 8.88, 0.000, 0.000, 0.000, 15:12:26.265
61, -311.77, 14.14, 6.08, 5.51, 0.000, 0.000, 0.000, 15:12:26.285
62, -275.02, -0.91, 21.90, 19.84, 0.000, 0.000, 0.000, 15:12:26.285
63, 503.09, 7.14, 9.39, 10.79, 0.000, 0.000, 0.000, 15:12:26.285
64, 67.03, 15.91, 6.08, 9.51, 0.000, 0.000, 0.000, 15:12:26.286
65, -485.69, 3.09, 14.77, 18.42, 0.000, 0.000, 0.000, 15:12:26.307
66, 342.78, 6.94, 11.43, 12.87, 0.000, 0.000, 0.000, 15:12:26.308
67, 316.43, 7.25, 6.73, 11.26, 0.000, 0.000, 0.000, 15:12:26.308
68, -499.25, 6.34, 10.27, 16.96, 0.000, 0.000, 0.000, 15:12:26.308
69, 56.45, 2.65, 18.34, 20.23, 0.000, 0.000, 0.000, 15:12:26.330
70, 480.06, 13.92, 5.71, 7.93, 0.000, 0.000, 0.000, 15:12:26.330
71, -265.55, 13.30, 6.72, 7.12, 0.000, 0.000, 0.000, 15:12:26.331
72, -312.62, -0.25, 21.43, 19.39, 0.000, 0.000, 0.000, 15:12:26.331
73, 448.94, 12.72, 10.54, 10.60, 0.000, 0.000, 0.000, 15:12:26.332
74, 47.51, 14.48, 5.28, 5.97, 0.000, 0.000, 0.000, 15:12:26.332
75, -486.44, 4.89, 20.86, 19.62, 0.000, 0.000, 0.000, 15:12:26.352
76, 302.33, 2.37, 14.55, 11.79, 0.000, 0.000, 0.000, 15:12:26.353
77, 306.37, 12.55, 6.43, 7.78, 0.000, 0.000, 0.000, 15:12:26.353
78, -485.70, 9.76, 9.23, 10.58, 0.000, 0.000, 0.000, 15:12:26.353
79, 19.66, -1.77, 18.99, 20.61, 0.000, 0.000, 0.000, 15:12:26.375
80, 444.29, 9.96, 6.89, 7.37, 0.000, 0.000, 0.000, 15:12:26.376
81, -285.77, 13.83, 6.66, 4.41, 0.000, 0.000, 0.000, 15:12:26.376
82, -267.06, 0.55, 18.60, 13.94, 0.000, 0.000, 0.000, 15:12:26.376
83, 447.18, 11.12, 11.80, 8.86, 0.000, 0.000, 0.000, 15:12:26.397
84, 44.95, 20.21, 4.41, 6.99, 0.000, 0.000, 0.000, 15:12:26.398
85, -468.67, -3.11, 15.23, 20.48, 0.000, 0.000, 0.000, 15:12:26.398
86, 338.98, 3.39, 12.80, 14.81, 0.000, 0.000, 0.000, 15:12:26.399
87, 323.54, 12.72, 6.74, 8.13, 0.000, 0.000, 0.000, 15:12:26.420
88, -471.62, 7.69, 12.35, 11.09, 0.000, 0.000, 0.000, 15:12:26.420
89, 7.69, 3.54, 20.24, 14.82, 0.000, 0.000, 0.000, 15:12:26.421
90, 458.55, 12.44, 7.37, 8.10, 0.000, 0.000, 0.000, 15:12:26.421
91, -286.41, 11.10, 6.22, 9.91, 0.000, 0.000, 0.000, 15:12:26.422
92, -308.11, 0.56, 18.76, 17.66, 0.000, 0.000, 0.000, 15:12:26.422
93, 441.09, 11.51, 14.51, 10.78, 0.000, 0.000, 0.000, 15:12:26.442
94, 38.79, 9.63, 1.77, 7.02, 0.000, 0.000, 0.000, 15:12:26.443
95, -495.68, 6.43, 18.30, 21.16, 0.000, 0.000, 0.000, 15:12:26.443
96, 297.79, 7.18, 13.69, 9.80, 0.000, 0.000, 0.000, 15:12:26.444
97, 302.79, 12.32, 5.87, 4.60, 0.000, 0.000, 0.000, 15:12:26.465
98, -476.43, 1.44, 11.44, 15.57, 0.000, 0.000, 0.000, 15:12:26.466
99, 8.88, 0.67, 16.12, 15.03, 0.000, 0.000, 0.000, 15:12:26.466
100, 487.15, 11.21, 4.41, 7.22, 0.000, 0.000, 0.000, 15:12:26.466
101, -260.20, 13.27, 4.97, 7.30, 0.000, 0.000, 0.000, 15:12:26.487
102, -262.44, 6.36, 23.76, 17.73, 0.000, 0.000, 0.000, 15:12:26.488
103, 445.57, 6.40, 7.54, 8.55, 0.000, 0.000, 0.000, 15:12:26.488
104, 54.87, 10.98, 4.74, 8.43, 0.000, 0.000, 0.000, 15:12:26.488
105, -484.72, 0.89, 16.20, 16.11, 0.000, 0.000, 0.000, 15:12:26.510
106, 273.27, 10.88, 13.69, 18.81, 0.000, 0.000, 0.000, 15:12:26.510
107, 275.26, 12.92, 4.14, 8.37, 0.000, 0.000, 0.000, 15:12:26.511
108, -426.10, 13.06, 8.80, 13.91, 0.000, 0.000, 0.000, 15:12:26.511
109, 24.49, 0.54, 18.33, 14.30, 0.000, 0.000, 0.000, 15:12:26.511
110, 438.40, 9.46, 7.49, 6.53, 0.000, 0.000, 0.000, 15:12:26.512
111, -261.37, 15.65, 5.34, 7.48, 0.000, 0.000, 0.000, 15:12:26.532
112, -274.20, -2.97, 15.61, 17.41, 0.000, 0.000, 0.000, 15:12:26.533
113, 475.55, 10.69, 8.70, 8.21, 0.000, 0.000, 0.000, 15:12:26.533
114, 59.90, 16.16, 1.88, 7.43, 0.000, 0.000, 0.000, 15:12:26.534
115, -490.59, 1.81, 16.88, 16.16, 0.000, 0.000, 0.000, 15:12:26.555
116, 255.31, 7.96, 12.21, 13.73, 0.000, 0.000, 0.000, 15:12:26.555
117, 344.39, 16.91, 4.06, 9.29, 0.000, 0.000, 0.000, 15:12:26.555
118, -466.13, 12.70, 9.29, 12.80, 0.000, 0.000, 0.000, 15:12:26.555
119, 21.51, 1.75, 17.21, 14.67, 0.000, 0.000, 0.000, 15:12:26.577
120, 475.52, 14.49, 7.41, 10.40, 0.000, 0.000, 0.000, 15:12:26.578
121, -256.05, 7.93, 4.26, 13.02, 0.000, 0.000, 0.000, 15:12:26.578
122, -301.72, 3.59, 18.79, 15.25, 0.000, 0.000, 0.000, 15:12:26.578
123, 442.17, 8.59, 12.56, 13.31, 0.000, 0.000, 0.000, 15:12:26.600
124, 33.19, 15.69, 4.64, 7.89, 0.000, 0.000, 0.000, 15:12:26.600
125, -472.70, 4.97, 18.18, 17.00, 0.000, 0.000, 0.000, 15:12:26.601
126, 332.60, 4.04, 17.35, 14.49, 0.000, 0.000, 0.000, 15:12:26.603
127, 319.52, 10.27, 5.99, 4.47, 0.000, 0.000, 0.000, 15:12:26.605
128, -469.75, 11.62, 8.33, 13.86, 0.000, 0.000, 0.000, 15:12:26.605
129, -22.76, 3.48, 18.74, 18.52, 0.000, 0.000, 0.000, 15:12:26.623
130, 478.41, 9.80, 8.31, 9.39, 0.000, 0.000, 0.000, 15:12:26.623
131, -266.34, 13.64, 6.61, 7.17, 0.000, 0.000, 0.000, 15:12:26.623
132, -301.29, 2.03, 16.85, 18.14, 0.000, 0.000, 0.000, 15:12:26.623
133, 431.05, 8.74, 8.49, 10.49, 0.000, 0.000, 0.000, 15:12:26.645
134, 59.13, 13.15, 4.22, 2.95, 0.000, 0.000, 0.000, 15:12:26.645
135, -485.04, 5.65, 15.77, 15.20, 0.000, 0.000, 0.000, 15:12:26.646
136, 276.68, 8.01, 16.21, 15.29, 0.000, 0.000, 0.000, 15:12:26.646
137, 327.68, 13.56, 1.70, 7.22, 0.000, 0.000, 0.000, 15:12:26.669
138, -449.28, 11.47, 11.25, 8.31, 0.000, 0.000, 0.000, 15:12:26.669
139, -7.11, -1.22, 20.58, 20.25, 0.000, 0.000, 0.000, 15:12:26.670
140, 443.12, 10.51, 3.33, 10.22, 0.000, 0.000, 0.000, 15:12:26.670
141, -238.32, 16.64, 8.45, 6.01, 0.000, 0.000, 0.000, 15:12:26.690
142, -324.63, 2.43, 24.37, 20.20, 0.000, 0.000, 0.000, 15:12:26.691
143, 480.68, 6.93, 12.01, 12.42, 0.000, 0.000, 0.000, 15:12:26.691
144, 77.87, 16.32, 2.88, 5.96, 0.000, 0.000, 0.000, 15:12:26.691
145, -482.58, -0.45, 14.86, 16.37, 0.000, 0.000, 0.000, 15:12:26.692
146, 299.44, 3.29, 11.85, 11.68, 0.000, 0.000, 0.000, 15:12:26.692
147, 341.16, 18.08, 5.39, 6.22, 0.000, 0.000, 0.000, 15:12:26.712
148, -468.07, 10.13, 10.04, 12.80, 0.000, 0.000, 0.000, 15:12:26.713
149, -4.73, -1.54, 16.68, 19.84, 0.000, 0.000, 0.000, 15:12:26.713
150, 486.29, 9.33, 4.10, 7.44, 0.000, 0.000, 0.000, 15:12:26.713
151, -249.12, 13.00, 4.10, 11.07, 0.000, 0.000, 0.000, 15:12:26.735
152, -274.48, -1.53, 19.41, 21.87, 0.000, 0.000, 0.000, 15:12:26.735
153, 463.32, 7.89, 8.37, 6.72, 0.000, 0.000, 0.000, 15:12:26.736
154, 78.35, 15.16, 3.26, 7.95, 0.000, 0.000, 0.000, 15:12:26.736
155, -515.75, 5.32, 17.82, 17.56, 0.000, 0.000, 0.000, 15:12:26.757
156, 289.63, 9.83, 15.62, 15.68, 0.000, 0.000, 0.000, 15:12:26.758
157, 308.04, 8.47, 3.44, 8.64, 0.000, 0.000, 0.000, 15:12:26.758
158, -471.32, 8.56, 9.21, 7.35, 0.000, 0.000, 0.000, 15:12:26.758
159, -15.55, 3.33, 20.38, 18.09, 0.000, 0.000, 0.000, 15:12:26.780
160, 466.97, 11.26, 6.14, 5.63, 0.000, 0.000, 0.000, 15:12:26.781
161, -248.26, 10.57, 5.06, 6.76, 0.000, 0.000, 0.000, 15:12:26.781
162, -322.85, 1.36, 17.77, 17.76, 0.000, 0.000, 0.000, 15:12:26.781
163, 410.29, 10.91, 10.67, 14.21, 0.000, 0.000, 0.000, 15:12:26.782
164, 89.72, 14.57, 5.76, 4.96, 0.000, 0.000, 0.000, 15:12:26.782
165, -504.62, 4.90, 15.98, 12.66, 0.000, 0.000, 0.000, 15:12:26.802
166, 298.97, -0.62, 15.32, 15.71, 0.000, 0.000, 0.000, 15:12:26.803
167, 344.96, 14.38, 7.16, 5.88, 0.000, 0.000, 0.000, 15:12:26.803
168, -463.04, 10.71, 10.94, 8.99, 0.000, 0.000, 0.000, 15:12:26.804
169, -55.62, 5.20, 19.17, 17.62, 0.000, 0.000, 0.000, 15:12:26.827
170, 498.17, 10.54, 5.69, 8.88, 0.000, 0.000, 0.000, 15:12:26.828
171, -245.49, 13.31, 9.19, 7.67, 0.000, 0.000, 0.000, 15:12:26.828
172, -302.30, 3.56, 19.87, 22.26, 0.000, 0.000, 0.000, 15:12:26.828
173, 452.59, 7.73, 9.43, 10.72, 0.000, 0.000, 0.000, 15:12:26.847
174, 78.41, 19.63, 1.14, 6.06, 0.000, 0.000, 0.000, 15:12:26.848
175, -516.59, -1.18, 14.83, 13.60, 0.000, 0.000, 0.000, 15:12:26.848
176, 293.02, 5.48, 11.77, 12.50, 0.000, 0.000, 0.000, 15:12:26.849
177, 334.89, 13.09, 3.63, 5.46, 0.000, 0.000, 0.000, 15:12:26.870
178, -456.61, 11.01, 6.36, 12.91, 0.000, 0.000, 0.000, 15:12:26.870
179, 5.64, -4.18, 20.40, 21.79, 0.000, 0.000, 0.000, 15:12:26.871
180, 500.60, 11.70, 9.96, 10.29, 0.000, 0.000, 0.000, 15:12:26.871
181, -221.99, 12.44, 7.84, 6.50, 0.000, 0.000, 0.000, 15:12:26.871
182, -309.96, -0.39, 21.41, 20.22, 0.000, 0.000, 0.000, 15:12:26.871
183, 432.43, 13.51, 6.30, 11.63, 0.000, 0.000, 0.000, 15:12:26.893
184, 113.33, 7.99, 3.54, 4.97, 0.000, 0.000, 0.000, 15:12:26.894
185, -505.71, 7.14, 17.53, 14.42, 0.000, 0.000, 0.000, 15:12:26.894
186, 274.90, 4.39, 13.63, 15.85, 0.000, 0.000, 0.000, 15:12:26.895
187, 314.76, 16.19, 4.89, 8.80, 0.000, 0.000, 0.000, 15:12:26.915
188, -489.26, 5.45, 9.80, 10.73, 0.000, 0.000, 0.000, 15:12:26.915
189, -66.19, 4.18, 15.91, 16.01, 0.000, 0.000, 0.000, 15:12:26.916
190, 482.40, 11.98, 9.66, 12.32, 0.000, 0.000, 0.000, 15:12:26.916
191, -244.57, 13.90, 9.24, 9.40, 0.000, 0.000, 0.000, 15:12:26.938
192, -300.22, 3.89, 20.99, 19.29, 0.000, 0.000, 0.000, 15:12:26.939
193, 455.56, 4.42, 7.64, 8.91, 0.000, 0.000, 0.000, 15:12:26.939
194, 93.05, 16.15, 5.57, 5.90, 0.000, 0.000, 0.000, 15:12:26.940
195, -510.72, 4.58, 18.30, 15.15, 0.000, 0.000, 0.000, 15:12:26.962
196, 278.18, 6.79, 12.22, 13.40, 0.000, 0.000, 0.000, 15:12:26.962
197, 349.39, 10.16, 6.95, 5.42, 0.000, 0.000, 0.000, 15:12:26.962
198, -450.21, 5.70, 13.88, 9.89, 0.000, 0.000, 0.000, 15:12:26.963
199, -38.51, 3.20, 13.59, 18.81, 0.000, 0.000, 0.000, 15:12:26.963
200, 501.37, 10.90, 6.33, 7.95, 0.000, 0.000, 0.000, 15:12:26.963
0, -225.57, 16.89, 3.75, 6.05, 0.000, 0.000, 0.000, 15:12:26.984
1, -322.36, -1.13, 15.23, 18.99, 0.000, 0.000, 0.000, 15:12:26.984
2, 432.59, 11.07, 10.08, 6.43, 0.000, 0.000, 0.000, 15:12:26.984
3, 62.78, 17.49, 5.48, 4.38, 0.000, 0.000, 0.000, 15:12:27.006
4, -491.39, 9.21, 15.36, 17.15, 0.000, 0.000, 0.000, 15:12:27.006
5, 298.74, 4.57, 14.11, 15.90, 0.000, 0.000, 0.000, 15:12:27.007
6, 338.90, 8.54, 6.46, 5.92, 0.000, 0.000, 0.000, 15:12:27.007
7, -463.88, 8.25, 13.13, 14.46, 0.000, 0.000, 0.000, 15:12:27.007
8, -25.76, 1.47, 18.57, 22.12, 0.000, 0.000, 0.000, 15:12:27.008
9, 491.35, 18.22, 10.63, 11.12, 0.000, 0.000, 0.000, 15:12:27.027
10, -221.41, 10.53, 5.72, 7.68, 0.000, 0.000, 0.000, 15:12:27.028
11, -314.01, 0.01, 19.67, 20.80, 0.000, 0.000, 0.000, 15:12:27.028
12, 457.96, 8.55, 6.42, 7.35, 0.000, 0.000, 0.000, 15:12:27.029
13, 82.24, 17.10, 4.78, 6.98, 0.000, 0.000, 0.000, 15:12:27.050
14, -518.51, 6.93, 17.84, 16.03, 0.000, 0.000, 0.000, 15:12:27.050
15, 289.23, 8.36, 15.54, 18.48, 0.000, 0.000, 0.000, 15:12:27.051
16, 357.97, 11.30, 4.91, 12.38, 0.000, 0.000, 0.000, 15:12:27.051
17, -444.47, 13.25, 11.65, 15.30, 0.000, 0.000, 0.000, 15:12:27.073
18, -25.09, 4.96, 18.46, 21.18, 0.000, 0.000, 0.000, 15:12:27.073
19, 479.92, 5.29, 4.27, 7.38, 0.000, 0.000, 0.000, 15:12:27.073
20, -221.02, 13.41, 5.81, 7.76, 0.000, 0.000, 0.000, 15:12:27.074
21, -314.70, 0.74, 23.03, 18.25, 0.000, 0.000, 0.000, 15:12:27.098
22, 467.71, 10.83, 5.23, 8.81, 0.000, 0.000, 0.000, 15:12:27.098
23, 91.88, 14.81, 4.38, 6.11, 0.000, 0.000, 0.000, 15:12:27.099
24, -474.48, 4.82, 16.33, 16.45, 0.000, 0.000, 0.000, 15:12:27.099
25, 268.63, 2.75, 17.20, 13.87, 0.000, 0.000, 0.000, 15:12:27.099
26, 348.09, 10.92, 5.42, 6.10, 0.000, 0.000, 0.000, 15:12:27.099
27, -436.25, 14.33, 6.09, 9.03, 0.000, 0.000, 0.000, 15:12:27.118
28, -32.60, -1.26, 15.54, 16.09, 0.000, 0.000, 0.000, 15:12:27.118
29, 501.26, 11.65, 5.98, 8.13, 0.000, 0.000, 0.000, 15:12:27.118
30, -227.28, 12.17, 8.46, 7.92, 0.000, 0.000, 0.000, 15:12:27.119
31, -321.77, -1.07, 19.22, 18.49, 0.000, 0.000, 0.000, 15:12:27.140
32, 446.85, 2.94, 8.15, 7.70, 0.000, 0.000, 0.000, 15:12:27.141
33, 113.95, 13.38, 6.87, 7.55, 0.000, 0.000, 0.000, 15:12:27.141
34, -514.28, 3.50, 16.75, 11.26, 0.000, 0.000, 0.000, 15:12:27.142
35, 274.61, 6.34, 12.40, 14.63, 0.000, 0.000, 0.000, 15:12:27.162
36, 340.11, 21.63, 6.35, 6.94, 0.000, 0.000, 0.000, 15:12:27.163
37, -448.90, 5.72, 10.59, 14.05, 0.000, 0.000, 0.000, 15:12:27.163
38, -35.24, 3.25, 16.65, 17.83, 0.000, 0.000, 0.000, 15:12:27.163
39, 476.01, 7.23, 6.30, 8.12, 0.000, 0.000, 0.000, 15:12:27.185
40, -234.71, 13.26, 5.33, 3.80, 0.000, 0.000, 0.000, 15:12:27.185
41, -337.21, 0.93, 17.73, 17.54, 0.000, 0.000, 0.000, 15:12:27.186
42, 457.54, 12.55, 11.31, 12.57, 0.000, 0.000, 0.000, 15:12:27.186
43, 59.43, 17.06, 4.70, 6.14, 0.000, 0.000, 0.000, 15:12:27.187
44, -512.18, 4.70, 14.09, 14.71, 0.000, 0.000, 0.000, 15:12:27.187
45, 275.70, 6.46, 16.71, 13.46, 0.000, 0.000, 0.000, 15:12:27.207
46, 323.00, 10.23, 7.16, 16.69, 0.000, 0.000, 0.000, 15:12:27.208
47, -457.79, 11.01, 9.77, 11.45, 0.000, 0.000, 0.000, 15:12:27.208
48, -20.65, 1.58, 20.16, 18.23, 0.000, 0.000, 0.000, 15:12:27.209
49, 478.61, 12.54, 7.42, 10.43, 0.000, 0.000, 0.000, 15:12:27.232
50, -219.33, 15.00, 5.02, 6.83, 0.000, 0.000, 0.000, 15:12:27.232
51, -364.51, 1.49, 19.23, 12.62, 0.000, 0.000, 0.000, 15:12:27.233
52, 462.59, 8.65, 11.69, 12.88, 0.000, 0.000, 0.000, 15:12:27.233
53, 83.41, 12.81, 6.84, 7.57, 0.000, 0.000, 0.000, 15:12:27.253
54, -509.48, 10.78, 14.60, 18.60, 0.000, 0.000, 0.000, 15:12:27.253
55, 284.93, 2.29, 15.43, 17.74, 0.000, 0.000, 0.000, 15:12:27.253
56, 314.93, 14.82, 4.97, 13.01, 0.000, 0.000, 0.000, 15:12:27.254
57, -454.96, 9.65, 9.12, 11.72, 0.000, 0.000, 0.000, 15:12:27.275
58, -52.69, 1.93, 18.62, 18.19, 0.000, 0.000, 0.000, 15:12:27.275
59, 452.46, 9.22, 4.55, 9.62, 0.000, 0.000, 0.000, 15:12:27.277
60, -208.57, 11.63, 6.49, 4.27, 0.000, 0.000, 0.000, 15:12:27.277
61, -320.45, -0.18, 14.57, 18.58, 0.000, 0.000, 0.000, 15:12:27.278
62, 445.20, 9.95, 11.92, 13.21, 0.000, 0.000, 0.000, 15:12:27.278
63, 100.71, 19.67, 6.70, 3.47, 0.000, 0.000, 0.000, 15:12:27.298
64, -494.15, 0.87, 15.33, 17.26, 0.000, 0.000, 0.000, 15:12:27.299
65, 265.22, 0.93, 17.36, 14.69, 0.000, 0.000, 0.000, 15:12:27.299
66, 361.23, 10.38, 4.70, 6.97, 0.000, 0.000, 0.000, 15:12:27.299
67, -450.19, 9.79, 8.80, 7.01, 0.000, 0.000, 0.000, 15:12:27.320
68, -58.15, 3.56, 17.03, 17.33, 0.000, 0.000, 0.000, 15:12:27.320
69, 472.10, 6.28, 7.03, 9.09, 0.000, 0.000, 0.000, 15:12:27.321
70, -228.18, 15.80, 3.48, 7.57, 0.000, 0.000, 0.000, 15:12:27.321
71, -332.06, 0.97, 18.80, 15.73, 0.000, 0.000, 0.000, 15:12:27.343
72, 427.83, 18.01, 8.83, 12.15, 0.000, 0.000, 0.000, 15:12:27.343
73, 97.89, 8.13, 6.48, 6.79, 0.000, 0.000, 0.000, 15:12:27.343
74, -514.93, 4.19, 16.03, 14.27, 0.000, 0.000, 0.000, 15:12:27.344
75, 257.61, 2.35, 12.80, 13.82, 0.000, 0.000, 0.000, 15:12:27.365
76, 350.62, 16.03, 5.14, 10.12, 0.000, 0.000, 0.000, 15:12:27.365
77, -442.91, 7.91, 9.70, 13.11, 0.000, 0.000, 0.000, 15:12:27.366
78, -60.90, 2.50, 18.97, 16.37, 0.000, 0.000, 0.000, 15:12:27.366
79, 506.80, 12.10, 7.98, 8.75, 0.000, 0.000, 0.000, 15:12:27.366
80, -248.62, 13.90, 6.75, 5.84, 0.000, 0.000, 0.000, 15:12:27.367
81, -320.29, 0.79, 20.44, 18.84, 0.000, 0.000, 0.000, 15:12:27.387
82, 445.35, 7.16, 9.60, 12.00, 0.000, 0.000, 0.000, 15:12:27.388
83, 117.29, 11.83, 6.38, 4.76, 0.000, 0.000, 0.000, 15:12:27.388
84, -512.43, 4.33, 18.22, 17.68, 0.000, 0.000, 0.000, 15:12:27.388
85, 265.51, 8.81, 12.70, 12.32, 0.000, 0.000, 0.000, 15:12:27.411
86, 358.83, 12.77, 4.19, 7.23, 0.000, 0.000, 0.000, 15:12:27.411
87, -446.98, 10.39, 9.84, 10.87, 0.000, 0.000, 0.000, 15:12:27.411
88, -32.63, 3.77, 19.96, 17.01, 0.000, 0.000, 0.000, 15:12:27.412
89, 468.24, 11.85, 6.66, 10.85, 0.000, 0.000, 0.000, 15:12:27.432
90, -197.42, 18.95, 3.83, 7.21, 0.000, 0.000, 0.000, 15:12:27.433
91, -330.44, -1.69, 20.11, 21.85, 0.000, 0.000, 0.000, 15:12:27.433
92, 462.02, 8.48, 7.68, 14.12, 0.000, 0.000, 0.000, 15:12:27.434
93, 105.22, 11.66, 3.04, 7.92, 0.000, 0.000, 0.000, 15:12:27.455
94, -516.70, 4.01, 19.75, 17.68, 0.000, 0.000, 0.000, 15:12:27.455
95, 288.02, 7.75, 16.52, 16.31, 0.000, 0.000, 0.000, 15:12:27.456
96, 357.91, 13.50, 3.12, 9.94, 0.000, 0.000, 0.000, 15:12:27.456
97, -454.36, 7.29, 10.65, 11.10, 0.000, 0.000, 0.000, 15:12:27.457
98, -50.22, 0.43, 20.89, 17.30, 0.000, 0.000, 0.000, 15:12:27.457
99, 506.07, 14.88, 9.12, 4.86, 0.000, 0.000, 0.000, 15:12:27.478
100, -203.49, 6.78, 8.15, 10.89, 0.000, 0.000, 0.000, 15:12:27.478
101, -352.93, 1.28, 21.14, 19.14, 0.000, 0.000, 0.000, 15:12:27.479
102, 419.82, 12.87, 12.58, 8.73, 0.000, 0.000, 0.000, 15:12:27.479
103, 149.38, 15.28, 3.18, 5.80, 0.000, 0.000, 0.000, 15:12:27.500
104, -519.14, 3.31, 11.21, 15.49, 0.000, 0.000, 0.000, 15:12:27.500
105, 255.20, 4.09, 11.45, 17.56, 0.000, 0.000, 0.000, 15:12:27.501
106, 353.15, 12.75, 5.58, 7.30, 0.000, 0.000, 0.000, 15:12:27.501
107, -443.74, 8.16, 9.12, 9.06, 0.000, 0.000, 0.000, 15:12:27.522
108, -45.02, 5.68, 19.08, 14.19, 0.000, 0.000, 0.000, 15:12:27.523
109, 469.11, 8.29, 9.46, 8.31, 0.000, 0.000, 0.000, 15:12:27.523
110, -232.63, 16.76, 7.05, 7.40, 0.000, 0.000, 0.000, 15:12:27.523
111, -360.85, 2.26, 17.14, 18.55, 0.000, 0.000, 0.000, 15:12:27.545
112, 431.44, 10.99, 9.62, 8.12, 0.000, 0.000, 0.000, 15:12:27.545
113, 131.76, 12.31, 3.34, 10.55, 0.000, 0.000, 0.000, 15:12:27.546
114, -509.77, 3.61, 16.15, 18.71, 0.000, 0.000, 0.000, 15:12:27.546
115, 258.65, 3.57, 13.79, 14.28, 0.000, 0.000, 0.000, 15:12:27.546
116, 356.78, 14.53, 8.09, 6.36, 0.000, 0.000, 0.000, 15:12:27.547
117, -457.24, 15.69, 11.28, 9.07, 0.000, 0.000, 0.000, 15:12:27.568
118, -50.63, -4.16, 22.30, 19.70, 0.000, 0.000, 0.000, 15:12:27.568
119, 485.13, 9.96, 7.12, 11.56, 0.000, 0.000, 0.000, 15:12:27.568
120, -224.44, 14.43, 5.69, 5.20, 0.000, 0.000, 0.000, 15:12:27.569
121, -328.01, -2.49, 19.42, 18.79, 0.000, 0.000, 0.000, 15:12:27.590
122, 430.11, 9.61, 7.21, 8.26, 0.000, 0.000, 0.000, 15:12:27.591
123, 88.43, 15.91, 0.67, 6.07, 0.000, 0.000, 0.000, 15:12:27.591
124, -545.83, 5.49, 16.80, 16.50, 0.000, 0.000, 0.000, 15:12:27.592
125, 287.77, 2.60, 15.16, 19.96, 0.000, 0.000, 0.000, 15:12:27.612
126, 368.46, 17.31, 3.81, 8.20, 0.000, 0.000, 0.000, 15:12:27.613
127, -443.41, 4.11, 9.87, 9.45, 0.000, 0.000, 0.000, 15:12:27.613
128, -52.96, 4.18, 19.65, 15.67, 0.000, 0.000, 0.000, 15:12:27.613
129, 483.65, 11.62, 8.08, 9.98, 0.000, 0.000, 0.000, 15:12:27.635
130, -177.18, 14.30, 4.45, 10.14, 0.000, 0.000, 0.000, 15:12:27.636
131, -317.91, -1.41, 14.85, 15.95, 0.000, 0.000, 0.000, 15:12:27.636
132, 464.69, 8.05, 6.85, 13.18, 0.000, 0.000, 0.000, 15:12:27.636
133, 97.46, 16.39, 8.17, 5.61, 0.000, 0.000, 0.000, 15:12:27.637
134, -503.34, 3.70, 16.78, 12.87, 0.000, 0.000, 0.000, 15:12:27.637
135, 234.63, 9.04, 11.63, 14.29, 0.000, 0.000, 0.000, 15:12:27.658
136, 343.14, 7.48, 4.68, 4.78, 0.000, 0.000, 0.000, 15:12:27.659
137, -462.08, 8.47, 9.94, 8.75, 0.000, 0.000, 0.000, 15:12:27.659
138, -110.08, 4.03, 18.69, 15.70, 0.000, 0.000, 0.000, 15:12:27.660
139, 498.47, 12.00, 5.87, 8.86, 0.000, 0.000, 0.000, 15:12:27.680
140, -193.87, 13.46, 5.07, 5.55, 0.000, 0.000, 0.000, 15:12:27.681
141, -336.77, 1.76, 20.23, 15.44, 0.000, 0.000, 0.000, 15:12:27.681
142, 436.45, 9.74, 8.93, 14.78, 0.000, 0.000, 0.000, 15:12:27.681
143, 123.35, 10.81, 5.97, 8.07, 0.000, 0.000, 0.000, 15:12:27.702
144, -518.64, 8.00, 18.59, 12.36, 0.000, 0.000, 0.000, 15:12:27.703
145, 255.00, 0.24, 15.24, 17.30, 0.000, 0.000, 0.000, 15:12:27.703
146, 363.85, 13.86, 5.31, 8.87, 0.000, 0.000, 0.000, 15:12:27.703
147, -448.47, 6.20, 12.67, 9.42, 0.000, 0.000, 0.000, 15:12:27.725
148, -50.32, -0.86, 16.76, 18.56, 0.000, 0.000, 0.000, 15:12:27.725
149, 468.61, 12.12, 4.31, 7.41, 0.000, 0.000, 0.000, 15:12:27.725
150, -193.59, 12.70, 5.85, 4.82, 0.000, 0.000, 0.000, 15:12:27.726
151, -352.12, 3.98, 16.35, 19.53, 0.000, 0.000, 0.000, 15:12:27.726
152, 445.93, 10.39, 7.06, 13.46, 0.000, 0.000, 0.000, 15:12:27.727
153, 98.38, 20.25, 2.86, 6.31, 0.000, 0.000, 0.000, 15:12:27.747
154, -488.81, 2.29, 15.65, 17.09, 0.000, 0.000, 0.000, 15:12:27.748
155, 251.65, 4.41, 12.84, 16.31, 0.000, 0.000, 0.000, 15:12:27.770
156, 369.47, 15.00, 7.50, 6.77, 0.000, 0.000, 0.000, 15:12:27.770
157, -446.95, 11.37, 10.41, 11.73, 0.000, 0.000, 0.000, 15:12:27.771
158, -62.06, 0.93, 21.29, 17.90, 0.000, 0.000, 0.000, 15:12:27.772
159, 511.80, 6.94, 8.83, 8.04, 0.000, 0.000, 0.000, 15:12:27.772
160, -201.63, 15.54, 7.58, 8.65, 0.000, 0.000, 0.000, 15:12:27.772
161, -331.35, -1.03, 19.95, 19.17, 0.000, 0.000, 0.000, 15:12:27.794
162, 442.29, 13.68, 13.77, 12.47, 0.000, 0.000, 0.000, 15:12:27.795
163, 132.59, 12.39, 6.71, 10.22, 0.000, 0.000, 0.000, 15:12:27.795
164, -511.11, 2.88, 15.89, 15.31, 0.000, 0.000, 0.000, 15:12:27.795
165, 258.83, -1.83, 17.13, 17.11, 0.000, 0.000, 0.000, 15:12:27.815
166, 374.03, 14.63, 1.59, 7.07, 0.000, 0.000, 0.000, 15:12:27.816
167, -446.38, 6.97, 12.73, 11.39, 0.000, 0.000, 0.000, 15:12:27.816
168, -52.18, 2.69, 15.81, 18.81, 0.000, 0.000, 0.000, 15:12:27.816
169, 491.85, 12.30, 3.82, 8.14, 0.000, 0.000, 0.000, 15:12:27.817
170, -206.12, 12.77, 7.47, 5.69, 0.000, 0.000, 0.000, 15:12:27.817
171, -374.27, 5.64, 19.01, 16.47, 0.000, 0.000, 0.000, 15:12:27.837
172, 441.75, 8.11, 7.95, 8.40, 0.000, 0.000, 0.000, 15:12:27.838
173, 120.54, 13.15, 2.28, 10.46, 0.000, 0.000, 0.000, 15:12:27.838
174, -497.46, 6.60, 15.58, 15.92, 0.000, 0.000, 0.000, 15:12:27.838
175, 270.04, 6.19, 15.55, 14.63, 0.000, 0.000, 0.000, 15:12:27.860
176, 375.50, 11.89, 3.95, 4.49, 0.000, 0.000, 0.000, 15:12:27.860
177, -447.62, 14.03, 11.63, 11.13, 0.000, 0.000, 0.000, 15:12:27.861
178, -53.23, 3.01, 16.56, 17.09, 0.000, 0.000, 0.000, 15:12:27.864
179, 503.01, 7.07, 4.38, 10.38, 0.000, 0.000, 0.000, 15:12:27.883
180, -188.54, 18.78, 7.06, 9.54, 0.000, 0.000, 0.000, 15:12:27.883
181, -340.63, -0.65, 21.03, 18.19, 0.000, 0.000, 0.000, 15:12:27.884
182, 427.31, 10.79, 8.80, 6.85, 0.000, 0.000, 0.000, 15:12:27.884
183, 149.64, 12.63, 5.08, 6.61, 0.000, 0.000, 0.000, 15:12:27.905
184, -510.23, 4.52, 11.55, 17.34, 0.000, 0.000, 0.000, 15:12:27.905
185, 215.48, -1.91, 17.71, 15.82, 0.000, 0.000, 0.000, 15:12:27.906
186, 402.85, 14.75, 8.56, 7.92, 0.000, 0.000, 0.000, 15:12:27.906
187, -429.88, 10.61, 7.16, 12.65, 0.000, 0.000, 0.000, 15:12:27.907
188, -71.17, 0.81, 18.13, 15.57, 0.000, 0.000, 0.000, 15:12:27.907
189, 452.87, 8.88, 8.68, 7.41, 0.000, 0.000, 0.000, 15:12:27.928
190, -173.68, 11.58, 4.90, 8.73, 0.000, 0.000, 0.000, 15:12:27.928
191, -369.21, -1.76, 16.73, 16.96, 0.000, 0.000, 0.000, 15:12:27.928
192, 440.46, 12.80, 7.88, 8.07, 0.000, 0.000, 0.000, 15:12:27.929
193, 103.05, 17.18, 3.64, 6.76, 0.000, 0.000, 0.000, 15:12:27.950
194, -522.75, 5.17, 17.17, 17.70, 0.000, 0.000, 0.000, 15:12:27.950
195, 216.08, 5.04, 16.15, 17.12, 0.000, 0.000, 0.000, 15:12:27.951
196, 376.69, 12.89, 7.23, 7.32, 0.000, 0.000, 0.000, 15:12:27.951
197, -448.68, 12.98, 9.77, 9.78, 0.000, 0.000, 0.000, 15:12:27.972
198, -77.39, 7.11, 17.08, 17.59, 0.000, 0.000, 0.000, 15:12:27.972
199, 483.97, 7.79, 9.28, 13.12, 0.000, 0.000, 0.000, 15:12:27.973
200, -208.02, 12.00, 2.90, 6.99, 0.000, 0.000, 0.000, 15:12:27.974
0, -377.36, 0.34, 21.62, 20.75, 0.000, 0.000, 0.000, 15:12:27.974
1, 428.79, 10.90, 12.93, 10.71, 0.000, 0.000, 0.000, 15:12:27.995
2, 133.60, 14.34, 5.61, 8.30, 0.000, 0.000, 0.000, 15:12:27.995
3, -519.79, 4.79, 11.78, 13.27, 0.000, 0.000, 0.000, 15:12:27.995
4, 224.10, 4.80, 14.47, 15.23, 0.000, 0.000, 0.000, 15:12:27.995
5, 415.31, 14.38, 6.96, 7.41, 0.000, 0.000, 0.000, 15:12:28.017
6, -427.88, 12.58, 9.46, 9.57, 0.000, 0.000, 0.000, 15:12:28.018
7, -69.19, -4.02, 17.43, 20.14, 0.000, 0.000, 0.000, 15:12:28.019
8, 492.04, 10.07, 3.93, 8.19, 0.000, 0.000, 0.000, 15:12:28.020
9, -165.99, 13.31, 9.45, 11.68, 0.000, 0.000, 0.000, 15:12:28.041
10, -371.12, 4.88, 18.49, 16.63, 0.000, 0.000, 0.000, 15:12:28.041
11, 444.02, 5.07, 8.95, 11.74, 0.000, 0.000, 0.000, 15:12:28.042
12, 129.18, 10.57, 0.92, 6.84, 0.000, 0.000, 0.000, 15:12:28.043
13, -515.43, 6.32, 16.28, 15.53, 0.000, 0.000, 0.000, 15:12:28.043
14, 227.92, 6.03, 14.22, 13.12, 0.000, 0.000, 0.000, 15:12:28.043
15, 389.70, 16.32, 6.28, 8.54, 0.000, 0.000, 0.000, 15:12:28.062
16, -430.08, 6.72, 10.65, 12.77, 0.000, 0.000, 0.000, 15:12:28.063
17, -70.12, 0.93, 18.84, 19.06, 0.000, 0.000, 0.000, 15:12:28.063
18, 482.37, 15.11, 9.89, 8.02, 0.000, 0.000, 0.000, 15:12:28.063
19, -208.67, 13.36, 7.41, 5.36, 0.000, 0.000, 0.000, 15:12:28.085
20, -374.96, 2.61, 18.24, 13.16, 0.000, 0.000, 0.000, 15:12:28.085
21, 428.98, 10.53, 8.41, 8.60, 0.000, 0.000, 0.000, 15:12:28.085
22, 123.07, 14.57, 3.77, 7.92, 0.000, 0.000, 0.000, 15:12:28.086
23, -553.13, 2.71, 15.72, 17.02, 0.000, 0.000, 0.000, 15:12:28.107
24, 234.30, 8.55, 15.07, 14.28, 0.000, 0.000, 0.000, 15:12:28.108
25, 356.54, 8.04, 6.85, 8.26, 0.000, 0.000, 0.000, 15:12:28.108
26, -420.52, 5.67, 9.41, 6.90, 0.000, 0.000, 0.000, 15:12:28.109
27, -58.15, 1.16, 16.20, 21.37, 0.000, 0.000, 0.000, 15:12:28.130
28, 484.61, 9.97, 6.59, 9.74, 0.000, 0.000, 0.000, 15:12:28.130
29, -177.06, 9.32, 5.57, 9.91, 0.000, 0.000, 0.000, 15:12:28.131
30, -363.14, 0.21, 19.16, 21.78, 0.000, 0.000, 0.000, 15:12:28.131
31, 447.74, 9.10, 11.06, 15.55, 0.000, 0.000, 0.000, 15:12:28.131
32, 132.75, 13.49, 6.93, 5.29, 0.000, 0.000, 0.000, 15:12:28.132
33, -495.72, 8.10, 15.51, 15.06, 0.000, 0.000, 0.000, 15:12:28.153
34, 227.45, 3.95, 15.38, 17.47, 0.000, 0.000, 0.000, 15:12:28.154
35, 384.68, 11.12, 8.80, 5.34, 0.000, 0.000, 0.000, 15:12:28.154
36, -444.61, 9.06, 10.96, 10.70, 0.000, 0.000, 0.000, 15:12:28.154
37, -79.81, -0.42, 19.52, 15.18, 0.000, 0.000, 0.000, 15:12:28.175
38, 491.77, 12.94, 8.52, 8.54, 0.000, 0.000, 0.000, 15:12:28.175
39, -161.07, 15.83, 3.96, 8.84, 0.000, 0.000, 0.000, 15:12:28.176
40, -361.01, 5.18, 20.13, 16.52, 0.000, 0.000, 0.000, 15:12:28.176
41, 439.97, 7.91, 11.62, 13.84, 0.000, 0.000, 0.000, 15:12:28.197
42, 124.36, 21.26, 4.94, 8.29, 0.000, 0.000, 0.000, 15:12:28.198
43, -542.03, 3.18, 16.94, 12.44, 0.000, 0.000, 0.000, 15:12:28.198
44, 240.11, 3.21, 10.03, 13.82, 0.000, 0.000, 0.000, 15:12:28.198
45, 394.92, 14.62, 3.79, 4.50, 0.000, 0.000, 0.000, 15:12:28.222
46, -434.97, 9.31, 10.23, 8.76, 0.000, 0.000, 0.000, 15:12:28.222
47, -88.96, 2.53, 17.18, 20.27, 0.000, 0.000, 0.000, 15:12:28.222
48, 480.70, 11.41, 6.33, 13.82, 0.000, 0.000, 0.000, 15:12:28.222
49, -189.43, 12.52, 2.85, 7.55, 0.000, 0.000, 0.000, 15:12:28.223
50, -376.94, 1.53, 19.73, 15.98, 0.000, 0.000, 0.000, 15:12:28.223
51, 421.70, 8.06, 10.14, 9.02, 0.000, 0.000, 0.000, 15:12:28.243
52, 121.97, 10.97, 4.39, 9.40, 0.000, 0.000, 0.000, 15:12:28.243
53, -498.20, 6.96, 11.89, 16.28, 0.000, 0.000, 0.000, 15:12:28.243
54, 215.53, 5.84, 15.72, 14.94, 0.000, 0.000, 0.000, 15:12:28.244
55, 391.67, 11.90, 7.76, 7.78, 0.000, 0.000, 0.000, 15:12:28.265
56, -428.53, 11.95, 13.24, 9.55, 0.000, 0.000, 0.000, 15:12:28.265
57, -108.08, -0.24, 19.20, 19.22, 0.000, 0.000, 0.000, 15:12:28.265
58, 521.34, 11.41, 6.34, 12.47, 0.000, 0.000, 0.000, 15:12:28.265
59, -144.39, 13.26, 5.52, 8.47, 0.000, 0.000, 0.000, 15:12:28.287
60, -365.80, 4.67, 20.85, 15.15, 0.000, 0.000, 0.000, 15:12:28.288
61, 441.35, 3.64, 6.66, 8.50, 0.000, 0.000, 0.000, 15:12:28.288
62, 137.92, 13.77, 4.22, 8.91, 0.000, 0.000, 0.000, 15:12:28.288
63, -502.58, 7.14, 16.64, 19.18, 0.000, 0.000, 0.000, 15:12:28.310
64, 228.86, 7.09, 15.86, 16.34, 0.000, 0.000, 0.000, 15:12:28.310
65, 360.36, 12.39, 10.08, 8.67, 0.000, 0.000, 0.000, 15:12:28.311
66, -438.85, 14.33, 6.90, 11.24, 0.000, 0.000, 0.000, 15:12:28.311
67, -72.21, -1.25, 17.95, 18.21, 0.000, 0.000, 0.000, 15:12:28.312
68, 507.15, 10.22, 5.76, 5.86, 0.000, 0.000, 0.000, 15:12:28.313
69, -175.28, 16.95, 6.04, 4.30, 0.000, 0.000, 0.000, 15:12:28.332
70, -365.70, -1.19, 20.53, 19.91, 0.000, 0.000, 0.000, 15:12:28.333
71, 406.14, 8.93, 8.36, 12.40, 0.000, 0.000, 0.000, 15:12:28.333
72, 115.51, 12.65, 3.98, 7.58, 0.000, 0.000, 0.000, 15:12:28.333
73, -499.18, 4.32, 13.24, 15.05, 0.000, 0.000, 0.000, 15:12:28.355
74, 213.82, 2.52, 12.82, 16.05, 0.000, 0.000, 0.000, 15:12:28.355
75, 405.35, 13.85, 5.71, 8.21, 0.000, 0.000, 0.000, 15:12:28.356
76, -444.90, 12.28, 9.85, 9.79, 0.000, 0.000, 0.000, 15:12:28.356
77, -91.65, 1.21, 20.83, 18.38, 0.000, 0.000, 0.000, 15:12:28.377
78, 492.80, 13.34, 6.49, 4.23, 0.000, 0.000, 0.000, 15:12:28.378
79, -202.53, 6.76, 6.07, 9.15, 0.000, 0.000, 0.000, 15:12:28.378
80, -372.36, 1.91, 16.55, 14.55, 0.000, 0.000, 0.000, 15:12:28.378
81, 425.35, 9.79, 12.24, 13.16, 0.000, 0.000, 0.000, 15:12:28.400
82, 123.99, 15.05, 3.27, 10.98, 0.000, 0.000, 0.000, 15:12:28.400
83, -462.46, 5.27, 17.75, 13.75, 0.000, 0.000, 0.000, 15:12:28.401
84, 235.89, 10.08, 12.87, 14.84, 0.000, 0.000, 0.000, 15:12:28.401
85, 406.80, 13.93, 7.52, 12.67, 0.000, 0.000, 0.000, 15:12:28.401
86, -425.44, 10.41, 11.99, 8.69, 0.000, 0.000, 0.000, 15:12:28.402
87, -70.48, 4.83, 20.28, 18.10, 0.000, 0.000, 0.000, 15:12:28.423
88, 504.91, 6.61, 6.51, 10.81, 0.000, 0.000, 0.000, 15:12:28.423
89, -172.32, 12.44, 6.90, 9.53, 0.000, 0.000, 0.000, 15:12:28.423
90, -383.44, -2.17, 20.36, 15.45, 0.000, 0.000, 0.000, 15:12:28.423
91, 387.43, 5.69, 8.64, 8.99, 0.000, 0.000, 0.000, 15:12:28.445
92, 172.13, 12.43, 4.47, 8.79, 0.000, 0.000, 0.000, 15:12:28.445
93, -536.07, 5.45, 18.22, 15.27, 0.000, 0.000, 0.000, 15:12:28.445
94, 217.02, 2.48, 12.86, 16.16, 0.000, 0.000, 0.000, 15:12:28.446
95, 381.12, 12.70, 5.23, 7.90, 0.000, 0.000, 0.000, 15:12:28.467
96, -424.92, 16.28, 10.42, 7.40, 0.000, 0.000, 0.000, 15:12:28.468
97, -93.79, -1.89, 16.02, 15.78, 0.000, 0.000, 0.000, 15:12:28.468
98, 489.01, 7.73, 6.61, 8.61, 0.000, 0.000, 0.000, 15:12:28.468
99, -161.57, 13.16, 4.01, 6.00, 0.000, 0.000, 0.000, 15:12:28.490
100, -391.72, 2.79, 19.37, 19.85, 0.000, 0.000, 0.000, 15:12:28.490
101, 433.78, 8.01, 8.75, 8.62, 0.000, 0.000, 0.000, 15:12:28.490
102, 132.31, 14.04, 4.87, 4.23, 0.000, 0.000, 0.000, 15:12:28.491
103, -478.28, 6.12, 14.48, 16.54, 0.000, 0.000, 0.000, 15:12:28.491
104, 218.57, 6.88, 14.41, 16.05, 0.000, 0.000, 0.000, 15:12:28.491
105, 370.78, 16.82, 5.44, 9.48, 0.000, 0.000, 0.000, 15:12:28.512
106, -429.30, 10.88, 7.52, 9.95, 0.000, 0.000, 0.000, 15:12:28.512
107, -100.17, -0.76, 18.10, 16.73, 0.000, 0.000, 0.000, 15:12:28.513
108, 495.79, 8.85, 11.45, 7.59, 0.000, 0.000, 0.000, 15:12:28.513
109, -167.92, 16.43, 5.40, 8.63, 0.000, 0.000, 0.000, 15:12:28.535
110, -373.72, 0.10, 17.54, 20.08, 0.000, 0.000, 0.000, 15:12:28.535
111, 416.54, 10.61, 10.77, 11.73, 0.000, 0.000, 0.000, 15:12:28.536
112, 157.01, 13.01, 8.54, 8.98, 0.000, 0.000, 0.000, 15:12:28.536
113, -509.40, 2.59, 17.91, 14.48, 0.000, 0.000, 0.000, 15:12:28.557
114, 229.54, 9.24, 16.95, 16.39, 0.000, 0.000, 0.000, 15:12:28.558
115, 389.33, 10.89, 6.18, 5.33, 0.000, 0.000, 0.000, 15:12:28.558
116, -415.96, 10.46, 12.65, 7.63, 0.000, 0.000, 0.000, 15:12:28.559
117, -97.05, 2.88, 17.73, 17.24, 0.000, 0.000, 0.000, 15:12:28.580
118, 495.82, 11.09, 7.20, 10.29, 0.000, 0.000, 0.000, 15:12:28.580
119, -143.04, 13.86, 2.53, 6.12, 0.000, 0.000, 0.000, 15:12:28.580
120, -380.75, 2.44, 18.07, 18.68, 0.000, 0.000, 0.000, 15:12:28.581
121, 444.80, 9.12, 13.01, 7.29, 0.000, 0.000, 0.000, 15:12:28.581
122, 138.96, 11.38, 5.95, 10.45, 0.000, 0.000, 0.000, 15:12:28.581
123, -497.10, 11.33, 15.22, 18.10, 0.000, 0.000, 0.000, 15:12:28.602
124, 215.34, 1.02, 13.63, 12.84, 0.000, 0.000, 0.000, 15:12:28.603
125, 399.42, 11.93, 5.73, 7.20, 0.000, 0.000, 0.000, 15:12:28.603
126, -420.06, 13.59, 8.10, 11.76, 0.000, 0.000, 0.000, 15:12:28.603
127, -93.86, -1.84, 19.82, 20.76, 0.000, 0.000, 0.000, 15:12:28.625
128, 482.06, 9.10, 7.26, 9.89, 0.000, 0.000, 0.000, 15:12:28.625
129, -169.54, 16.80, 6.26, 7.46, 0.000, 0.000, 0.000, 15:12:28.626
130, -381.74, 3.30, 21.35, 13.63, 0.000, 0.000, 0.000, 15:12:28.626
131, 414.75, 8.48, 10.11, 12.06, 0.000, 0.000, 0.000, 15:12:28.647
132, 163.03, 16.28, 0.25, 8.15, 0.000, 0.000, 0.000, 15:12:28.648
133, -533.06, -0.34, 13.55, 15.13, 0.000, 0.000, 0.000, 15:12:28.648
134, 220.11, 5.53, 14.20, 14.71, 0.000, 0.000, 0.000, 15:12:28.648
135, 407.24, 15.10, 7.92, 4.79, 0.000, 0.000, 0.000, 15:12:28.670
136, -410.46, 10.05, 8.86, 12.49, 0.000, 0.000, 0.000, 15:12:28.670
137, -72.44, -1.55, 16.30, 19.81, 0.000, 0.000, 0.000, 15:12:28.670
138, 487.35, 14.03, 9.96, 5.39, 0.000, 0.000, 0.000, 15:12:28.670
139, -137.43, 16.35, 2.21, 6.39, 0.000, 0.000, 0.000, 15:12:28.671
140, -383.92, 3.14, 18.21, 17.83, 0.000, 0.000, 0.000, 15:12:28.671
141, 419.01, 13.02, 10.22, 8.32, 0.000, 0.000, 0.000, 15:12:28.692
142, 150.91, 9.65, 6.28, 8.56, 0.000, 0.000, 0.000, 15:12:28.692
143, -527.42, 6.25, 13.24, 16.23, 0.000, 0.000, 0.000, 15:12:28.693
144, 204.34, 6.93, 18.25, 13.48, 0.000, 0.000, 0.000, 15:12:28.693
145, 402.19, 10.63, 0.60, 4.70, 0.000, 0.000, 0.000, 15:12:28.715
146, -433.19, 6.33, 8.28, 16.52, 0.000, 0.000, 0.000, 15:12:28.715
147, -119.46, 6.75, 17.16, 20.87, 0.000, 0.000, 0.000, 15:12:28.715
148, 488.29, 11.22, 6.03, 12.24, 0.000, 0.000, 0.000, 15:12:28.716
149, -181.02, 14.48, 4.95, 7.30, 0.000, 0.000, 0.000, 15:12:28.737
150, -379.01, 4.04, 20.54, 15.14, 0.000, 0.000, 0.000, 15:12:28.738
151, 411.70, 3.77, 8.76, 11.60, 0.000, 0.000, 0.000, 15:12:28.738
152, 160.67, 13.28, 2.76, 6.52, 0.000, 0.000, 0.000, 15:12:28.738
153, -527.97, 4.55, 17.19, 15.88, 0.000, 0.000, 0.000, 15:12:28.760
154, 205.21, 4.43, 15.90, 15.11, 0.000, 0.000, 0.000, 15:12:28.760
155, 389.74, 12.12, 5.14, 4.10, 0.000, 0.000, 0.000, 15:12:28.760
156, -424.16, 14.02, 10.67, 6.00, 0.000, 0.000, 0.000, 15:12:28.761
157, -102.06, 3.78, 21.07, 17.52, 0.000, 0.000, 0.000, 15:12:28.761
158, 483.77, 8.79, 8.38, 9.23, 0.000, 0.000, 0.000, 15:12:28.762
159, -156.62, 15.60, 5.23, 11.72, 0.000, 0.000, 0.000, 15:12:28.782
160, -385.50, 2.06, 17.05, 18.46, 0.000, 0.000, 0.000, 15:12:28.783
161, 391.80, 8.06, 12.00, 11.06, 0.000, 0.000, 0.000, 15:12:28.783
162, 188.99, 15.89, 6.61, 7.61, 0.000, 0.000, 0.000, 15:12:28.783
163, -518.70, 6.87, 12.52, 15.03, 0.000, 0.000, 0.000, 15:12:28.805
164, 196.87, 2.25, 13.46, 13.53, 0.000, 0.000, 0.000, 15:12:28.805
165, 400.81, 15.30, 5.15, 8.57, 0.000, 0.000, 0.000, 15:12:28.805
166, -415.43, 8.13, 12.43, 12.25, 0.000, 0.000, 0.000, 15:12:28.805
167, -94.88, 0.20, 18.00, 21.42, 0.000, 0.000, 0.000, 15:12:28.827
168, 486.78, 11.02, 6.14, 9.14, 0.000, 0.000, 0.000, 15:12:28.827
169, -144.10, 8.89, 6.57, 7.90, 0.000, 0.000, 0.000, 15:12:28.828
170, -404.70, 1.40, 19.12, 19.34, 0.000, 0.000, 0.000, 15:12:28.828
171, 417.96, 6.11, 12.32, 8.79, 0.000, 0.000, 0.000, 15:12:28.850
172, 148.32, 16.10, 8.88, 7.92, 0.000, 0.000, 0.000, 15:12:28.850
173, -525.84, 4.43, 12.27, 14.21, 0.000, 0.000, 0.000, 15:12:28.850
174, 192.00, 2.37, 12.59, 14.68, 0.000, 0.000, 0.000, 15:12:28.851
175, 395.46, 11.56, 3.62, 9.41, 0.000, 0.000, 0.000, 15:12:28.851
176, -426.94, 8.44, 8.55, 11.55, 0.000, 0.000, 0.000, 15:12:28.852
177, -118.07, 2.95, 17.84, 19.87, 0.000, 0.000, 0.000, 15:12:28.872
178, 466.17, 9.20, 7.31, 9.40, 0.000, 0.000, 0.000, 15:12:28.873
179, -129.02, 8.44, 4.70, 7.69, 0.000, 0.000, 0.000, 15:12:28.873
180, -391.53, 1.92, 21.04, 18.21, 0.000, 0.000, 0.000, 15:12:28.873
181, 436.92, 5.13, 7.90, 10.70, 0.000, 0.000, 0.000, 15:12:28.895
182, 167.52, 14.61, 5.98, 5.68, 0.000, 0.000, 0.000, 15:12:28.895
183, -522.78, 7.07, 16.97, 16.44, 0.000, 0.000, 0.000, 15:12:28.895
184, 206.57, 3.65, 17.65, 15.05, 0.000, 0.000, 0.000, 15:12:28.896
185, 404.57, 14.29, 6.99, 9.64, 0.000, 0.000, 0.000, 15:12:28.917
186, -405.92, 14.39, 8.07, 10.58, 0.000, 0.000, 0.000, 15:12:28.918
187, -109.68, 0.57, 17.55, 21.22, 0.000, 0.000, 0.000, 15:12:28.918
188, 493.55, 11.04, 7.44, 6.32, 0.000, 0.000, 0.000, 15:12:28.918
189, -163.86, 15.65, 7.21, 9.97, 0.000, 0.000, 0.000, 15:12:28.940
190, -399.82, 3.93, 18.48, 18.53, 0.000, 0.000, 0.000, 15:12:28.940
191, 417.18, 6.66, 9.02, 10.40, 0.000, 0.000, 0.000, 15:12:28.941
192, 190.16, 16.44, 5.28, 3.98, 0.000, 0.000, 0.000, 15:12:28.941
193, -520.47, 3.90, 15.22, 13.12, 0.000, 0.000, 0.000, 15:12:28.942
194, 210.75, 6.05, 16.35, 14.72, 0.000, 0.000, 0.000, 15:12:28.942
195, 401.17, 12.68, 5.69, 9.93, 0.000, 0.000, 0.000, 15:12:28.962
196, -403.01, 5.47, 11.24, 12.87, 0.000, 0.000, 0.000, 15:12:28.963
197, -112.40, 1.55, 18.48, 18.92, 0.000, 0.000, 0.000, 15:12:28.963
198, 504.10, 9.70, 9.22, 9.14, 0.000, 0.000, 0.000, 15:12:28.963
199, -134.67, 13.98, 7.29, 8.86, 0.000, 0.000, 0.000, 15:12:28.985
200, -385.08, -2.56, 16.42, 19.07, 0.000, 0.000, 0.000, 15:12:28.985
0, 428.78, 9.32, 11.62, 14.46, 0.000, 0.000, 0.000, 15:12:28.986
1, 167.88, 14.48, 4.67, 3.29, 0.000, 0.000, 0.000, 15:12:28.986
2, -513.59, 6.14, 15.76, 12.83, 0.000, 0.000, 0.000, 15:12:28.986
3, 207.90, 10.69, 13.55, 13.29, 0.000, 0.000, 0.000, 15:12:29.008
4, 396.72, 10.13, 5.79, 7.74, 0.000, 0.000, 0.000, 15:12:29.009
5, -397.37, 11.43, 12.63, 7.91, 0.000, 0.000, 0.000, 15:12:29.010
6, -128.40, 1.26, 21.18, 14.32, 0.000, 0.000, 0.000, 15:12:29.010
7, 504.20, 8.01, 8.60, 11.04, 0.000, 0.000, 0.000, 15:12:29.030
8, -162.16, 12.95, 0.99, 8.90, 0.000, 0.000, 0.000, 15:12:29.030
9, -372.40, 4.84, 15.30, 18.05, 0.000, 0.000, 0.000, 15:12:29.030
10, 399.12, 8.07, 12.15, 13.63, 0.000, 0.000, 0.000, 15:12:29.031
11, 199.42, 13.94, 1.68, 4.54, 0.000, 0.000, 0.000, 15:12:29.052
12, -513.89, 10.96, 14.33, 13.27, 0.000, 0.000, 0.000, 15:12:29.052
13, 212.29, -2.40, 13.09, 15.94, 0.000, 0.000, 0.000, 15:12:29.053
14, 410.56, 12.94, 10.17, 5.65, 0.000, 0.000, 0.000, 15:12:29.053
15, -419.02, 13.75, 8.07, 8.77, 0.000, 0.000, 0.000, 15:12:29.075
16, -122.89, 0.60, 17.44, 20.11, 0.000, 0.000, 0.000, 15:12:29.075
17, 481.74, 11.14, 12.59, 9.08, 0.000, 0.000, 0.000, 15:12:29.076
18, -142.12, 18.82, 5.59, 7.10, 0.000, 0.000, 0.000, 15:12:29.076
19, -427.86, 2.89, 19.76, 19.25, 0.000, 0.000, 0.000, 15:12:29.076
20, 401.54, 7.64, 10.24, 10.31, 0.000, 0.000, 0.000, 15:12:29.076
21, 167.04, 18.59, 3.55, 9.43, 0.000, 0.000, 0.000, 15:12:29.097
22, -504.30, 7.30, 16.84, 13.74, 0.000, 0.000, 0.000, 15:12:29.098
23, 200.38, -0.24, 12.06, 14.62, 0.000, 0.000, 0.000, 15:12:29.098
24, 406.38, 13.65, 6.53, 6.05, 0.000, 0.000, 0.000, 15:12:29.098
25, -418.52, 11.64, 4.66, 9.96, 0.000, 0.000, 0.000, 15:12:29.120
26, -105.84, -2.51, 20.72, 19.82, 0.000, 0.000, 0.000, 15:12:29.120
27, 508.42, 9.58, 10.41, 6.17, 0.000, 0.000, 0.000, 15:12:29.120
28, -126.80, 15.96, 4.80, 6.40, 0.000, 0.000, 0.000, 15:12:29.121
29, -389.68, 2.46, 16.74, 18.46, 0.000, 0.000, 0.000, 15:12:29.143
30, 414.06, 13.49, 9.55, 13.34, 0.000, 0.000, 0.000, 15:12:29.143
31, 191.82, 8.83, 6.42, 8.49, 0.000, 0.000, 0.000, 15:12:29.143
32, -516.72, 7.98, 14.64, 16.03, 0.000, 0.000, 0.000, 15:12:29.143
33, 198.06, 4.88, 16.04, 13.34, 0.000, 0.000, 0.000, 15:12:29.165
34, 414.35, 9.65, 3.50, 6.79, 0.000, 0.000, 0.000, 15:12:29.165
35, -417.17, 10.12, 9.70, 8.21, 0.000, 0.000, 0.000, 15:12:29.166
36, -121.48, 0.95, 14.63, 17.77, 0.000, 0.000, 0.000, 15:12:29.166
37, 495.67, 9.74, 5.73, 10.73, 0.000, 0.000, 0.000, 15:12:29.166
38, -123.54, 10.12, -0.39, 5.83, 0.000, 0.000, 0.000, 15:12:29.166
39, -396.02, 8.57, 17.25, 15.79, 0.000, 0.000, 0.000, 15:12:29.187
40, 410.01, 5.85, 12.33, 13.18, 0.000, 0.000, 0.000, 15:12:29.188
41, 176.57, 14.63, 3.96, 3.15, 0.000, 0.000, 0.000, 15:12:29.188
42, -521.38, 5.93, 12.93, 17.75, 0.000, 0.000, 0.000, 15:12:29.188
43, 196.69, 3.34, 16.83, 14.51, 0.000, 0.000, 0.000, 15:12:29.210
44, 394.80, 11.96, 10.48, 9.78, 0.000, 0.000, 0.000, 15:12:29.210
45, -400.60, 11.70, 13.90, 10.45, 0.000, 0.000, 0.000, 15:12:29.210
46, -138.32, 2.57, 21.69, 19.74, 0.000, 0.000, 0.000, 15:12:29.211
47, 475.06, 12.05, 12.57, 12.36, 0.000, 0.000, 0.000, 15:12:29.233
48, -157.99, 17.71, 3.08, 5.91, 0.000, 0.000, 0.000, 15:12:29.233
49, -386.62, -3.70, 18.10, 21.88, 0.000, 0.000, 0.000, 15:12:29.233
50, 415.32, 8.29, 13.22, 14.70, 0.000, 0.000, 0.000, 15:12:29.233
51, 184.69, 16.65, 5.24, 10.61, 0.000, 0.000, 0.000, 15:12:29.255
52, -521.76, 7.15, 12.85, 15.28, 0.000, 0.000, 0.000, 15:12:29.255
53, 176.85, 1.31, 12.37, 16.90, 0.000, 0.000, 0.000, 15:12:29.255
54, 416.97, 10.68, 7.37, 8.42, 0.000, 0.000, 0.000, 15:12:29.256
55, -398.29, 9.38, 8.41, 10.49, 0.000, 0.000, 0.000, 15:12:29.256
56, -114.79, -2.22, 18.83, 18.23, 0.000, 0.000, 0.000, 15:12:29.256
57, 509.21, 13.00, 7.34, 9.87, 0.000, 0.000, 0.000, 15:12:29.277
58, -121.20, 13.02, 0.78, 4.56, 0.000, 0.000, 0.000, 15:12:29.277
59, -408.00, 1.45, 15.44, 18.40, 0.000, 0.000, 0.000, 15:12:29.278
60, 409.97, 5.31, 10.50, 8.85, 0.000, 0.000, 0.000, 15:12:29.278
61, 164.01, 10.89, 4.51, 3.35, 0.000, 0.000, 0.000, 15:12:29.300
62, -548.04, 6.18, 14.27, 14.94, 0.000, 0.000, 0.000, 15:12:29.300
63, 145.40, 6.54, 14.64, 20.32, 0.000, 0.000, 0.000, 15:12:29.300
64, 398.00, 18.19, 6.85, 9.00, 0.000, 0.000, 0.000, 15:12:29.300
65, -399.68, 12.47, 7.55, 5.08, 0.000, 0.000, 0.000, 15:12:29.323
66, -125.31, 6.92, 18.19, 16.70, 0.000, 0.000, 0.000, 15:12:29.323
67, 497.71, 8.60, 10.05, 11.85, 0.000, 0.000, 0.000, 15:12:29.324
68, -137.88, 14.08, 6.06, 6.91, 0.000, 0.000, 0.000, 15:12:29.324
69, -395.45, 0.07, 21.64, 17.08, 0.000, 0.000, 0.000, 15:12:29.345
70, 410.94, 10.94, 9.31, 12.91, 0.000, 0.000, 0.000, 15:12:29.345
71, 192.44, 13.06, 4.37, 7.85, 0.000, 0.000, 0.000, 15:12:29.346
72, -521.23, 7.69, 13.67, 13.90, 0.000, 0.000, 0.000, 15:12:29.346
73, 184.05, 3.36, 17.81, 16.41, 0.000, 0.000, 0.000, 15:12:29.349
74, 408.90, 10.54, 6.06, 7.86, 0.000, 0.000, 0.000, 15:12:29.349
75, -393.61, 12.33, 10.15, 11.80, 0.000, 0.000, 0.000, 15:12:29.368
76, -134.60, -2.02, 19.65, 21.06, 0.000, 0.000, 0.000, 15:12:29.368
77, 500.44, 9.04, 7.61, 9.35, 0.000, 0.000, 0.000, 15:12:29.368
78, -119.67, 13.92, 1.93, 7.29, 0.000, 0.000, 0.000, 15:12:29.368
79, -400.06, 0.31, 17.61, 18.04, 0.000, 0.000, 0.000, 15:12:29.390
80, 403.60, 5.30, 12.98, 11.02, 0.000, 0.000, 0.000, 15:12:29.390
81, 191.99, 16.52, 3.39, 7.66, 0.000, 0.000, 0.000, 15:12:29.391
82, -507.44, 7.63, 14.16, 14.65, 0.000, 0.000, 0.000, 15:12:29.391
83, 183.09, 2.86, 13.62, 12.08, 0.000, 0.000, 0.000, 15:12:29.412
84, 414.33, 20.41, 6.12, 4.45, 0.000, 0.000, 0.000, 15:12:29.412
85, -411.08, 4.52, 8.18, 9.22, 0.000, 0.000, 0.000, 15:12:29.413
86, -138.36, 0.17, 20.58, 19.36, 0.000, 0.000, 0.000, 15:12:29.413
87, 476.01, 9.16, 6.98, 9.97, 0.000, 0.000, 0.000, 15:12:29.435
88, -122.70, 14.72, 3.97, 6.21, 0.000, 0.000, 0.000, 15:12:29.435
89, -397.25, 1.74, 20.16, 13.94, 0.000, 0.000, 0.000, 15:12:29.435
90, 428.41, 10.34, 11.02, 13.95, 0.000, 0.000, 0.000, 15:12:29.436
91, 172.30, 14.48, 4.81, 6.30, 0.000, 0.000, 0.000, 15:12:29.436
92, -533.63, 5.66, 13.29, 16.47, 0.000, 0.000, 0.000, 15:12:29.436
93, 195.57, 8.06, 14.47, 14.67, 0.000, 0.000, 0.000, 15:12:29.458
94, 414.59, 11.89, 5.39, 6.87, 0.000, 0.000, 0.000, 15:12:29.458
95, -381.54, 9.30, 5.56, 10.02, 0.000, 0.000, 0.000, 15:12:29.458
96, -136.69, -1.99, 17.84, 14.35, 0.000, 0.000, 0.000, 15:12:29.458
97, 493.90, 12.20, 5.78, 8.68, 0.000, 0.000, 0.000, 15:12:29.480
98, -112.80, 13.94, 6.80, 8.64, 0.000, 0.000, 0.000, 15:12:29.480
99, -406.08, 1.34, 18.90, 18.26, 0.000, 0.000, 0.000, 15:12:29.482
100, 419.89, 7.54, 11.28, 14.78, 0.000, 0.000, 0.000, 15:12:29.482
101, 197.52, 10.37, 6.50, 11.05, 0.000, 0.000, 0.000, 15:12:29.502
102, -516.06, 11.78, 15.71, 18.02, 0.000, 0.000, 0.000, 15:12:29.503
103, 182.42, 1.75, 16.55, 16.70, 0.000, 0.000, 0.000, 15:12:29.503
104, 420.55, 13.29, 3.49, 5.00, 0.000, 0.000, 0.000, 15:12:29.503
105, -393.67, 11.30, 9.49, 10.98, 0.000, 0.000, 0.000, 15:12:29.525
106, -149.47, 2.14, 20.61, 19.91, 0.000, 0.000, 0.000, 15:12:29.525
107, 505.33, 9.91, 6.93, 9.33, 0.000, 0.000, 0.000, 15:12:29.525
108, -116.77, 16.08, 4.88, 5.88, 0.000, 0.000, 0.000, 15:12:29.526
109, -397.33, -0.65, 20.38, 18.06, 0.000, 0.000, 0.000, 15:12:29.526
110, 397.72, 5.67, 12.58, 10.73, 0.000, 0.000, 0.000, 15:12:29.526
111, 191.19, 19.23, 6.69, 8.53, 0.000, 0.000, 0.000, 15:12:29.547
112, -515.48, -0.62, 16.86, 18.81, 0.000, 0.000, 0.000, 15:12:29.548
113, 172.92, 5.65, 11.91, 16.26, 0.000, 0.000, 0.000, 15:12:29.548
114, 421.32, 11.77, 1.80, 6.54, 0.000, 0.000, 0.000, 15:12:29.548
115, -392.56, 13.15, 4.10, 9.10, 0.000, 0.000, 0.000, 15:12:29.570
116, -150.49, -2.60, 21.59, 18.56, 0.000, 0.000, 0.000, 15:12:29.570
117, 486.73, 11.34, 5.54, 8.95, 0.000, 0.000, 0.000, 15:12:29.570
118, -123.58, 15.05, 5.56, 6.70, 0.000, 0.000, 0.000, 15:12:29.570
119, -411.07, 3.81, 18.31, 17.75, 0.000, 0.000, 0.000, 15:12:29.592
120, 407.63, 9.88, 9.46, 11.11, 0.000, 0.000, 0.000, 15:12:29.592
121, 174.46, 7.91, 4.21, 5.98, 0.000, 0.000, 0.000, 15:12:29.615
122, -510.47, 2.60, 15.75, 16.69, 0.000, 0.000, 0.000, 15:12:29.624
123, 171.58, 3.98, 14.79, 15.74, 0.000, 0.000, 0.000, 15:12:29.624
124, 407.08, 12.35, 7.89, 7.95, 0.000, 0.000, 0.000, 15:12:29.624
125, -410.42, 11.31, 12.06, 15.15, 0.000, 0.000, 0.000, 15:12:29.624
126, -126.27, 1.20, 18.96, 17.92, 0.000, 0.000, 0.000, 15:12:29.624
127, 472.98, 10.27, 8.25, 10.47, 0.000, 0.000, 0.000, 15:12:29.624
128, -136.77, 14.06, 6.79, 5.05, 0.000, 0.000, 0.000, 15:12:29.624
129, -398.37, -0.02, 18.82, 17.37, 0.000, 0.000, 0.000, 15:12:29.637
130, 400.50, 10.82, 9.18, 8.37, 0.000, 0.000, 0.000, 15:12:29.638
131, 195.14, 15.56, 6.26, 8.99, 0.000, 0.000, 0.000, 15:12:29.638
132, -517.97, 6.24, 18.41, 13.25, 0.000, 0.000, 0.000, 15:12:29.639
133, 173.33, 3.45, 14.81, 16.42, 0.000, 0.000, 0.000, 15:12:29.660
134, 413.29, 11.89, 6.19, 10.73, 0.000, 0.000, 0.000, 15:12:29.660
135, -397.97, 13.87, 7.35, 7.69, 0.000, 0.000, 0.000, 15:12:29.660
136, -149.60, 0.10, 21.85, 23.66, 0.000, 0.000, 0.000, 15:12:29.661
137, 488.45, 13.47, 7.05, 9.66, 0.000, 0.000, 0.000, 15:12:29.682
138, -141.52, 17.50, 3.45, 3.92, 0.000, 0.000, 0.000, 15:12:29.683
139, -399.19, -3.86, 19.51, 15.74, 0.000, 0.000, 0.000, 15:12:29.683
140, 405.97, 9.23, 9.89, 12.54, 0.000, 0.000, 0.000, 15:12:29.683
141, 177.82, 14.50, 3.34, 5.38, 0.000, 0.000, 0.000, 15:12:29.705
142, -511.95, 7.75, 12.07, 12.25, 0.000, 0.000, 0.000, 15:12:29.705
143, 151.94, 1.66, 16.42, 16.27, 0.000, 0.000, 0.000, 15:12:29.706
144, 440.31, 13.61, 8.96, 10.72, 0.000, 0.000, 0.000, 15:12:29.706
145, -394.61, 10.37, 10.26, 11.76, 0.000, 0.000, 0.000, 15:12:29.706
146, -144.52, 1.92, 18.53, 17.80, 0.000, 0.000, 0.000, 15:12:29.706
147, 507.45, 11.59, 6.73, 8.27, 0.000, 0.000, 0.000, 15:12:29.727
148, -115.29, 12.55, 4.94, 6.33, 0.000, 0.000, 0.000, 15:12:29.727
149, -397.67, 2.06, 18.46, 14.06, 0.000, 0.000, 0.000, 15:12:29.728
150, 414.50, 8.60, 10.56, 11.88, 0.000, 0.000, 0.000, 15:12:29.728
151, 203.07, 18.21, 4.83, 7.35, 0.000, 0.000, 0.000, 15:12:29.750
152, -528.26, 7.23, 14.38, 12.01, 0.000, 0.000, 0.000, 15:12:29.750
153, 177.04, 2.81, 12.91, 14.10, 0.000, 0.000, 0.000, 15:12:29.750
154, 424.11, 11.63, 8.50, 12.73, 0.000, 0.000, 0.000, 15:12:29.750
155, -392.11, 12.08, 10.22, 6.61, 0.000, 0.000, 0.000, 15:12:29.772
156, -135.36, 7.36, 21.03, 21.27, 0.000, 0.000, 0.000, 15:12:29.773
157, 492.03, 3.26, 5.13, 6.15, 0.000, 0.000, 0.000, 15:12:29.773
158, -125.98, 12.06, 4.84, 7.17, 0.000, 0.000, 0.000, 15:12:29.773
159, -413.93, 0.53, 17.18, 19.94, 0.000, 0.000, 0.000, 15:12:29.795
160, 404.01, 6.69, 9.46, 9.29, 0.000, 0.000, 0.000, 15:12:29.795
161, 222.39, 14.82, 8.64, 8.67, 0.000, 0.000, 0.000, 15:12:29.795
162, -514.25, 3.37, 13.41, 18.55, 0.000, 0.000, 0.000, 15:12:29.796
163, 177.36, 4.14, 15.57, 12.76, 0.000, 0.000, 0.000, 15:12:29.797
164, 402.89, 13.51, 8.94, 6.68, 0.000, 0.000, 0.000, 15:12:29.797
165, -394.30, 13.55, 8.82, 9.95, 0.000, 0.000, 0.000, 15:12:29.817
166, -153.76, -2.06, 19.85, 22.99, 0.000, 0.000, 0.000, 15:12:29.818
167, 510.52, 10.36, 7.67, 12.27, 0.000, 0.000, 0.000, 15:12:29.818
168, -129.38, 12.94, 6.04, 6.95, 0.000, 0.000, 0.000, 15:12:29.818
169, -401.78, 2.27, 19.89, 13.54, 0.000, 0.000, 0.000, 15:12:29.840
170, 399.32, 6.41, 9.36, 11.98, 0.000, 0.000, 0.000, 15:12:29.840
171, 189.21, 17.12, 4.87, 7.69, 0.000, 0.000, 0.000, 15:12:29.841
172, -512.12, 9.03, 11.82, 17.16, 0.000, 0.000, 0.000, 15:12:29.841
173, 173.82, 0.02, 12.55, 14.37, 0.000, 0.000, 0.000, 15:12:29.862
174, 422.53, 17.05, 8.77, 4.98, 0.000, 0.000, 0.000, 15:12:29.862
175, -387.06, 7.92, 10.45, 15.59, 0.000, 0.000, 0.000, 15:12:29.863
176, -155.38, 3.98, 18.59, 17.26, 0.000, 0.000, 0.000, 15:12:29.863
177, 504.25, 10.26, 5.53, 7.87, 0.000, 0.000, 0.000, 15:12:29.885
178, -93.82, 13.24, 5.64, 5.59, 0.000, 0.000, 0.000, 15:12:29.885
179, -427.68, -0.67, 17.90, 16.89, 0.000, 0.000, 0.000, 15:12:29.886
180, 405.20, 11.02, 9.61, 16.88, 0.000, 0.000, 0.000, 15:12:29.886
181, 186.64, 10.02, 4.67, 8.53, 0.000, 0.000, 0.000, 15:12:29.886
182, -501.59, 9.81, 14.98, 12.58, 0.000, 0.000, 0.000, 15:12:29.887
183, 168.33, 7.91, 15.37, 15.03, 0.000, 0.000, 0.000, 15:12:29.907
184, 401.44, 7.67, 5.53, 10.85, 0.000, 0.000, 0.000, 15:12:29.908
185, -374.55, 8.26, 9.91, 9.65, 0.000, 0.000, 0.000, 15:12:29.908
186, -156.83, 1.39, 16.85, 17.35, 0.000, 0.000, 0.000, 15:12:29.909
187, 496.79, 10.55, 12.25, 12.45, 0.000, 0.000, 0.000, 15:12:29.930
188, -118.06, 13.62, 5.52, 4.35, 0.000, 0.000, 0.000, 15:12:29.930
189, -426.29, 5.10, 21.35, 15.75, 0.000, 0.000, 0.000, 15:12:29.931
190, 393.44, 9.33, 13.26, 8.84, 0.000, 0.000, 0.000, 15:12:29.931
191, 181.37, 13.62, 3.07, 8.48, 0.000, 0.000, 0.000, 15:12:29.953
192, -517.43, 10.38, 12.68, 14.49, 0.000, 0.000, 0.000, 15:12:29.953
193, 143.15, -1.46, 16.89, 16.80, 0.000, 0.000, 0.000, 15:12:29.953
194, 416.35, 17.35, 6.02, 7.61, 0.000, 0.000, 0.000, 15:12:29.953
195, -403.86, 10.54, 8.33, 10.14, 0.000, 0.000, 0.000, 15:12:29.975
196, -161.01, 1.43, 17.13, 18.86, 0.000, 0.000, 0.000, 15:12:29.975
197, 493.20, 9.29, 9.01, 10.32, 0.000, 0.000, 0.000, 15:12:29.975
198, -108.95, 14.22, 2.61, 10.03, 0.000, 0.000, 0.000, 15:12:29.976
199, -436.88, 2.87, 20.55, 18.53, 0.000, 0.000, 0.000, 15:12:29.976
200, 397.65, 7.85, 11.25, 7.55, 0.000, 0.000, 0.000, 15:12:29.976
0, 182.97, 15.87, 7.78, 4.19, 0.000, 0.000, 0.000, 15:12:29.997
1, -529.35, 2.99, 15.14, 13.75, 0.000, 0.000, 0.000, 15:12:29.998
2, 157.01, 4.21, 15.21, 11.25, 0.000, 0.000, 0.000, 15:12:29.998
3, 412.88, 11.61, 4.51, 8.42, 0.000, 0.000, 0.000, 15:12:30.020
4, -383.94, 13.54, 5.97, 8.79, 0.000, 0.000, 0.000, 15:12:30.021
5, -142.55, 3.04, 21.24, 17.90, 0.000, 0.000, 0.000, 15:12:30.024
6, 492.59, 8.84, 11.18, 10.88, 0.000, 0.000, 0.000, 15:12:30.024
7, -117.98, 10.74, 4.30, 8.41, 0.000, 0.000, 0.000, 15:12:30.024
8, -405.50, -2.27, 16.40, 17.28, 0.000, 0.000, 0.000, 15:12:30.024
9, 406.90, 9.76, 11.69, 15.20, 0.000, 0.000, 0.000, 15:12:30.042
10, 197.58, 7.47, 4.59, 5.40, 0.000, 0.000, 0.000, 15:12:30.043
11, -503.25, 8.00, 12.21, 13.87, 0.000, 0.000, 0.000, 15:12:30.043
12, 167.20, 5.49, 15.74, 14.82, 0.000, 0.000, 0.000, 15:12:30.043
13, 419.31, 16.43, 8.92, 4.49, 0.000, 0.000, 0.000, 15:12:30.065
14, -388.66, 12.50, 7.66, 7.92, 0.000, 0.000, 0.000, 15:12:30.065
15, -137.50, 4.32, 19.83, 16.33, 0.000, 0.000, 0.000, 15:12:30.065
16, 509.63, 9.46, 5.73, 8.51, 0.000, 0.000, 0.000, 15:12:30.065
17, -103.34, 13.41, 5.10, 6.73, 0.000, 0.000, 0.000, 15:12:30.088
18, -420.27, 6.39, 15.23, 17.69, 0.000, 0.000, 0.000, 15:12:30.088
19, 411.31, 2.19, 11.33, 10.80, 0.000, 0.000, 0.000, 15:12:30.089
20, 185.17, 12.76, 7.08, 5.00, 0.000, 0.000, 0.000, 15:12:30.089
21, -512.00, 8.35, 13.89, 14.25, 0.000, 0.000, 0.000, 15:12:30.110
22, 186.59, 4.17, 14.51, 15.84, 0.000, 0.000, 0.000, 15:12:30.110
23, 424.62, 10.04, 8.31, 7.13, 0.000, 0.000, 0.000, 15:12:30.111
24, -377.88, 15.63, 10.40, 14.00, 0.000, 0.000, 0.000, 15:12:30.111
25, -158.65, 0.97, 19.15, 19.34, 0.000, 0.000, 0.000, 15:12:30.111
26, 515.98, 7.12, 4.62, 8.51, 0.000, 0.000, 0.000, 15:12:30.112
27, -132.03, 12.75, 4.36, 6.89, 0.000, 0.000, 0.000, 15:12:30.132
28, -420.24, 1.35, 17.58, 17.95, 0.000, 0.000, 0.000, 15:12:30.132
29, 437.28, 3.71, 9.03, 11.78, 0.000, 0.000, 0.000, 15:12:30.133
30, 188.40, 13.56, 7.69, 6.57, 0.000, 0.000, 0.000, 15:12:30.133
31, -527.16, 7.30, 13.95, 13.01, 0.000, 0.000, 0.000, 15:12:30.155
32, 170.42, -0.85, 12.54, 19.15, 0.000, 0.000, 0.000, 15:12:30.155
33, 397.34, 15.43, 7.65, 8.71, 0.000, 0.000, 0.000, 15:12:30.156
34, -400.50, 10.14, 8.16, 3.96, 0.000, 0.000, 0.000, 15:12:30.156
35, -139.17, -1.40, 23.84, 21.53, 0.000, 0.000, 0.000, 15:12:30.177
36, 488.30, 12.78, 7.18, 6.70, 0.000, 0.000, 0.000, 15:12:30.178
37, -111.60, 11.87, 6.63, 8.99, 0.000, 0.000, 0.000, 15:12:30.178
38, -411.72, 2.81, 21.43, 22.30, 0.000, 0.000, 0.000, 15:12:30.178
39, 372.26, 6.60, 8.24, 14.65, 0.000, 0.000, 0.000, 15:12:30.200
40, 202.78, 16.10, 1.45, 8.45, 0.000, 0.000, 0.000, 15:12:30.200
41, -504.04, 8.32, 15.82, 9.24, 0.000, 0.000, 0.000, 15:12:30.200
42, 150.69, 2.70, 16.90, 12.67, 0.000, 0.000, 0.000, 15:12:30.201
43, 444.80, 14.23, 5.92, 5.63, 0.000, 0.000, 0.000, 15:12:30.201
44, -389.41, 9.59, 6.09, 10.56, 0.000, 0.000, 0.000, 15:12:30.201
45, -154.67, 3.98, 18.20, 18.02, 0.000, 0.000, 0.000, 15:12:30.222
46, 497.17, 7.65, 9.45, 9.84, 0.000, 0.000, 0.000, 15:12:30.223
47, -110.16, 12.11, 5.94, 7.26, 0.000, 0.000, 0.000, 15:12:30.223
48, -415.50, 1.64, 18.50, 23.19, 0.000, 0.000, 0.000, 15:12:30.223
49, 380.53, 10.17, 9.30, 12.45, 0.000, 0.000, 0.000, 15:12:30.245
50, 237.70, 12.70, 6.44, 8.74, 0.000, 0.000, 0.000, 15:12:30.245
51, -519.84, 7.65, 12.87, 11.49, 0.000, 0.000, 0.000, 15:12:30.245
52, 169.18, 2.01, 14.81, 16.82, 0.000, 0.000, 0.000, 15:12:30.246
53, 431.08, 11.36, 2.86, 9.31, 0.000, 0.000, 0.000, 15:12:30.267
54, -367.37, 15.74, 3.40, 7.23, 0.000, 0.000, 0.000, 15:12:30.267
55, -123.27, -6.53, 18.27, 17.47, 0.000, 0.000, 0.000, 15:12:30.268
56, 457.10, 12.25, 9.21, 7.73, 0.000, 0.000, 0.000, 15:12:30.268
57, -69.28, 16.31, 4.82, 8.81, 0.000, 0.000, 0.000, 15:12:30.290
58, -443.62, -1.37, 19.38, 21.18, 0.000, 0.000, 0.000, 15:12:30.291
59, 394.84, 6.80, 15.23, 15.34, 0.000, 0.000, 0.000, 15:12:30.291
60, 180.27, 15.08, 1.02, 8.88, 0.000, 0.000, 0.000, 15:12:30.291
61, -511.64, 11.88, 12.04, 10.76, 0.000, 0.000, 0.000, 15:12:30.292
62, 150.83, 2.85, 14.98, 11.30, 0.000, 0.000, 0.000, 15:12:30.292
63, 427.52, 16.76, 8.00, 9.79, 0.000, 0.000, 0.000, 15:12:30.312
64, -377.94, 7.17, 8.19, 8.99, 0.000, 0.000, 0.000, 15:12:30.313
65, -160.39, 4.81, 17.85, 13.02, 0.000, 0.000, 0.000, 15:12:30.313
66, 498.33, 13.03, 8.36, 8.91, 0.000, 0.000, 0.000, 15:12:30.313
67, -108.80, 15.08, 4.14, 8.02, 0.000, 0.000, 0.000, 15:12:30.335
68, -438.53, 1.15, 18.23, 20.29, 0.000, 0.000, 0.000, 15:12:30.335
69, 395.13, 6.57, 12.32, 13.86, 0.000, 0.000, 0.000, 15:12:30.335
70, 212.59, 12.54, 8.28, 4.72, 0.000, 0.000, 0.000, 15:12:30.336
71, -520.55, 5.05, 16.78, 14.63, 0.000, 0.000, 0.000, 15:12:30.357
72, 158.96, 6.33, 14.59, 15.79, 0.000, 0.000, 0.000, 15:12:30.357
73, 434.78, 6.84, 7.26, 11.58, 0.000, 0.000, 0.000, 15:12:30.358
74, -403.31, 13.38, 10.70, 8.45, 0.000, 0.000, 0.000, 15:12:30.358
75, -153.72, -0.41, 17.22, 16.18, 0.000, 0.000, 0.000, 15:12:30.380
76, 493.73, 9.18, 7.83, 6.05, 0.000, 0.000, 0.000, 15:12:30.380
77, -124.21, 14.75, 5.10, 5.88, 0.000, 0.000, 0.000, 15:12:30.380
78, -383.78, 1.42, 19.01, 19.99, 0.000, 0.000, 0.000, 15:12:30.380
79, 391.17, 10.25, 11.02, 13.52, 0.000, 0.000, 0.000, 15:12:30.381
80, 223.74, 14.45, 4.37, 10.74, 0.000, 0.000, 0.000, 15:12:30.381
81, -509.03, 10.41, 14.03, 16.83, 0.000, 0.000, 0.000, 15:12:30.403
82, 164.84, -1.57, 16.00, 14.40, 0.000, 0.000, 0.000, 15:12:30.403
83, 439.23, 12.90, 8.18, 10.30, 0.000, 0.000, 0.000, 15:12:30.403
84, -377.79, 13.54, 9.03, 8.36, 0.000, 0.000, 0.000, 15:12:30.404
85, -184.34, -2.53, 17.62, 15.55, 0.000, 0.000, 0.000, 15:12:30.425
86, 492.76, 10.49, 3.83, 8.51, 0.000, 0.000, 0.000, 15:12:30.425
87, -90.65, 17.94, 3.45, 8.09, 0.000, 0.000, 0.000, 15:12:30.425
88, -439.26, 2.82, 16.61, 18.39, 0.000, 0.000, 0.000, 15:12:30.426
89, 382.58, 7.38, 11.75, 9.77, 0.000, 0.000, 0.000, 15:12:30.447
90, 250.00, 18.44, 4.25, 5.92, 0.000, 0.000, 0.000, 15:12:30.447
91, -492.60, 3.60, 15.25, 15.44, 0.000, 0.000, 0.000, 15:12:30.448
92, 150.45, 6.34, 13.10, 17.64, 0.000, 0.000, 0.000, 15:12:30.448
93, 416.29, 8.31, 6.95, 8.23, 0.000, 0.000, 0.000, 15:12:30.470
94, -366.04, 11.85, 10.08, 8.56, 0.000, 0.000, 0.000, 15:12:30.471
95, -163.06, 2.20, 20.60, 15.91, 0.000, 0.000, 0.000, 15:12:30.471
96, 499.62, 8.30, 5.91, 9.21, 0.000, 0.000, 0.000, 15:12:30.471
97, -73.29, 12.35, 6.71, 7.38, 0.000, 0.000, 0.000, 15:12:30.472
98, -416.81, 2.02, 19.70, 19.80, 0.000, 0.000, 0.000, 15:12:30.472
99, 396.87, 12.88, 12.56, 13.97, 0.000, 0.000, 0.000, 15:12:30.492
100, 217.41, 11.02, 6.78, 4.21, 0.000, 0.000, 0.000, 15:12:30.493
101, -512.23, 4.41, 13.18, 14.05, 0.000, 0.000, 0.000, 15:12:30.493
102, 175.46, 5.59, 14.15, 15.51, 0.000, 0.000, 0.000, 15:12:30.493
103, 434.95, 12.62, 3.98, 11.04, 0.000, 0.000, 0.000, 15:12:30.515
104, -378.47, 12.70, 6.83, 10.08, 0.000, 0.000, 0.000, 15:12:30.515
105, -144.01, 2.39, 15.93, 19.99, 0.000, 0.000, 0.000, 15:12:30.515
106, 495.41, 10.65, 8.75, 17.70, 0.000, 0.000, 0.000, 15:12:30.516
107, -86.29, 16.93, 7.22, 10.10, 0.000, 0.000, 0.000, 15:12:30.538
108, -435.22, 5.58, 21.34, 19.59, 0.000, 0.000, 0.000, 15:12:30.538
109, 381.11, 2.35, 8.83, 13.27, 0.000, 0.000, 0.000, 15:12:30.538
110, 201.19, 13.15, 5.95, 6.29, 0.000, 0.000, 0.000, 15:12:30.538
111, -498.74, 9.07, 12.17, 15.99, 0.000, 0.000, 0.000, 15:12:30.560
112, 166.05, 4.86, 14.09, 14.72, 0.000, 0.000, 0.000, 15:12:30.560
113, 420.35, 13.19, 8.83, 5.13, 0.000, 0.000, 0.000, 15:12:30.561
114, -392.63, 11.22, 6.14, 6.71, 0.000, 0.000, 0.000, 15:12:30.561
115, -191.84, 2.32, 21.62, 16.56, 0.000, 0.000, 0.000, 15:12:30.561
116, 507.37, 9.41, 7.99, 10.47, 0.000, 0.000, 0.000, 15:12:30.561
117, -74.96, 20.51, 6.84, 8.74, 0.000, 0.000, 0.000, 15:12:30.582
118, -429.51, -1.33, 21.50, 18.13, 0.000, 0.000, 0.000, 15:12:30.582
119, 386.36, 7.48, 11.59, 14.96, 0.000, 0.000, 0.000, 15:12:30.583
120, 215.04, 9.01, 7.80, 8.69, 0.000, 0.000, 0.000, 15:12:30.583
121, -518.98, 3.67, 15.03, 11.89, 0.000, 0.000, 0.000, 15:12:30.605
122, 129.14, 1.33, 13.90, 8.84, 0.000, 0.000, 0.000, 15:12:30.605
123, 435.30, 14.30, 5.99, 6.42, 0.000, 0.000, 0.000, 15:12:30.605
124, -352.83, 8.76, 8.31, 7.21, 0.000, 0.000, 0.000, 15:12:30.606
125, -171.74, -1.51, 19.29, 15.17, 0.000, 0.000, 0.000, 15:12:30.627
126, 449.75, 14.78, 6.38, 8.88, 0.000, 0.000, 0.000, 15:12:30.627
127, -101.66, 10.59, 4.95, 6.54, 0.000, 0.000, 0.000, 15:12:30.628
128, -394.09, 1.63, 21.01, 16.86, 0.000, 0.000, 0.000, 15:12:30.628
129, 416.07, 9.67, 7.75, 10.48, 0.000, 0.000, 0.000, 15:12:30.650
130, 187.69, 11.91, 3.23, 4.38, 0.000, 0.000, 0.000, 15:12:30.650
131, -521.50, 6.39, 13.53, 13.33, 0.000, 0.000, 0.000, 15:12:30.651
132, 171.56, 4.00, 15.11, 12.17, 0.000, 0.000, 0.000, 15:12:30.651
133, 394.83, 14.55, 4.02, 10.62, 0.000, 0.000, 0.000, 15:12:30.651
134, -390.42, 10.05, 5.10, 11.04, 0.000, 0.000, 0.000, 15:12:30.651
135, -136.06, 3.90, 25.72, 19.70, 0.000, 0.000, 0.000, 15:12:30.672
136, 479.86, 8.80, 7.18, 13.90, 0.000, 0.000, 0.000, 15:12:30.673
137, -144.52, 17.75, 2.36, 6.82, 0.000, 0.000, 0.000, 15:12:30.673
138, -406.65, -1.37, 20.03, 21.27, 0.000, 0.000, 0.000, 15:12:30.673
139, 414.21, 8.09, 8.52, 9.01, 0.000, 0.000, 0.000, 15:12:30.695
140, 160.55, 14.21, 3.81, 11.81, 0.000, 0.000, 0.000, 15:12:30.695
141, -514.50, 9.69, 14.30, 11.60, 0.000, 0.000, 0.000, 15:12:30.695
142, 187.24, -0.34, 16.43, 16.98, 0.000, 0.000, 0.000, 15:12:30.696
143, 411.94, 13.80, 6.67, 6.89, 0.000, 0.000, 0.000, 15:12:30.718
144, -389.30, 15.68, 8.03, 10.66, 0.000, 0.000, 0.000, 15:12:30.718
145, -97.70, -5.91, 22.56, 20.32, 0.000, 0.000, 0.000, 15:12:30.718
146, 551.07, 10.92, 9.80, 8.84, 0.000, 0.000, 0.000, 15:12:30.718
147, -162.11, 14.64, 5.01, 7.24, 0.000, 0.000, 0.000, 15:12:30.740
148, -392.87, 2.38, 20.54, 15.65, 0.000, 0.000, 0.000, 15:12:30.740
149, 387.62, 6.01, 8.50, 12.15, 0.000, 0.000, 0.000, 15:12:30.740
150, 190.30, 14.62, 2.31, 2.79, 0.000, 0.000, 0.000, 15:12:30.741
151, -541.03, 6.37, 13.65, 14.08, 0.000, 0.000, 0.000, 15:12:30.741
152, 166.55, -1.79, 20.78, 16.74, 0.000, 0.000, 0.000, 15:12:30.741
153, 363.76, 15.15, 5.86, 8.35, 0.000, 0.000, 0.000, 15:12:30.762
154, -495.15, 8.57, 8.57, 5.58, 0.000, 0.000, 0.000, 15:12:30.763
155, -102.70, 2.56, 22.56, 20.10, 0.000, 0.000, 0.000, 15:12:30.763
156, 522.64, 10.05, 8.41, 9.46, 0.000, 0.000, 0.000, 15:12:30.763
157, -81.41, 13.29, 5.03, 2.64, 0.000, 0.000, 0.000, 15:12:30.785
158, -384.10, -3.09, 18.06, 23.12, 0.000, 0.000, 0.000, 15:12:30.785
159, 431.98, 9.44, 12.63, 14.28, 0.000, 0.000, 0.000, 15:12:30.786
160, 157.20, 11.82, 1.56, 8.46, 0.000, 0.000, 0.000, 15:12:30.786
161, -499.90, 7.85, 11.28, 15.62, 0.000, 0.000, 0.000, 15:12:30.807
162, 250.59, 5.45, 18.26, 17.02, 0.000, 0.000, 0.000, 15:12:30.807
163, 433.56, 12.56, 4.65, 6.68, 0.000, 0.000, 0.000, 15:12:30.808
164, -443.97, 15.15, 5.05, 8.27, 0.000, 0.000, 0.000, 15:12:30.808
165, -207.77, -1.41, 21.85, 18.23, 0.000, 0.000, 0.000, 15:12:30.830
166, 497.50, 12.99, 9.07, 7.65, 0.000, 0.000, 0.000, 15:12:30.830
167, -214.22, 18.74, 5.38, 6.84, 0.000, 0.000, 0.000, 15:12:30.830
168, -333.63, 1.24, 17.99, 19.37, 0.000, 0.000, 0.000, 15:12:30.830
169, 423.75, 4.21, 11.25, 10.96, 0.000, 0.000, 0.000, 15:12:30.831
170, 155.80, 13.47, 7.23, 7.48, 0.000, 0.000, 0.000, 15:12:30.831
171, -481.59, 9.50, 18.78, 14.64, 0.000, 0.000, 0.000, 15:12:30.853
172, 253.67, 0.58, 21.47, 19.33, 0.000, 0.000, 0.000, 15:12:30.853
173, 446.69, 14.45, 2.08, 7.93, 0.000, 0.000, 0.000, 15:12:30.853
174, -369.25, 13.29, 6.04, 5.78, 0.000, 0.000, 0.000, 15:12:30.853
175, -166.12, -0.07, 16.76, 19.12, 0.000, 0.000, 0.000, 15:12:30.875
176, 435.92, 10.30, 7.69, 8.26, 0.000, 0.000, 0.000, 15:12:30.875
177, -137.32, 17.50, 0.43, 3.56, 0.000, 0.000, 0.000, 15:12:30.875
178, -404.03, 2.33, 18.67, 20.42, 0.000, 0.000, 0.000, 15:12:30.876
179, 363.89, 7.36, 13.83, 14.60, 0.000, 0.000, 0.000, 15:12:30.897
180, 139.83, 21.79, 1.44, 6.02, 0.000, 0.000, 0.000, 15:12:30.897
181, -496.78, 4.02, 11.34, 14.25, 0.000, 0.000, 0.000, 15:12:30.898
182, 185.62, 2.83, 18.41, 14.49, 0.000, 0.000, 0.000, 15:12:30.898
183, 320.52, 12.65, 2.39, 10.42, 0.000, 0.000, 0.000, 15:12:30.920
184, -411.00, 9.87, 8.33, 10.50, 0.000, 0.000, 0.000, 15:12:30.920
185, -69.81, -5.35, 20.95, 20.80, 0.000, 0.000, 0.000, 15:12:30.921
186, 614.14, 14.12, 7.65, 8.68, 0.000, 0.000, 0.000, 15:12:30.921
187, -143.01, 18.67, 5.05, 6.08, 0.000, 0.000, 0.000, 15:12:30.921
188, -619.83, 4.06, 19.74, 17.82, 0.000, 0.000, 0.000, 15:12:30.921
189, -485.77, 10.56, 10.80, 12.48, 0.000, 0.000, 0.000, 15:12:30.942
190, -608.37, 10.20, 1.48, 8.54, 0.000, 0.000, 0.000, 15:12:30.943
191, -1423.62, 2.91, 12.53, 16.87, 0.000, 0.000, 0.000, 15:12:30.943
192, -826.42, 1.45, 17.66, 14.60, 0.000, 0.000, 0.000, 15:12:30.943
193, -694.33, 12.17, 4.18, 6.20, 0.000, 0.000, 0.000, 15:12:30.965
194, -1514.86, 14.58, 6.02, 8.45, 0.000, 0.000, 0.000, 15:12:30.965
195, -1006.54, -0.11, 16.81, 20.15, 0.000, 0.000, 0.000, 15:12:30.965
196, -415.13, 11.13, 4.21, 8.99, 0.000, 0.000, 0.000, 15:12:30.965
197, -1183.49, 14.75, 4.96, 6.79, 0.000, 0.000, 0.000, 15:12:30.987
198, -1578.41, 4.52, 21.19, 17.91, 0.000, 0.000, 0.000, 15:12:30.988
199, -678.81, 2.89, 13.93, 17.35, 0.000, 0.000, 0.000, 15:12:30.988
200, -667.50, 18.48, 6.07, 6.58, 0.000, 0.000, 0.000, 15:12:30.988
0, -371.87, 6.92, 15.63, 15.57, 0.000, 0.000, 0.000, 15:12:30.989
1, 268.67, 1.43, 19.63, 17.88, 0.000, 0.000, 0.000, 15:12:31.010
2, 332.09, 12.04, 4.52, 1.43, 0.000, 0.000, 0.000, 15:12:31.010
3, -468.66, 15.93, 8.97, 6.24, 0.000, 0.000, 0.000, 15:12:31.010
4, -34.60, -4.66, 19.21, 17.66, 0.000, 0.000, 0.000, 15:12:31.011
5, 557.75, 12.44, 4.13, 9.28, 0.000, 0.000, 0.000, 15:12:31.033
6, -18.55, 17.78, 3.75, 9.32, 0.000, 0.000, 0.000, 15:12:31.033
7, -339.20, -1.31, 20.27, 21.47, 0.000, 0.000, 0.000, 15:12:31.033
8, 312.38, 6.29, 11.32, 12.47, 0.000, 0.000, 0.000, 15:12:31.034
9, 30.78, 12.86, -0.88, 7.63, 0.000, 0.000, 0.000, 15:12:31.055
10, -731.43, 11.19, 14.50, 12.48, 0.000, 0.000, 0.000, 15:12:31.056
11, 188.25, 0.53, 16.74, 19.71, 0.000, 0.000, 0.000, 15:12:31.057
12, 386.41, 13.60, 3.70, 9.00, 0.000, 0.000, 0.000, 15:12:31.057
13, -312.68, 14.28, 6.02, 9.00, 0.000, 0.000, 0.000, 15:12:31.057
14, -99.93, 0.48, 21.37, 15.46, 0.000, 0.000, 0.000, 15:12:31.058
15, 415.83, 11.23, 9.67, 9.71, 0.000, 0.000, 0.000, 15:12:31.077
16, -189.77, 15.47, 1.39, 8.39, 0.000, 0.000, 0.000, 15:12:31.078
17, -329.09, -3.89, 24.00, 20.06, 0.000, 0.000, 0.000, 15:12:31.078
18, 509.43, 8.54, 13.75, 11.89, 0.000, 0.000, 0.000, 15:12:31.078
19, 284.97, 16.73, 7.71, 3.49, 0.000, 0.000, 0.000, 15:12:31.100
20, -516.36, 5.20, 12.02, 10.84, 0.000, 0.000, 0.000, 15:12:31.100
21, 205.43, 7.06, 15.26, 17.28, 0.000, 0.000, 0.000, 15:12:31.100
22, 275.69, 12.94, 1.13, 5.66, 0.000, 0.000, 0.000, 15:12:31.100
23, -391.37, 11.44, 5.91, 5.53, 0.000, 0.000, 0.000, 15:12:31.122
24, 51.28, 2.26, 22.70, 17.62, 0.000, 0.000, 0.000, 15:12:31.123
25, 503.31, 9.46, 4.92, 8.78, 0.000, 0.000, 0.000, 15:12:31.123
26, -164.16, 16.12, 4.17, 6.54, 0.000, 0.000, 0.000, 15:12:31.124
27, -576.50, 5.90, 19.06, 15.97, 0.000, 0.000, 0.000, 15:12:31.145
28, 274.82, 5.53, 11.43, 12.71, 0.000, 0.000, 0.000, 15:12:31.145
29, 169.85, 12.40, 1.87, 10.46, 0.000, 0.000, 0.000, 15:12:31.145
30, -455.09, 6.09, 15.14, 13.57, 0.000, 0.000, 0.000, 15:12:31.146
31, 248.73, -0.24, 18.78, 17.58, 0.000, 0.000, 0.000, 15:12:31.146
32, 423.66, 14.08, 4.53, 8.90, 0.000, 0.000, 0.000, 15:12:31.147
33, 409.87, 13.37, 4.52, 7.57, 0.000, 0.000, 0.000, 15:12:31.167
34, 830.77, -1.07, 26.31, 22.07, 0.000, 0.000, 0.000, 15:12:31.168
35, 1600.83, 13.50, 8.29, 10.54, 0.000, 0.000, 0.000, 15:12:31.168
36, 920.16, 17.72, 3.17, 4.31, 0.000, 0.000, 0.000, 15:12:31.168
37, 623.25, 0.45, 20.23, 18.85, 0.000, 0.000, 0.000, 15:12:31.190
38, 1428.29, 2.87, 10.33, 13.89, 0.000, 0.000, 0.000, 15:12:31.190
39, 1169.63, 16.29, 5.55, 7.95, 0.000, 0.000, 0.000, 15:12:31.190
40, 444.26, 7.63, 16.78, 14.86, 0.000, 0.000, 0.000, 15:12:31.191
41, 1118.07, -0.71, 13.62, 15.25, 0.000, 0.000, 0.000, 15:12:31.213
42, 1371.60, 16.64, 6.87, 7.88, 0.000, 0.000, 0.000, 15:12:31.213
43, 625.44, 6.58, 6.67, 15.83, 0.000, 0.000, 0.000, 15:12:31.213
44, 833.52, -3.29, 24.46, 19.12, 0.000, 0.000, 0.000, 15:12:31.213
45, 1455.02, 9.89, 6.83, 6.69, 0.000, 0.000, 0.000, 15:12:31.235
46, 623.50, 15.59, 4.55, 4.71, 0.000, 0.000, 0.000, 15:12:31.236
47, 497.47, -3.97, 19.70, 21.49, 0.000, 0.000, 0.000, 15:12:31.236
48, 719.86, 8.38, 9.97, 13.31, 0.000, 0.000, 0.000, 15:12:31.236
49, 196.98, 16.56, 4.01, 3.21, 0.000, 0.000, 0.000, 15:12:31.237
50, -500.08, 8.49, 14.28, 10.57, 0.000, 0.000, 0.000, 15:12:31.237
51, 264.35, 4.83, 19.12, 21.46, 0.000, 0.000, 0.000, 15:12:31.257
52, 228.71, 12.89, 5.88, 5.44, 0.000, 0.000, 0.000, 15:12:31.258
53, -348.30, 11.01, 7.64, 9.56, 0.000, 0.000, 0.000, 15:12:31.258
54, 77.23, 0.32, 18.74, 19.77, 0.000, 0.000, 0.000, 15:12:31.258
55, 478.85, 12.78, 5.54, 5.27, 0.000, 0.000, 0.000, 15:12:31.280
56, -238.68, 12.82, 3.28, 7.41, 0.000, 0.000, 0.000, 15:12:31.280
57, -507.59, 1.38, 21.23, 18.60, 0.000, 0.000, 0.000, 15:12:31.280
58, 339.93, 6.24, 12.30, 10.28, 0.000, 0.000, 0.000, 15:12:31.280
59, 205.89, 18.63, 7.76, 1.60, 0.000, 0.000, 0.000, 15:12:31.302
60, -463.55, 11.25, 13.13, 16.77, 0.000, 0.000, 0.000, 15:12:31.303
61, 4.92, -4.03, 17.72, 15.75, 0.000, 0.000, 0.000, 15:12:31.303
62, 560.49, 16.69, 4.30, 5.90, 0.000, 0.000, 0.000, 15:12:31.303
63, -353.72, 11.72, 3.42, 4.09, 0.000, 0.000, 0.000, 15:12:31.325
64, -154.93, -4.53, 21.12, 24.35, 0.000, 0.000, 0.000, 15:12:31.325
65, 400.14, 9.88, 8.22, 8.26, 0.000, 0.000, 0.000, 15:12:31.325
66, -116.72, 14.27, 5.52, 7.26, 0.000, 0.000, 0.000, 15:12:31.325
67, -239.38, 0.67, 20.00, 18.39, 0.000, 0.000, 0.000, 15:12:31.326
68, 575.21, 7.50, 9.70, 13.31, 0.000, 0.000, 0.000, 15:12:31.326
69, 157.15, 19.89, 2.66, 5.18, 0.000, 0.000, 0.000, 15:12:31.347
70, -639.17, 6.29, 14.13, 12.44, 0.000, 0.000, 0.000, 15:12:31.348
71, 170.19, 2.68, 16.84, 13.54, 0.000, 0.000, 0.000, 15:12:31.348
72, 312.54, 17.43, 2.74, 10.78, 0.000, 0.000, 0.000, 15:12:31.348
73, -369.58, 15.28, 4.46, 12.94, 0.000, 0.000, 0.000, 15:12:31.370
74, -163.51, -3.27, 24.97, 21.95, 0.000, 0.000, 0.000, 15:12:31.370
75, 401.93, 10.90, 8.54, 12.22, 0.000, 0.000, 0.000, 15:12:31.371
76, -164.76, 15.11, 3.07, 9.77, 0.000, 0.000, 0.000, 15:12:31.371
77, -494.18, 0.47, 20.14, 16.03, 0.000, 0.000, 0.000, 15:12:31.392
78, 364.28, 11.29, 10.63, 12.14, 0.000, 0.000, 0.000, 15:12:31.393
79, 118.70, 11.86, 6.83, 6.20, 0.000, 0.000, 0.000, 15:12:31.393
80, -199.68, 8.87, 13.84, 12.79, 0.000, 0.000, 0.000, 15:12:31.393
81, 270.33, -2.09, 18.53, 17.30, 0.000, 0.000, 0.000, 15:12:31.415
82, 442.71, 14.31, 4.82, 6.17, 0.000, 0.000, 0.000, 15:12:31.415
83, -308.59, 10.56, 9.13, 8.56, 0.000, 0.000, 0.000, 15:12:31.415
84, -240.60, -2.21, 24.06, 22.23, 0.000, 0.000, 0.000, 15:12:31.416
85, 487.68, 8.86, 6.53, 7.60, 0.000, 0.000, 0.000, 15:12:31.416
86, 66.03, 17.09, 0.96, 4.84, 0.000, 0.000, 0.000, 15:12:31.416
87, -636.85, 3.29, 16.92, 18.55, 0.000, 0.000, 0.000, 15:12:31.437
88, 194.71, 2.79, 10.82, 12.91, 0.000, 0.000, 0.000, 15:12:31.438
89, 228.38, 14.12, 2.05, 7.86, 0.000, 0.000, 0.000, 15:12:31.438
90, -522.28, 12.77, 12.09, 16.51, 0.000, 0.000, 0.000, 15:12:31.438
91, 259.51, 0.27, 17.09, 18.09, 0.000, 0.000, 0.000, 15:12:31.460
92, 285.54, 11.22, 6.10, 7.81, 0.000, 0.000, 0.000, 15:12:31.460
93, -328.24, 10.95, 6.71, 8.19, 0.000, 0.000, 0.000, 15:12:31.460
94, -14.63, -0.32, 20.86, 19.55, 0.000, 0.000, 0.000, 15:12:31.461
95, 375.37, 11.54, 4.65, 8.00, 0.000, 0.000, 0.000, 15:12:31.483
96, 75.91, 19.22, 4.21, 2.38, 0.000, 0.000, 0.000, 15:12:31.483
97, -369.45, -5.61, 23.15, 18.73, 0.000, 0.000, 0.000, 15:12:31.483
98, 364.64, 5.67, 10.71, 16.29, 0.000, 0.000, 0.000, 15:12:31.483
99, 15.40, 15.16, 3.34, 4.70, 0.000, 0.000, 0.000, 15:12:31.505
100, -651.32, 8.74, 14.56, 13.85, 0.000, 0.000, 0.000, 15:12:31.505
101, 136.69, 1.18, 16.97, 17.52, 0.000, 0.000, 0.000, 15:12:31.505
102, 482.69, 13.92, 7.59, 7.35, 0.000, 0.000, 0.000, 15:12:31.506
103, -349.64, 12.41, 7.39, 6.56, 0.000, 0.000, 0.000, 15:12:31.506
104, -137.22, -2.31, 19.14, 17.64, 0.000, 0.000, 0.000, 15:12:31.506
105, 482.86, 11.15, 5.69, 8.99, 0.000, 0.000, 0.000, 15:12:31.527
106, -84.97, 15.78, 7.86, 4.33, 0.000, 0.000, 0.000, 15:12:31.528
107, -358.89, 4.07, 20.31, 20.99, 0.000, 0.000, 0.000, 15:12:31.528
108, 541.05, 4.13, 9.81, 14.74, 0.000, 0.000, 0.000, 15:12:31.528
109, 114.72, 15.20, 2.82, 2.26, 0.000, 0.000, 0.000, 15:12:31.550
110, -633.33, 7.20, 12.99, 12.74, 0.000, 0.000, 0.000, 15:12:31.550
111, 221.35, 1.89, 16.21, 16.51, 0.000, 0.000, 0.000, 15:12:31.551
112, 354.16, 11.67, 0.22, 4.59, 0.000, 0.000, 0.000, 15:12:31.551
113, -260.64, 12.04, 6.17, 6.43, 0.000, 0.000, 0.000, 15:12:31.572
114, -37.13, 3.57, 20.23, 19.72, 0.000, 0.000, 0.000, 15:12:31.573
115, 400.49, 5.52, 9.40, 12.23, 0.000, 0.000, 0.000, 15:12:31.573
116, -238.49, 18.30, 4.93, 6.48, 0.000, 0.000, 0.000, 15:12:31.573
117, -660.55, 0.84, 17.76, 23.05, 0.000, 0.000, 0.000, 15:12:31.595
118, -312.47, 9.36, 7.82, 11.08, 0.000, 0.000, 0.000, 15:12:31.595
119, -719.98, 11.21, 2.57, 5.35, 0.000, 0.000, 0.000, 15:12:31.595
120, -1473.91, 8.03, 10.73, 13.68, 0.000, 0.000, 0.000, 15:12:31.596
121, -851.59, 1.69, 18.06, 17.10, 0.000, 0.000, 0.000, 15:12:31.596
122, -481.80, 16.25, 7.04, 5.26, 0.000, 0.000, 0.000, 15:12:31.596
123, -484.10, 14.66, 9.93, 9.48, 0.000, 0.000, 0.000, 15:12:31.618
124, 52.42, -5.53, 23.13, 21.20, 0.000, 0.000, 0.000, 15:12:31.618
125, 548.14, 12.85, 11.27, 8.03, 0.000, 0.000, 0.000, 15:12:31.619
126, -359.71, 17.39, 3.11, 8.93, 0.000, 0.000, 0.000, 15:12:31.619
127, -300.27, 4.12, 19.97, 18.90, 0.000, 0.000, 0.000, 15:12:31.640
128, 376.86, 8.96, 9.69, 10.29, 0.000, 0.000, 0.000, 15:12:31.640
129, 176.70, 13.87, 3.90, 6.83, 0.000, 0.000, 0.000, 15:12:31.640
130, -536.31, 3.52, 14.85, 11.74, 0.000, 0.000, 0.000, 15:12:31.640
131, 110.49, -1.37, 18.27, 17.55, 0.000, 0.000, 0.000, 15:12:31.662
132, 459.45, 22.16, 4.90, 2.33, 0.000, 0.000, 0.000, 15:12:31.663
133, -265.01, 11.45, 7.83, 9.51, 0.000, 0.000, 0.000, 15:12:31.663
134, -86.93, 3.09, 23.13, 19.08, 0.000, 0.000, 0.000, 15:12:31.663
135, 356.32, 10.80, 6.06, 6.09, 0.000, 0.000, 0.000, 15:12:31.685
136, -112.53, 15.60, 1.63, 6.11, 0.000, 0.000, 0.000, 15:12:31.685
137, -473.23, -2.15, 20.61, 18.17, 0.000, 0.000, 0.000, 15:12:31.686
138, 360.20, 8.76, 15.30, 10.01, 0.000, 0.000, 0.000, 15:12:31.686
139, 342.76, 15.63, 3.73, 5.87, 0.000, 0.000, 0.000, 15:12:31.686
140, -428.57, 3.87, 15.51, 13.69, 0.000, 0.000, 0.000, 15:12:31.686
141, 162.21, -0.04, 17.44, 16.33, 0.000, 0.000, 0.000, 15:12:31.707
142, 322.92, 8.12, 6.74, 6.30, 0.000, 0.000, 0.000, 15:12:31.708
143, -439.48, 13.90, 9.29, 9.69, 0.000, 0.000, 0.000, 15:12:31.708
144, -18.76, -3.61, 25.10, 20.37, 0.000, 0.000, 0.000, 15:12:31.708
145, 484.82, 12.15, 5.84, 11.85, 0.000, 0.000, 0.000, 15:12:31.730
146, -177.00, 16.06, 4.94, 7.03, 0.000, 0.000, 0.000, 15:12:31.730
147, -574.75, 0.39, 19.85, 18.36, 0.000, 0.000, 0.000, 15:12:31.730
148, -553.03, 4.13, 9.94, 14.80, 0.000, 0.000, 0.000, 15:12:31.731
149, -654.73, 15.06, 3.58, 7.17, 0.000, 0.000, 0.000, 15:12:31.752
150, -1621.52, 13.00, 11.24, 7.97, 0.000, 0.000, 0.000, 15:12:31.753
151, -816.28, -4.77, 15.74, 19.39, 0.000, 0.000, 0.000, 15:12:31.753
152, -433.29, 11.80, 5.72, 13.36, 0.000, 0.000, 0.000, 15:12:31.753
153, -1391.24, 13.39, 6.60, 4.88, 0.000, 0.000, 0.000, 15:12:31.775
154, -1140.54, 2.41, 20.82, 19.37, 0.000, 0.000, 0.000, 15:12:31.775
155, -467.94, 10.80, 6.69, 11.11, 0.000, 0.000, 0.000, 15:12:31.776
156, -1008.74, 16.20, 2.03, 4.69, 0.000, 0.000, 0.000, 15:12:31.776
157, -1514.70, -0.87, 17.48, 19.55, 0.000, 0.000, 0.000, 15:12:31.776
158, -669.46, 8.48, 11.60, 13.78, 0.000, 0.000, 0.000, 15:12:31.776
159, -784.75, 18.00, 7.87, 4.23, 0.000, 0.000, 0.000, 15:12:31.798
160, -1352.22, 2.35, 14.78, 17.92, 0.000, 0.000, 0.000, 15:12:31.798
161, -735.92, -2.52, 18.91, 16.04, 0.000, 0.000, 0.000, 15:12:31.798
162, -698.36, 11.53, 3.60, 4.83, 0.000, 0.000, 0.000, 15:12:31.798
163, -1671.05, 11.29, 9.41, 7.99, 0.000, 0.000, 0.000, 15:12:31.820
164, -931.87, -2.49, 23.06, 23.24, 0.000, 0.000, 0.000, 15:12:31.820
165, -386.87, 11.93, 7.10, 5.95, 0.000, 0.000, 0.000, 15:12:31.820
166, -987.91, 17.59, 4.93, 4.44, 0.000, 0.000, 0.000, 15:12:31.821
167, -1338.68, 3.41, 19.31, 17.79, 0.000, 0.000, 0.000, 15:12:31.842
168, -633.12, 10.96, 11.69, 12.73, 0.000, 0.000, 0.000, 15:12:31.842
169, -903.95, 9.83, 4.18, 8.01, 0.000, 0.000, 0.000, 15:12:31.843
170, -1573.85, 10.74, 9.56, 12.22, 0.000, 0.000, 0.000, 15:12:31.843
171, -753.78, -0.75, 17.15, 17.04, 0.000, 0.000, 0.000, 15:12:31.865
172, -570.27, 11.67, 5.28, 9.60, 0.000, 0.000, 0.000, 15:12:31.865
173, -1374.35, 14.13, 7.80, 6.64, 0.000, 0.000, 0.000, 15:12:31.865
174, -1181.06, 1.32, 20.44, 21.44, 0.000, 0.000, 0.000, 15:12:31.865
175, -457.06, 10.89, 7.42, 10.50, 0.000, 0.000, 0.000, 15:12:31.866
176, -1099.95, 12.93, 3.72, 8.81, 0.000, 0.000, 0.000, 15:12:31.866
177, -1371.01, 3.13, 20.30, 22.27, 0.000, 0.000, 0.000, 15:12:31.887
178, -555.07, 3.55, 14.15, 16.87, 0.000, 0.000, 0.000, 15:12:31.888
179, -868.38, 17.88, 4.06, 7.02, 0.000, 0.000, 0.000, 15:12:31.888
180, -1377.75, 2.62, 10.56, 16.21, 0.000, 0.000, 0.000, 15:12:31.888
181, -765.13, 0.66, 16.51, 17.90, 0.000, 0.000, 0.000, 15:12:31.910
182, -672.47, 10.24, 5.83, 7.58, 0.000, 0.000, 0.000, 15:12:31.910
183, -1369.69, 15.09, 6.20, 6.74, 0.000, 0.000, 0.000, 15:12:31.910
184, -1121.21, -1.09, 23.97, 19.30, 0.000, 0.000, 0.000, 15:12:31.911
185, -496.11, 8.57, 8.71, 6.08, 0.000, 0.000, 0.000, 15:12:31.932
186, -1187.84, 21.63, 1.58, 6.22, 0.000, 0.000, 0.000, 15:12:31.933
187, -1254.51, -1.99, 19.13, 18.68, 0.000, 0.000, 0.000, 15:12:31.933
188, -547.62, 5.39, 12.24, 13.63, 0.000, 0.000, 0.000, 15:12:31.933
189, -926.24, 18.41, 3.56, 5.27, 0.000, 0.000, 0.000, 15:12:31.955
190, -1556.86, 7.77, 10.58, 10.59, 0.000, 0.000, 0.000, 15:12:31.955
191, -663.64, 2.59, 18.06, 17.40, 0.000, 0.000, 0.000, 15:12:31.956
192, -562.26, 14.68, 2.46, 9.37, 0.000, 0.000, 0.000, 15:12:31.956
193, -1523.16, 16.60, 7.90, 12.31, 0.000, 0.000, 0.000, 15:12:31.956
194, -1170.79, -2.03, 23.78, 22.91, 0.000, 0.000, 0.000, 15:12:31.957
195, -374.00, 13.94, 10.16, 11.14, 0.000, 0.000, 0.000, 15:12:31.977
196, -948.39, 15.29, 3.15, 1.78, 0.000, 0.000, 0.000, 15:12:31.977
197, -1370.06, 1.49, 19.54, 16.78, 0.000, 0.000, 0.000, 15:12:31.978
198, -656.43, 4.79, 12.73, 11.90, 0.000, 0.000, 0.000, 15:12:31.978
199, -942.61, 16.85, 0.25, 4.43, 0.000, 0.000, 0.000, 15:12:32.000
200, -1452.03, 10.43, 18.08, 15.54, 0.000, 0.000, 0.000, 15:12:32.000
0, 64.03, 1.74, 17.71, 16.91, 0.000, 0.000, 0.000, 15:12:32.001
1, 620.56, 13.11, 1.21, 1.32, 0.000, 0.000, 0.000, 15:12:32.001
2, -355.29, 13.62, 4.63, 3.02, 0.000, 0.000, 0.000, 15:12:32.002
3, -302.38, 1.61, 17.17, 19.45, 0.000, 0.000, 0.000, 15:12:32.022
4, 475.27, 7.41, 9.19, 10.11, 0.000, 0.000, 0.000, 15:12:32.023
5, -64.56, 15.79, 0.35, 4.18, 0.000, 0.000, 0.000, 15:12:32.023
6, -286.50, 3.92, 18.94, 16.24, 0.000, 0.000, 0.000, 15:12:32.023
7, 518.32, 5.82, 10.97, 12.97, 0.000, 0.000, 0.000, 15:12:32.045
8, 142.24, 13.38, 6.64, 3.97, 0.000, 0.000, 0.000, 15:12:32.045
9, -597.86, 8.96, 16.54, 20.03, 0.000, 0.000, 0.000, 15:12:32.045
10, 140.27, 0.54, 18.61, 20.79, 0.000, 0.000, 0.000, 15:12:32.045
11, 403.19, 12.29, 5.63, 7.87, 0.000, 0.000, 0.000, 15:12:32.067
12, -499.66, 18.71, 5.41, 8.57, 0.000, 0.000, 0.000, 15:12:32.068
13, -315.13, -4.15, 21.07, 22.05, 0.000, 0.000, 0.000, 15:12:32.068
14, -226.77, 7.83, 7.63, 11.19, 0.000, 0.000, 0.000, 15:12:32.068
15, -1081.15, 13.75, 5.90, 4.17, 0.000, 0.000, 0.000, 15:12:32.090
16, -1423.07, -0.07, 18.79, 19.97, 0.000, 0.000, 0.000, 15:12:32.090
17, -600.79, 1.55, 10.17, 10.84, 0.000, 0.000, 0.000, 15:12:32.090
18, -706.54, 16.83, 4.63, 5.67, 0.000, 0.000, 0.000, 15:12:32.091
19, -1446.31, 8.51, 16.03, 16.55, 0.000, 0.000, 0.000, 15:12:32.091
20, -816.54, 3.30, 17.92, 16.82, 0.000, 0.000, 0.000, 15:12:32.091
21, -648.43, 16.07, 8.67, 10.70, 0.000, 0.000, 0.000, 15:12:32.113
22, -1422.17, 11.23, 10.22, 9.87, 0.000, 0.000, 0.000, 15:12:32.113
23, -1250.76, -1.89, 23.95, 24.56, 0.000, 0.000, 0.000, 15:12:32.113
24, -335.49, 10.75, 5.76, 10.94, 0.000, 0.000, 0.000, 15:12:32.113
25, -1024.21, 15.61, 8.53, 5.37, 0.000, 0.000, 0.000, 15:12:32.135
26, -1591.64, -0.17, 18.93, 15.74, 0.000, 0.000, 0.000, 15:12:32.135
27, -686.66, 3.69, 10.68, 9.64, 0.000, 0.000, 0.000, 15:12:32.136
28, -653.00, 15.20, 2.02, 5.21, 0.000, 0.000, 0.000, 15:12:32.136
29, -1362.49, 5.90, 10.85, 12.74, 0.000, 0.000, 0.000, 15:12:32.157
30, -820.35, 7.47, 16.71, 16.41, 0.000, 0.000, 0.000, 15:12:32.158
31, -544.35, 10.38, 3.61, 7.03, 0.000, 0.000, 0.000, 15:12:32.158
32, -1363.56, 12.13, 5.32, 8.16, 0.000, 0.000, 0.000, 15:12:32.158
33, -1174.94, -2.38, 22.89, 17.54, 0.000, 0.000, 0.000, 15:12:32.180
34, -506.91, 14.68, 7.13, 10.25, 0.000, 0.000, 0.000, 15:12:32.180
35, -965.65, 11.50, -0.55, 5.10, 0.000, 0.000, 0.000, 15:12:32.181
36, -1421.44, 0.95, 20.24, 15.71, 0.000, 0.000, 0.000, 15:12:32.181
37, -626.19, 6.23, 10.13, 12.11, 0.000, 0.000, 0.000, 15:12:32.181
38, -933.09, 14.25, 1.18, 4.99, 0.000, 0.000, 0.000, 15:12:32.182
39, -1535.15, 11.94, 13.50, 10.87, 0.000, 0.000, 0.000, 15:12:32.203
40, -770.88, 0.85, 18.55, 14.26, 0.000, 0.000, 0.000, 15:12:32.203
41, -542.57, 14.28, 6.98, 4.63, 0.000, 0.000, 0.000, 15:12:32.203
42, -1254.33, 15.45, 9.70, 8.81, 0.000, 0.000, 0.000, 15:12:32.203
43, -1082.82, -2.73, 21.56, 19.57, 0.000, 0.000, 0.000, 15:12:32.225
44, -531.65, 9.89, 6.57, 9.93, 0.000, 0.000, 0.000, 15:12:32.225
45, -1150.93, 14.82, 3.32, 5.42, 0.000, 0.000, 0.000, 15:12:32.226
46, -1287.17, 1.55, 19.87, 21.34, 0.000, 0.000, 0.000, 15:12:32.226
47, -536.15, 7.35, 12.53, 14.95, 0.000, 0.000, 0.000, 15:12:32.247
48, -826.90, 21.16, 1.16, 4.21, 0.000, 0.000, 0.000, 15:12:32.248
49, -1524.67, 2.82, 14.21, 15.83, 0.000, 0.000, 0.000, 15:12:32.248
50, -778.36, 0.74, 22.31, 19.20, 0.000, 0.000, 0.000, 15:12:32.248
51, -599.33, 13.00, 1.48, 8.28, 0.000, 0.000, 0.000, 15:12:32.270
52, -1344.92, 7.86, 8.77, 10.63, 0.000, 0.000, 0.000, 15:12:32.270
53, -1290.18, -3.16, 22.87, 20.24, 0.000, 0.000, 0.000, 15:12:32.270
54, -579.46, 11.86, 9.90, 8.29, 0.000, 0.000, 0.000, 15:12:32.270
55, -953.74, 17.39, -0.51, 4.38, 0.000, 0.000, 0.000, 15:12:32.271
56, -1287.31, 3.75, 20.17, 17.71, 0.000, 0.000, 0.000, 15:12:32.271
57, -541.91, 9.31, 14.52, 13.83, 0.000, 0.000, 0.000, 15:12:32.292
58, -788.02, 15.26, -0.50, 6.40, 0.000, 0.000, 0.000, 15:12:32.293
59, -1558.63, 8.17, 10.64, 16.24, 0.000, 0.000, 0.000, 15:12:32.293
60, -746.39, 2.00, 15.59, 20.39, 0.000, 0.000, 0.000, 15:12:32.293
61, -594.99, 15.73, 3.72, 7.21, 0.000, 0.000, 0.000, 15:12:32.315
62, -1373.22, 12.79, 8.19, 4.52, 0.000, 0.000, 0.000, 15:12:32.315
63, -1040.22, 2.09, 20.37, 19.17, 0.000, 0.000, 0.000, 15:12:32.316
64, -439.54, 12.38, 9.37, 11.22, 0.000, 0.000, 0.000, 15:12:32.316
65, -1127.84, 17.94, 4.53, 6.78, 0.000, 0.000, 0.000, 15:12:32.337
66, -1450.18, 3.76, 20.45, 17.30, 0.000, 0.000, 0.000, 15:12:32.337
67, -643.53, 2.99, 11.90, 12.86, 0.000, 0.000, 0.000, 15:12:32.338
68, -767.95, 15.60, 3.80, 6.60, 0.000, 0.000, 0.000, 15:12:32.338
69, -1477.72, 5.37, 11.81, 9.83, 0.000, 0.000, 0.000, 15:12:32.360
70, -853.46, 1.66, 19.24, 17.56, 0.000, 0.000, 0.000, 15:12:32.361
71, -577.63, 14.28, 5.55, 7.91, 0.000, 0.000, 0.000, 15:12:32.361
72, -1331.44, 14.88, 4.88, 5.84, 0.000, 0.000, 0.000, 15:12:32.361
73, -1177.10, -3.40, 21.48, 22.52, 0.000, 0.000, 0.000, 15:12:32.361
74, -398.97, 10.82, 10.66, 12.13, 0.000, 0.000, 0.000, 15:12:32.361
75, -1017.03, 19.64, 3.69, 4.43, 0.000, 0.000, 0.000, 15:12:32.383
76, -1352.49, -0.33, 17.32, 18.60, 0.000, 0.000, 0.000, 15:12:32.383
77, -602.91, 4.27, 12.67, 16.94, 0.000, 0.000, 0.000, 15:12:32.383
78, -858.29, 14.48, 3.69, 5.71, 0.000, 0.000, 0.000, 15:12:32.383
79, -1571.27, 6.87, 12.25, 15.04, 0.000, 0.000, 0.000, 15:12:32.405
80, -913.38, -6.39, 17.18, 15.36, 0.000, 0.000, 0.000, 15:12:32.405
81, -552.85, 11.60, 5.00, 7.76, 0.000, 0.000, 0.000, 15:12:32.405
82, -1199.15, 13.87, 8.39, 10.08, 0.000, 0.000, 0.000, 15:12:32.405
83, -1163.69, -1.49, 22.36, 21.30, 0.000, 0.000, 0.000, 15:12:32.427
84, -562.84, 12.78, 8.22, 9.27, 0.000, 0.000, 0.000, 15:12:32.428
85, -1087.05, 11.79, 2.97, 1.64, 0.000, 0.000, 0.000, 15:12:32.428
86, -1437.25, 0.71, 19.79, 18.88, 0.000, 0.000, 0.000, 15:12:32.428
87, -566.41, 5.02, 13.37, 12.82, 0.000, 0.000, 0.000, 15:12:32.450
88, -757.51, 17.29, 3.64, 5.49, 0.000, 0.000, 0.000, 15:12:32.450
89, -1466.96, 7.76, 8.42, 14.39, 0.000, 0.000, 0.000, 15:12:32.451
90, -845.30, 3.56, 15.30, 21.11, 0.000, 0.000, 0.000, 15:12:32.451
91, -576.22, 16.86, 6.27, 6.65, 0.000, 0.000, 0.000, 15:12:32.451
92, -1390.73, 16.30, 3.38, 4.02, 0.000, 0.000, 0.000, 15:12:32.452
93, -1123.74, 0.36, 21.64, 25.24, 0.000, 0.000, 0.000, 15:12:32.473
94, -476.02, 11.09, 10.24, 8.75, 0.000, 0.000, 0.000, 15:12:32.473
95, -995.31, 14.69, 4.95, 6.97, 0.000, 0.000, 0.000, 15:12:32.473
96, -1395.50, 0.39, 17.72, 20.00, 0.000, 0.000, 0.000, 15:12:32.473
97, -670.81, 5.49, 10.41, 12.75, 0.000, 0.000, 0.000, 15:12:32.496
98, -905.03, 15.26, 6.94, 8.01, 0.000, 0.000, 0.000, 15:12:32.496
99, -1330.24, 5.21, 16.83, 15.03, 0.000, 0.000, 0.000, 15:12:32.496
100, -806.07, -0.05, 20.45, 17.92, 0.000, 0.000, 0.000, 15:12:32.496
101, -556.95, 12.33, 7.58, 5.60, 0.000, 0.000, 0.000, 15:12:32.517
102, -1330.59, 18.61, 4.90, 11.22, 0.000, 0.000, 0.000, 15:12:32.518
103, -1172.35, -8.50, 19.20, 17.32, 0.000, 0.000, 0.000, 15:12:32.518
104, -566.98, 11.55, 10.32, 7.44, 0.000, 0.000, 0.000, 15:12:32.518
105, -1072.72, 16.18, 2.26, 4.31, 0.000, 0.000, 0.000, 15:12:32.540
106, -1406.53, 3.02, 20.87, 19.17, 0.000, 0.000, 0.000, 15:12:32.540
107, -583.80, 7.74, 14.08, 14.41, 0.000, 0.000, 0.000, 15:12:32.540
108, -765.86, 15.71, 0.60, 9.34, 0.000, 0.000, 0.000, 15:12:32.541
109, -1462.82, 8.37, 13.72, 11.87, 0.000, 0.000, 0.000, 15:12:32.541
110, -828.99, -0.53, 16.41, 17.23, 0.000, 0.000, 0.000, 15:12:32.542
111, -576.95, 17.02, 4.98, 3.59, 0.000, 0.000, 0.000, 15:12:32.563
112, -1341.52, 9.81, 9.62, 9.81, 0.000, 0.000, 0.000, 15:12:32.563
113, -1116.81, -3.32, 22.39, 16.59, 0.000, 0.000, 0.000, 15:12:32.563
114, -504.97, 6.88, 7.30, 12.43, 0.000, 0.000, 0.000, 15:12:32.563
115, -1056.13, 17.72, 3.90, 8.32, 0.000, 0.000, 0.000, 15:12:32.585
116, -1418.39, 1.78, 22.48, 17.38, 0.000, 0.000, 0.000, 15:12:32.585
117, -606.92, 8.47, 14.21, 12.66, 0.000, 0.000, 0.000, 15:12:32.585
118, -757.82, 13.68, 2.36, 3.26, 0.000, 0.000, 0.000, 15:12:32.585
119, -1485.88, 8.53, 12.47, 12.91, 0.000, 0.000, 0.000, 15:12:32.607
120, -838.13, 3.95, 15.79, 19.11, 0.000, 0.000, 0.000, 15:12:32.608
121, -551.31, 7.30, 3.07, 6.03, 0.000, 0.000, 0.000, 15:12:32.608
122, -1342.10, 13.55, 7.65, 6.11, 0.000, 0.000, 0.000, 15:12:32.608
123, -1146.14, 1.21, 19.27, 17.15, 0.000, 0.000, 0.000, 15:12:32.630
124, -509.74, 13.59, 6.83, 8.25, 0.000, 0.000, 0.000, 15:12:32.630
125, -1038.76, 14.90, 6.83, 6.03, 0.000, 0.000, 0.000, 15:12:32.630
126, -1409.40, 0.57, 16.97, 18.38, 0.000, 0.000, 0.000, 15:12:32.631
127, -580.81, 9.30, 10.09, 15.09, 0.000, 0.000, 0.000, 15:12:32.631
128, -766.56, 15.54, 3.33, 9.54, 0.000, 0.000, 0.000, 15:12:32.631
129, -1470.70, 8.71, 11.58, 12.22, 0.000, 0.000, 0.000, 15:12:32.652
130, -842.92, -4.80, 18.33, 12.04, 0.000, 0.000, 0.000, 15:12:32.653
131, -564.17, 15.48, 6.76, 6.44, 0.000, 0.000, 0.000, 15:12:32.653
132, -1316.99, 15.29, 8.03, 10.33, 0.000, 0.000, 0.000, 15:12:32.653
133, -1142.87, -2.10, 19.65, 17.19, 0.000, 0.000, 0.000, 15:12:32.675
134, -495.21, 8.34, 8.73, 7.86, 0.000, 0.000, 0.000, 15:12:32.675
135, -1039.46, 14.97, 2.02, 6.74, 0.000, 0.000, 0.000, 15:12:32.676
136, -1411.80, 1.06, 18.11, 19.27, 0.000, 0.000, 0.000, 15:12:32.676
137, -591.28, 5.58, 9.26, 12.82, 0.000, 0.000, 0.000, 15:12:32.697
138, -764.34, 25.58, 0.57, 5.37, 0.000, 0.000, 0.000, 15:12:32.698
139, -1492.85, 6.57, 11.92, 14.03, 0.000, 0.000, 0.000, 15:12:32.698
140, -798.73, 0.71, 18.87, 19.51, 0.000, 0.000, 0.000, 15:12:32.698
141, -559.07, 11.82, 4.58, 7.73, 0.000, 0.000, 0.000, 15:12:32.720
142, -1333.08, 9.10, 7.85, 7.67, 0.000, 0.000, 0.000, 15:12:32.720
143, -1133.68, -1.85, 21.30, 20.16, 0.000, 0.000, 0.000, 15:12:32.721
144, -494.69, 9.77, 8.85, 9.79, 0.000, 0.000, 0.000, 15:12:32.721
145, -1047.65, 15.25, 2.33, 4.19, 0.000, 0.000, 0.000, 15:12:32.721
146, -1403.35, 0.43, 21.57, 21.31, 0.000, 0.000, 0.000, 15:12:32.721
147, -573.33, 6.09, 13.32, 10.07, 0.000, 0.000, 0.000, 15:12:32.743
148, -765.29, 15.44, 4.34, 6.62, 0.000, 0.000, 0.000, 15:12:32.744
149, -1482.03, 4.08, 8.53, 15.63, 0.000, 0.000, 0.000, 15:12:32.744
150, -847.37, 0.47, 18.18, 15.73, 0.000, 0.000, 0.000, 15:12:32.744
151, -579.39, 13.82, 5.52, 5.72, 0.000, 0.000, 0.000, 15:12:32.765
152, -1343.73, 12.38, 4.45, 5.82, 0.000, 0.000, 0.000, 15:12:32.765
153, -1148.46, 1.36, 22.28, 19.30, 0.000, 0.000, 0.000, 15:12:32.766
154, -510.29, 9.99, 6.23, 10.23, 0.000, 0.000, 0.000, 15:12:32.766
155, -1067.54, 10.82, 4.84, 0.10, 0.000, 0.000, 0.000, 15:12:32.787
156, -1419.77, 3.14, 18.15, 15.43, 0.000, 0.000, 0.000, 15:12:32.787
157, -595.93, -0.87, 9.90, 14.60, 0.000, 0.000, 0.000, 15:12:32.788
158, -778.41, 17.15, 1.41, 1.87, 0.000, 0.000, 0.000, 15:12:32.788
159, -1493.38, 7.97, 9.62, 12.94, 0.000, 0.000, 0.000, 15:12:32.810
160, -840.43, 1.51, 22.27, 20.80, 0.000, 0.000, 0.000, 15:12:32.810
161, -552.88, 16.46, 11.74, 7.08, 0.000, 0.000, 0.000, 15:12:32.810
162, -1342.56, 17.42, 7.62, 8.34, 0.000, 0.000, 0.000, 15:12:32.810
163, -1192.89, -0.12, 20.37, 18.60, 0.000, 0.000, 0.000, 15:12:32.811
164, -493.94, 9.16, 6.09, 8.62, 0.000, 0.000, 0.000, 15:12:32.811
165, -1039.87, 19.33, 6.89, 5.89, 0.000, 0.000, 0.000, 15:12:32.833
166, -1415.78, -4.69, 16.89, 21.71, 0.000, 0.000, 0.000, 15:12:32.833
167, -595.01, 5.11, 11.92, 13.96, 0.000, 0.000, 0.000, 15:12:32.833
168, -757.20, 15.09, 3.20, 4.68, 0.000, 0.000, 0.000, 15:12:32.834
169, -1487.89, 8.44, 12.57, 11.56, 0.000, 0.000, 0.000, 15:12:32.855
170, -855.24, 2.23, 18.84, 16.90, 0.000, 0.000, 0.000, 15:12:32.855
171, -557.33, 16.92, 5.38, 10.65, 0.000, 0.000, 0.000, 15:12:32.855
172, -1332.85, 14.82, 8.95, 10.29, 0.000, 0.000, 0.000, 15:12:32.855
173, -1161.89, 2.13, 20.05, 21.13, 0.000, 0.000, 0.000, 15:12:32.878
174, -508.88, 15.30, 8.45, 10.60, 0.000, 0.000, 0.000, 15:12:32.878
175, -1043.25, 11.83, 1.67, 9.52, 0.000, 0.000, 0.000, 15:12:32.878
176, -1437.21, 2.80, 19.69, 21.41, 0.000, 0.000, 0.000, 15:12:32.878
177, -584.37, 8.63, 15.20, 11.55, 0.000, 0.000, 0.000, 15:12:32.900
178, -751.16, 15.42, 5.95, 6.33, 0.000, 0.000, 0.000, 15:12:32.900
179, -1486.20, 6.46, 11.72, 14.17, 0.000, 0.000, 0.000, 15:12:32.900
180, -842.19, -4.45, 20.47, 17.54, 0.000, 0.000, 0.000, 15:12:32.901
181, -553.07, 13.45, 7.36, 8.22, 0.000, 0.000, 0.000, 15:12:32.901
182, -1322.80, 16.98, 5.03, 5.83, 0.000, 0.000, 0.000, 15:12:32.901
183, -1161.18, 0.68, 20.27, 16.99, 0.000, 0.000, 0.000, 15:12:32.922
184, -505.70, 3.37, 7.39, 6.21, 0.000, 0.000, 0.000, 15:12:32.923
185, -1036.04, 13.55, 3.71, 4.28, 0.000, 0.000, 0.000, 15:12:32.923
186, -1427.26, 3.74, 21.09, 20.72, 0.000, 0.000, 0.000, 15:12:32.923
187, -598.23, 5.75, 15.84, 16.99, 0.000, 0.000, 0.000, 15:12:32.945
188, -748.86, 14.01, 3.37, 10.22, 0.000, 0.000, 0.000, 15:12:32.945
189, -1458.08, 11.23, 11.88, 10.37, 0.000, 0.000, 0.000, 15:12:32.945
190, -860.14, 1.31, 21.36, 16.34, 0.000, 0.000, 0.000, 15:12:32.946
191, -554.63, 9.33, 4.46, 7.33, 0.000, 0.000, 0.000, 15:12:32.967
192, -1345.40, 14.97, 6.14, 9.13, 0.000, 0.000, 0.000, 15:12:32.968
193, -1179.13, -5.35, 20.10, 23.69, 0.000, 0.000, 0.000, 15:12:32.968
194, -505.43, 12.25, 8.93, 10.96, 0.000, 0.000, 0.000, 15:12:32.968
195, -1038.80, 16.22, 5.09, 6.48, 0.000, 0.000, 0.000, 15:12:32.990
196, -1434.46, 3.31, 17.10, 19.71, 0.000, 0.000, 0.000, 15:12:32.990
197, -614.41, 5.83, 11.21, 16.14, 0.000, 0.000, 0.000, 15:12:32.991
198, -755.51, 13.93, -1.20, 5.10, 0.000, 0.000, 0.000, 15:12:32.991
199, -1478.08, 8.48, 15.22, 10.72, 0.000, 0.000, 0.000, 15:12:32.991
200, -854.62, 2.28, 16.79, 18.75, 0.000, 0.000, 0.000, 15:12:32.991
0, 442.33, 19.05, 3.60, 4.74, 0.000, 0.000, 0.000, 15:12:33.013
1, -358.69, 13.51, 5.37, 7.48, 0.000, 0.000, 0.000, 15:12:33.013
2, -174.63, -0.21, 26.16, 23.29, 0.000, 0.000, 0.000, 15:12:33.013
3, 465.97, 9.08, 9.13, 7.39, 0.000, 0.000, 0.000, 15:12:33.035
4, -53.54, 15.10, 1.30, 7.12, 0.000, 0.000, 0.000, 15:12:33.035
5, -444.92, -0.49, 18.30, 17.60, 0.000, 0.000, 0.000, 15:12:33.035
6, 393.89, 3.92, 15.50, 16.75, 0.000, 0.000, 0.000, 15:12:33.035
7, 213.97, 15.13, 5.23, 6.87, 0.000, 0.000, 0.000, 15:12:33.036
8, -478.05, 8.23, 8.18, 14.25, 0.000, 0.000, 0.000, 15:12:33.036
9, 120.50, 1.28, 18.13, 20.85, 0.000, 0.000, 0.000, 15:12:33.057
10, 431.47, 10.42, 3.38, 11.35, 0.000, 0.000, 0.000, 15:12:33.058
11, -346.63, 13.01, 5.83, 6.92, 0.000, 0.000, 0.000, 15:12:33.058
12, -186.78, 0.66, 20.35, 18.40, 0.000, 0.000, 0.000, 15:12:33.058
13, 467.75, 12.06, 9.96, 11.69, 0.000, 0.000, 0.000, 15:12:33.080
14, -39.37, 11.17, 3.41, 6.22, 0.000, 0.000, 0.000, 15:12:33.080
15, -462.55, 2.89, 17.10, 16.16, 0.000, 0.000, 0.000, 15:12:33.081
16, 370.87, 2.89, 11.94, 13.21, 0.000, 0.000, 0.000, 15:12:33.081
17, 227.78, 15.73, 3.51, 5.53, 0.000, 0.000, 0.000, 15:12:33.102
18, -493.97, 14.64, 11.33, 8.49, 0.000, 0.000, 0.000, 15:12:33.103
19, 122.90, -6.12, 17.01, 17.58, 0.000, 0.000, 0.000, 15:12:33.103
20, 418.63, 15.54, 7.75, 8.81, 0.000, 0.000, 0.000, 15:12:33.103
21, -353.54, 15.61, 8.07, 10.60, 0.000, 0.000, 0.000, 15:12:33.125
22, -196.25, -0.43, 20.86, 20.32, 0.000, 0.000, 0.000, 15:12:33.125
23, 455.16, 11.32, 8.64, 9.18, 0.000, 0.000, 0.000, 15:12:33.125
24, -34.37, 18.91, 2.32, 5.71, 0.000, 0.000, 0.000, 15:12:33.125
25, -450.54, 1.73, 17.91, 17.00, 0.000, 0.000, 0.000, 15:12:33.126
26, 384.90, 4.41, 16.66, 10.53, 0.000, 0.000, 0.000, 15:12:33.126
27, 229.95, 19.24, 4.34, 2.93, 0.000, 0.000, 0.000, 15:12:33.148
28, -496.72, 8.42, 15.34, 12.08, 0.000, 0.000, 0.000, 15:12:33.148
29, 109.99, -0.73, 16.81, 20.96, 0.000, 0.000, 0.000, 15:12:33.148
30, 401.25, 12.22, 8.56, 8.97, 0.000, 0.000, 0.000, 15:12:33.148
31, -346.02, 10.02, 10.05, 7.38, 0.000, 0.000, 0.000, 15:12:33.170
32, -193.59, -8.00, 19.23, 17.57, 0.000, 0.000, 0.000, 15:12:33.170
33, 478.00, 7.86, 7.45, 8.26, 0.000, 0.000, 0.000, 15:12:33.170
34, -37.83, 15.57, 4.58, 5.27, 0.000, 0.000, 0.000, 15:12:33.171
35, -443.23, 2.00, 18.27, 18.69, 0.000, 0.000, 0.000, 15:12:33.192
36, 382.06, 14.77, 12.02, 15.61, 0.000, 0.000, 0.000, 15:12:33.193
37, 238.10, 9.76, 4.27, 8.21, 0.000, 0.000, 0.000, 15:12:33.193
38, -499.75, 9.49, 14.00, 13.23, 0.000, 0.000, 0.000, 15:12:33.193
39, 125.01, 1.13, 18.96, 19.25, 0.000, 0.000, 0.000, 15:12:33.215
40, 423.87, 15.80, 2.88, 1.00, 0.000, 0.000, 0.000, 15:12:33.215
41, -352.49, 14.96, 8.22, 7.65, 0.000, 0.000, 0.000, 15:12:33.215
42, -183.26, -2.50, 19.34, 20.34, 0.000, 0.000, 0.000, 15:12:33.216
43, 478.43, 14.43, 6.35, 7.94, 0.000, 0.000, 0.000, 15:12:33.216
44, -22.26, 16.38, -0.74, 6.78, 0.000, 0.000, 0.000, 15:12:33.217
45, -450.97, 2.36, 17.39, 17.15, 0.000, 0.000, 0.000, 15:12:33.237
46, 385.02, 4.31, 8.96, 15.81, 0.000, 0.000, 0.000, 15:12:33.238
47, 243.09, 14.64, 6.64, 7.38, 0.000, 0.000, 0.000, 15:12:33.238
48, -538.12, 8.59, 13.45, 10.85, 0.000, 0.000, 0.000, 15:12:33.238
49, 141.32, 2.49, 18.99, 16.56, 0.000, 0.000, 0.000, 15:12:33.260
50, 437.64, 13.12, 9.65, 9.49, 0.000, 0.000, 0.000, 15:12:33.260
51, -330.32, 13.83, 7.68, 3.78, 0.000, 0.000, 0.000, 15:12:33.260
52, -185.83, -1.26, 22.14, 23.02, 0.000, 0.000, 0.000, 15:12:33.261
53, 475.59, 10.05, 10.21, 8.63, 0.000, 0.000, 0.000, 15:12:33.285
54, -45.01, 18.65, 5.12, 9.33, 0.000, 0.000, 0.000, 15:12:33.285
55, -452.52, -3.77, 18.03, 19.61, 0.000, 0.000, 0.000, 15:12:33.285
56, 380.10, 3.14, 12.79, 13.25, 0.000, 0.000, 0.000, 15:12:33.285
57, 232.89, 16.74, 2.22, 4.07, 0.000, 0.000, 0.000, 15:12:33.305
58, -490.99, 6.10, 11.11, 9.77, 0.000, 0.000, 0.000, 15:12:33.305
59, 106.08, -0.17, 20.41, 21.36, 0.000, 0.000, 0.000, 15:12:33.306
60, 435.10, 14.91, 2.02, 9.25, 0.000, 0.000, 0.000, 15:12:33.306
61, -335.50, 11.20, 3.00, 9.26, 0.000, 0.000, 0.000, 15:12:33.306
62, -204.06, -1.95, 22.34, 19.68, 0.000, 0.000, 0.000, 15:12:33.307
63, 467.25, 12.45, 8.41, 8.53, 0.000, 0.000, 0.000, 15:12:33.329
64, -81.37, 17.38, 0.02, 4.29, 0.000, 0.000, 0.000, 15:12:33.330
65, -424.33, 1.52, 20.18, 17.29, 0.000, 0.000, 0.000, 15:12:33.330
66, 394.57, 3.64, 12.84, 16.31, 0.000, 0.000, 0.000, 15:12:33.330
67, 256.73, 14.17, 5.03, 6.51, 0.000, 0.000, 0.000, 15:12:33.350
68, -501.20, 6.83, 10.85, 8.34, 0.000, 0.000, 0.000, 15:12:33.350
69, 111.89, 2.42, 17.48, 19.48, 0.000, 0.000, 0.000, 15:12:33.350
70, 437.46, 12.45, 5.80, 7.02, 0.000, 0.000, 0.000, 15:12:33.350
71, -344.84, 11.98, 5.85, 9.30, 0.000, 0.000, 0.000, 15:12:33.373
72, -198.13, 3.57, 19.96, 18.86, 0.000, 0.000, 0.000, 15:12:33.373
73, 454.20, 5.85, 7.39, 10.73, 0.000, 0.000, 0.000, 15:12:33.373
74, -46.15, 16.38, 0.53, 3.59, 0.000, 0.000, 0.000, 15:12:33.373
75, -454.14, 1.64, 15.13, 15.95, 0.000, 0.000, 0.000, 15:12:33.395
76, 363.70, 4.00, 13.84, 14.83, 0.000, 0.000, 0.000, 15:12:33.395
77, 243.71, 14.39, 4.28, 6.54, 0.000, 0.000, 0.000, 15:12:33.395
78, -501.19, 9.76, 10.08, 12.16, 0.000, 0.000, 0.000, 15:12:33.396
79, 97.81, 0.12, 18.86, 17.98, 0.000, 0.000, 0.000, 15:12:33.396
80, 403.48, 11.67, 3.38, 10.83, 0.000, 0.000, 0.000, 15:12:33.396
81, -338.22, 20.12, 13.26, 10.25, 0.000, 0.000, 0.000, 15:12:33.417
82, -189.27, -3.22, 25.31, 22.97, 0.000, 0.000, 0.000, 15:12:33.418
83, 490.43, 10.59, 7.74, 8.78, 0.000, 0.000, 0.000, 15:12:33.418
84, -40.37, 15.11, 4.28, 0.79, 0.000, 0.000, 0.000, 15:12:33.418
85, -437.84, 5.34, 16.92, 14.75, 0.000, 0.000, 0.000, 15:12:33.440
86, 376.84, 6.21, 14.88, 12.96, 0.000, 0.000, 0.000, 15:12:33.440
87, 221.91, 16.47, 4.72, 6.99, 0.000, 0.000, 0.000, 15:12:33.440
88, -486.11, 12.23, 11.05, 14.01, 0.000, 0.000, 0.000, 15:12:33.440
89, 99.57, -3.40, 17.56, 17.92, 0.000, 0.000, 0.000, 15:12:33.462
90, 426.27, 22.07, 4.24, 3.11, 0.000, 0.000, 0.000, 15:12:33.463
91, -306.13, 8.15, 4.54, 7.79, 0.000, 0.000, 0.000, 15:12:33.463
92, -218.36, 0.72, 22.24, 26.10, 0.000, 0.000, 0.000, 15:12:33.463
93, 478.69, 10.88, 9.34, 10.63, 0.000, 0.000, 0.000, 15:12:33.485
94, -64.77, 13.19, 3.71, 5.68, 0.000, 0.000, 0.000, 15:12:33.485
95, -439.77, 0.10, 16.47, 18.94, 0.000, 0.000, 0.000, 15:12:33.485
96, 362.44, 3.40, 14.28, 12.12, 0.000, 0.000, 0.000, 15:12:33.486
97, 254.87, 15.44, 7.84, 2.50, 0.000, 0.000, 0.000, 15:12:33.486
98, -505.03, 8.71, 14.48, 12.56, 0.000, 0.000, 0.000, 15:12:33.486
99, 93.10, 0.99, 18.19, 20.16, 0.000, 0.000, 0.000, 15:12:33.507
100, 437.88, 10.96, 2.89, 10.55, 0.000, 0.000, 0.000, 15:12:33.507
101, -350.15, 7.97, 7.68, 7.74, 0.000, 0.000, 0.000, 15:12:33.508
102, -174.00, -2.51, 19.11, 19.26, 0.000, 0.000, 0.000, 15:12:33.508
103, 477.49, 9.47, 9.75, 9.73, 0.000, 0.000, 0.000, 15:12:33.530
104, -30.83, 19.67, 1.48, 8.67, 0.000, 0.000, 0.000, 15:12:33.530
105, -457.01, 3.88, 19.07, 17.61, 0.000, 0.000, 0.000, 15:12:33.531
106, 367.57, 5.09, 14.96, 16.47, 0.000, 0.000, 0.000, 15:12:33.531
107, 246.33, 14.60, 2.29, 10.52, 0.000, 0.000, 0.000, 15:12:33.552
108, -501.31, 12.36, 11.79, 14.06, 0.000, 0.000, 0.000, 15:12:33.553
109, 103.91, -4.67, 18.84, 16.74, 0.000, 0.000, 0.000, 15:12:33.553
110, 432.29, 10.11, 6.94, 9.32, 0.000, 0.000, 0.000, 15:12:33.553
111, -342.53, 15.63, 6.71, 7.37, 0.000, 0.000, 0.000, 15:12:33.575
112, -220.17, 1.05, 22.09, 16.95, 0.000, 0.000, 0.000, 15:12:33.575
113, 476.44, 7.86, 9.17, 11.36, 0.000, 0.000, 0.000, 15:12:33.575
114, -46.68, 19.50, 3.36, 2.09, 0.000, 0.000, 0.000, 15:12:33.575
115, -464.94, 3.34, 16.00, 19.72, 0.000, 0.000, 0.000, 15:12:33.576
116, 378.00, 4.72, 14.55, 12.65, 0.000, 0.000, 0.000, 15:12:33.576
117, 227.64, 17.51, 4.59, 8.07, 0.000, 0.000, 0.000, 15:12:33.597
118, -466.90, 7.23, 12.20, 11.12, 0.000, 0.000, 0.000, 15:12:33.598
119, 108.55, 1.11, 23.27, 18.59, 0.000, 0.000, 0.000, 15:12:33.598
120, 444.17, 12.90, 5.53, 5.38, 0.000, 0.000, 0.000, 15:12:33.599
121, -295.74, 13.01, 3.86, 7.29, 0.000, 0.000, 0.000, 15:12:33.620
122, -190.11, -2.33, 17.71, 15.86, 0.000, 0.000, 0.000, 15:12:33.620
123, 489.11, 9.28, 8.48, 10.48, 0.000, 0.000, 0.000, 15:12:33.620
124, -45.46, 15.23, 2.85, 4.55, 0.000, 0.000, 0.000, 15:12:33.621
125, -462.22, 2.58, 18.90, 14.70, 0.000, 0.000, 0.000, 15:12:33.642
126, 353.90, 11.55, 12.95, 14.66, 0.000, 0.000, 0.000, 15:12:33.643
127, 221.71, 9.81, -1.39, 7.25, 0.000, 0.000, 0.000, 15:12:33.643
128, -499.70, 6.30, 10.83, 14.86, 0.000, 0.000, 0.000, 15:12:33.643
129, 89.60, 1.30, 18.38, 20.81, 0.000, 0.000, 0.000, 15:12:33.665
130, 440.75, 18.12, 5.85, 4.24, 0.000, 0.000, 0.000, 15:12:33.665
131, -341.31, 9.52, 6.16, 3.60, 0.000, 0.000, 0.000, 15:12:33.665
132, -219.83, 0.27, 19.75, 20.58, 0.000, 0.000, 0.000, 15:12:33.665
133, 464.82, 10.62, 12.66, 10.49, 0.000, 0.000, 0.000, 15:12:33.666
134, -48.19, 15.33, 3.80, 6.44, 0.000, 0.000, 0.000, 15:12:33.666
135, -454.12, 4.15, 19.63, 17.63, 0.000, 0.000, 0.000, 15:12:33.687
136, 375.25, 3.36, 18.39, 15.85, 0.000, 0.000, 0.000, 15:12:33.688
137, 256.36, 13.64, 2.61, 5.11, 0.000, 0.000, 0.000, 15:12:33.688
138, -495.99, 7.66, 12.59, 11.04, 0.000, 0.000, 0.000, 15:12:33.688
139, 76.42, 3.50, 15.28, 19.83, 0.000, 0.000, 0.000, 15:12:33.710
140, 461.66, 9.20, 9.56, 8.18, 0.000, 0.000, 0.000, 15:12:33.710
141, -327.95, 12.16, 3.70, 3.21, 0.000, 0.000, 0.000, 15:12:33.710
142, -198.36, -0.87, 22.81, 17.91, 0.000, 0.000, 0.000, 15:12:33.711
143, 466.19, 11.09, 6.98, 9.51, 0.000, 0.000, 0.000, 15:12:33.732
144, -27.04, 18.26, 2.78, 7.23, 0.000, 0.000, 0.000, 15:12:33.733
145, -458.45, -1.95, 18.83, 16.85, 0.000, 0.000, 0.000, 15:12:33.733
146, 359.52, 6.52, 12.32, 12.36, 0.000, 0.000, 0.000, 15:12:33.733
147, 250.78, 17.01, 6.61, 6.97, 0.000, 0.000, 0.000, 15:12:33.755
148, -485.10, 10.94, 9.50, 9.94, 0.000, 0.000, 0.000, 15:12:33.755
149, 112.88, 1.54, 24.17, 21.90, 0.000, 0.000, 0.000, 15:12:33.756
150, 440.48, 13.52, -0.43, 11.69, 0.000, 0.000, 0.000, 15:12:33.756
151, -335.23, 14.06, 4.97, 6.23, 0.000, 0.000, 0.000, 15:12:33.756
152, -200.21, -0.40, 18.48, 22.16, 0.000, 0.000, 0.000, 15:12:33.756
153, 457.23, 7.97, 7.11, 8.76, 0.000, 0.000, 0.000, 15:12:33.778
154, -23.52, 14.18, 6.43, 2.80, 0.000, 0.000, 0.000, 15:12:33.778
155, -448.53, 3.50, 19.45, 19.47, 0.000, 0.000, 0.000, 15:12:33.778
156, 370.60, 5.24, 13.81, 14.50, 0.000, 0.000, 0.000, 15:12:33.778
157, 273.90, 16.12, 0.45, 7.71, 0.000, 0.000, 0.000, 15:12:33.800
158, -492.78, 11.25, 11.41, 13.24, 0.000, 0.000, 0.000, 15:12:33.800
159, 103.39, -3.09, 16.71, 17.87, 0.000, 0.000, 0.000, 15:12:33.800
160, 441.84, 13.00, 5.56, 6.69, 0.000, 0.000, 0.000, 15:12:33.801
161, -329.22, 13.36, 5.73, 7.58, 0.000, 0.000, 0.000, 15:12:33.822
162, -196.34, 0.61, 21.51, 19.11, 0.000, 0.000, 0.000, 15:12:33.823
163, 482.75, 4.16, 9.93, 8.49, 0.000, 0.000, 0.000, 15:12:33.823
164, -12.54, 12.90, 0.93, 9.25, 0.000, 0.000, 0.000, 15:12:33.823
165, -458.63, 2.52, 17.09, 17.61, 0.000, 0.000, 0.000, 15:12:33.846
166, 379.53, 3.91, 14.34, 17.79, 0.000, 0.000, 0.000, 15:12:33.846
167, 254.88, 15.71, 5.85, 5.91, 0.000, 0.000, 0.000, 15:12:33.846
168, -480.28, 9.46, 10.76, 13.33, 0.000, 0.000, 0.000, 15:12:33.846
169, 106.22, 1.30, 21.27, 20.46, 0.000, 0.000, 0.000, 15:12:33.847
170, 445.93, 9.92, 4.06, 6.03, 0.000, 0.000, 0.000, 15:12:33.847
171, -321.86, 13.27, 4.61, 5.03, 0.000, 0.000, 0.000, 15:12:33.867
172, -206.94, -1.68, 21.81, 18.93, 0.000, 0.000, 0.000, 15:12:33.868
173, 472.78, 10.53, 6.80, 6.26, 0.000, 0.000, 0.000, 15:12:33.868
174, -15.09, 17.09, 4.91, 5.85, 0.000, 0.000, 0.000, 15:12:33.868
175, -452.68, -0.56, 20.22, 21.52, 0.000, 0.000, 0.000, 15:12:33.890
176, 364.31, 3.72, 16.84, 15.03, 0.000, 0.000, 0.000, 15:12:33.890
177, 259.33, 14.66, 4.70, 3.10, 0.000, 0.000, 0.000, 15:12:33.890
178, -494.50, 5.67, 10.44, 10.45, 0.000, 0.000, 0.000, 15:12:33.891
179, 88.40, 1.40, 18.00, 16.71, 0.000, 0.000, 0.000, 15:12:33.913
180, 439.96, 18.57, 4.74, 6.24, 0.000, 0.000, 0.000, 15:12:33.913
181, -344.74, 11.47, 5.82, 9.10, 0.000, 0.000, 0.000, 15:12:33.913
182, -226.27, 0.30, 22.26, 21.17, 0.000, 0.000, 0.000, 15:12:33.913
183, 468.76, 15.15, 11.06, 6.65, 0.000, 0.000, 0.000, 15:12:33.935
184, -25.25, 11.79, 6.25, 5.02, 0.000, 0.000, 0.000, 15:12:33.935
185, -472.31, 1.98, 15.54, 16.45, 0.000, 0.000, 0.000, 15:12:33.935
186, 350.33, 6.49, 11.63, 10.74, 0.000, 0.000, 0.000, 15:12:33.935
187, 266.41, 17.80, 0.73, 5.68, 0.000, 0.000, 0.000, 15:12:33.936
188, -498.65, 9.85, 8.87, 11.56, 0.000, 0.000, 0.000, 15:12:33.936
189, 89.84, 4.12, 18.12, 17.93, 0.000, 0.000, 0.000, 15:12:33.957
190, 421.06, 8.64, 7.16, 10.04, 0.000, 0.000, 0.000, 15:12:33.957
191, -331.18, 13.60, 6.41, 8.02, 0.000, 0.000, 0.000, 15:12:33.958
192, -239.22, 1.66, 20.11, 24.91, 0.000, 0.000, 0.000, 15:12:33.958
193, 477.97, 11.24, 6.97, 11.18, 0.000, 0.000, 0.000, 15:12:33.980
194, -47.44, 13.56, 4.97, 9.47, 0.000, 0.000, 0.000, 15:12:33.980
195, -459.33, 4.67, 20.16, 15.29, 0.000, 0.000, 0.000, 15:12:33.980
196, 356.77, 5.83, 15.64, 13.07, 0.000, 0.000, 0.000, 15:12:33.981
197, 255.01, 15.29, 2.40, 7.09, 0.000, 0.000, 0.000, 15:12:34.002
198, -492.34, 14.17, 10.42, 12.40, 0.000, 0.000, 0.000, 15:12:34.003
199, 81.32, -3.69, 18.06, 17.57, 0.000, 0.000, 0.000, 15:12:34.003
200, 425.82, 12.52, 4.46, 7.36, 0.000, 0.000, 0.000, 15:12:34.003
0, -342.59, 16.14, 6.80, 7.17, 0.000, 0.000, 0.000, 15:12:34.004
1, -224.76, 1.92, 23.37, 23.05, 0.000, 0.000, 0.000, 15:12:34.025
2, 468.64, 6.94, 7.30, 9.93, 0.000, 0.000, 0.000, 15:12:34.025
3, -30.88, 15.66, -1.56, 7.17, 0.000, 0.000, 0.000, 15:12:34.026
4, -463.61, 0.39, 18.01, 19.41, 0.000, 0.000, 0.000, 15:12:34.026
5, 359.10, 5.14, 14.41, 14.32, 0.000, 0.000, 0.000, 15:12:34.048
6, 229.61, 20.45, 5.95, 4.00, 0.000, 0.000, 0.000, 15:12:34.048
7, -479.72, 4.21, 10.64, 13.87, 0.000, 0.000, 0.000, 15:12:34.048
8, 85.14, -0.30, 19.26, 19.24, 0.000, 0.000, 0.000, 15:12:34.048
9, 414.91, 12.00, 5.32, 8.72, 0.000, 0.000, 0.000, 15:12:34.076
10, -312.35, 13.68, 4.29, 11.95, 0.000, 0.000, 0.000, 15:12:34.077
11, -224.10, -3.78, 19.97, 19.36, 0.000, 0.000, 0.000, 15:12:34.077
12, 472.05, 9.88, 2.40, 12.30, 0.000, 0.000, 0.000, 15:12:34.077
13, -16.73, 17.05, 5.38, 3.68, 0.000, 0.000, 0.000, 15:12:34.077
14, -469.06, 2.31, 16.57, 19.88, 0.000, 0.000, 0.000, 15:12:34.077
15, 365.70, 8.08, 14.98, 13.57, 0.000, 0.000, 0.000, 15:12:34.093
16, 267.99, 15.62, 3.81, 5.63, 0.000, 0.000, 0.000, 15:12:34.093
17, -497.83, 7.71, 12.36, 13.77, 0.000, 0.000, 0.000, 15:12:34.093
18, 96.48, 1.66, 21.82, 17.39, 0.000, 0.000, 0.000, 15:12:34.093
19, 461.26, 12.50, 5.82, 8.81, 0.000, 0.000, 0.000, 15:12:34.117
20, -326.93, 10.77, 7.29, 5.73, 0.000, 0.000, 0.000, 15:12:34.117
21, -213.85, -0.41, 25.24, 16.06, 0.000, 0.000, 0.000, 15:12:34.117
22, 481.94, 10.87, 8.57, 10.66, 0.000, 0.000, 0.000, 15:12:34.117
23, -23.18, 14.68, 2.23, 7.94, 0.000, 0.000, 0.000, 15:12:34.138
24, -456.20, 8.53, 15.04, 14.98, 0.000, 0.000, 0.000, 15:12:34.138
25, 357.08, 1.33, 13.57, 11.48, 0.000, 0.000, 0.000, 15:12:34.138
26, 264.71, 15.19, 5.83, 7.76, 0.000, 0.000, 0.000, 15:12:34.138
27, -510.88, 4.42, 13.68, 13.12, 0.000, 0.000, 0.000, 15:12:34.160
28, 79.94, -0.18, 16.72, 18.89, 0.000, 0.000, 0.000, 15:12:34.160
29, 444.99, 10.65, 5.41, 7.95, 0.000, 0.000, 0.000, 15:12:34.160
30, -320.21, 16.16, 9.50, 13.89, 0.000, 0.000, 0.000, 15:12:34.161
31, -239.90, -0.39, 23.36, 21.35, 0.000, 0.000, 0.000, 15:12:34.161
32, 459.40, 12.84, 8.07, 7.00, 0.000, 0.000, 0.000, 15:12:34.161
33, -8.93, 16.25, 2.52, 7.12, 0.000, 0.000, 0.000, 15:12:34.182
34, -493.12, -2.20, 16.45, 15.28, 0.000, 0.000, 0.000, 15:12:34.183
35, 375.36, 5.55, 12.78, 11.39, 0.000, 0.000, 0.000, 15:12:34.183
36, 248.62, 15.24, 2.71, 6.07, 0.000, 0.000, 0.000, 15:12:34.183
37, -494.44, 9.97, 15.92, 11.49, 0.000, 0.000, 0.000, 15:12:34.205
38, 86.35, 0.45, 20.63, 19.43, 0.000, 0.000, 0.000, 15:12:34.205
39, 457.76, 13.68, 7.06, 8.49, 0.000, 0.000, 0.000, 15:12:34.205
40, -343.68, 10.44, 8.43, 3.16, 0.000, 0.000, 0.000, 15:12:34.205
41, -217.04, -0.15, 22.39, 20.24, 0.000, 0.000, 0.000, 15:12:34.228
42, 461.65, 18.59, 4.66, 9.61, 0.000, 0.000, 0.000, 15:12:34.228
43, -10.19, 12.06, 4.73, 7.23, 0.000, 0.000, 0.000, 15:12:34.228
44, -456.00, 0.68, 16.63, 18.04, 0.000, 0.000, 0.000, 15:12:34.228
45, 361.18, 5.69, 19.43, 14.27, 0.000, 0.000, 0.000, 15:12:34.250
46, 260.07, 16.53, 4.23, 9.64, 0.000, 0.000, 0.000, 15:12:34.250
47, -488.22, 8.10, 13.89, 11.29, 0.000, 0.000, 0.000, 15:12:34.250
48, 81.52, 1.23, 18.17, 18.13, 0.000, 0.000, 0.000, 15:12:34.250
49, 433.55, 12.61, 7.30, 6.61, 0.000, 0.000, 0.000, 15:12:34.251
50, -300.87, 11.95, 6.69, 7.40, 0.000, 0.000, 0.000, 15:12:34.251
51, -241.70, 3.85, 21.81, 16.44, 0.000, 0.000, 0.000, 15:12:34.272
52, 479.92, 9.94, 4.98, 6.81, 0.000, 0.000, 0.000, 15:12:34.273
53, -20.05, 16.16, 3.12, 6.62, 0.000, 0.000, 0.000, 15:12:34.273
54, -455.41, 1.26, 16.44, 14.19, 0.000, 0.000, 0.000, 15:12:34.273
55, 344.58, 3.83, 13.89, 12.77, 0.000, 0.000, 0.000, 15:12:34.295
56, 275.29, 14.68, 2.60, 6.39, 0.000, 0.000, 0.000, 15:12:34.295
57, -493.20, 8.56, 11.38, 11.41, 0.000, 0.000, 0.000, 15:12:34.296
58, 80.85, 0.64, 20.72, 19.26, 0.000, 0.000, 0.000, 15:12:34.296
59, 438.78, 17.53, 6.79, 9.27, 0.000, 0.000, 0.000, 15:12:34.317
60, -321.50, 15.89, 1.77, 9.00, 0.000, 0.000, 0.000, 15:12:34.318
61, -233.45, -2.05, 21.88, 23.18, 0.000, 0.000, 0.000, 15:12:34.318
62, 440.77, 9.62, 5.56, 5.50, 0.000, 0.000, 0.000, 15:12:34.318
63, -19.49, 17.34, 0.23, 10.01, 0.000, 0.000, 0.000, 15:12:34.340
64, -451.24, 4.13, 18.05, 16.10, 0.000, 0.000, 0.000, 15:12:34.340
65, 355.51, 3.60, 15.40, 8.36, 0.000, 0.000, 0.000, 15:12:34.340
66, 262.11, 17.17, 3.26, 4.56, 0.000, 0.000, 0.000, 15:12:34.340
67, -491.54, 11.27, 8.06, 13.48, 0.000, 0.000, 0.000, 15:12:34.341
68, 76.82, 1.19, 19.42, 16.83, 0.000, 0.000, 0.000, 15:12:34.341
69, 444.58, 14.83, 8.82, 9.13, 0.000, 0.000, 0.000, 15:12:34.362
70, -319.77, 11.20, 4.84, 7.27, 0.000, 0.000, 0.000, 15:12:34.363
71, -242.96, -0.47, 17.86, 18.31, 0.000, 0.000, 0.000, 15:12:34.363
72, 438.60, 11.03, 4.94, 12.89, 0.000, 0.000, 0.000, 15:12:34.363
73, 3.73, 15.63, 1.86, 6.83, 0.000, 0.000, 0.000, 15:12:34.385
74, -439.06, -1.37, 16.55, 19.86, 0.000, 0.000, 0.000, 15:12:34.385
75, 362.77, 2.00, 15.31, 19.76, 0.000, 0.000, 0.000, 15:12:34.385
76, 276.40, 10.71, 4.70, 6.50, 0.000, 0.000, 0.000, 15:12:34.386
77, -487.38, 12.26, 10.09, 9.22, 0.000, 0.000, 0.000, 15:12:34.408
78, 73.17, 1.95, 21.52, 19.97, 0.000, 0.000, 0.000, 15:12:34.408
79, 445.59, 4.85, 10.96, 10.69, 0.000, 0.000, 0.000, 15:12:34.408
80, -311.87, 14.28, 9.19, 9.22, 0.000, 0.000, 0.000, 15:12:34.408
81, -259.58, -0.90, 20.84, 16.76, 0.000, 0.000, 0.000, 15:12:34.430
82, 491.57, 11.34, 5.13, 11.75, 0.000, 0.000, 0.000, 15:12:34.430
83, -8.44, 16.35, 4.56, 8.16, 0.000, 0.000, 0.000, 15:12:34.430
84, -471.91, -1.00, 22.75, 18.53, 0.000, 0.000, 0.000, 15:12:34.431
85, 376.48, 4.65, 12.96, 14.57, 0.000, 0.000, 0.000, 15:12:34.431
86, 261.84, 14.83, 2.60, 4.10, 0.000, 0.000, 0.000, 15:12:34.431
87, -478.62, 10.45, 12.60, 15.36, 0.000, 0.000, 0.000, 15:12:34.453
88, 79.02, -4.47, 15.29, 19.26, 0.000, 0.000, 0.000, 15:12:34.453
89, 433.46, 10.37, 3.00, 5.36, 0.000, 0.000, 0.000, 15:12:34.453
90, -328.84, 14.58, 8.44, 10.91, 0.000, 0.000, 0.000, 15:12:34.453
91, -207.55, -1.30, 18.38, 19.73, 0.000, 0.000, 0.000, 15:12:34.475
92, 489.98, 4.91, 7.38, 9.87, 0.000, 0.000, 0.000, 15:12:34.475
93, -2.87, 19.45, -1.03, 3.93, 0.000, 0.000, 0.000, 15:12:34.475
94, -461.98, 3.24, 20.59, 16.92, 0.000, 0.000, 0.000, 15:12:34.476
95, 347.90, 4.23, 16.20, 13.43, 0.000, 0.000, 0.000, 15:12:34.497
96, 235.95, 20.64, 3.08, 2.84, 0.000, 0.000, 0.000, 15:12:34.498
97, -476.97, 4.82, 14.56, 13.97, 0.000, 0.000, 0.000, 15:12:34.498
98, 59.67, 2.85, 20.69, 15.26, 0.000, 0.000, 0.000, 15:12:34.498
99, 438.81, 14.82, 7.59, 8.21, 0.000, 0.000, 0.000, 15:12:34.520
100, -322.24, 11.38, 3.76, 10.55, 0.000, 0.000, 0.000, 15:12:34.520
101, -259.04, -2.34, 18.91, 17.79, 0.000, 0.000, 0.000, 15:12:34.520
102, 482.22, 11.05, 11.00, 7.44, 0.000, 0.000, 0.000, 15:12:34.521
103, -12.95, 15.61, 3.06, 6.53, 0.000, 0.000, 0.000, 15:12:34.521
104, -467.88, 3.93, 15.20, 16.79, 0.000, 0.000, 0.000, 15:12:34.521
105, 356.91, 9.73, 12.96, 13.86, 0.000, 0.000, 0.000, 15:12:34.543
106, 250.44, 12.75, 6.26, 7.07, 0.000, 0.000, 0.000, 15:12:34.543
107, -486.56, 6.93, 9.69, 10.99, 0.000, 0.000, 0.000, 15:12:34.543
108, 68.54, -2.45, 18.71, 23.66, 0.000, 0.000, 0.000, 15:12:34.543
109, 456.13, 11.51, 7.47, 9.96, 0.000, 0.000, 0.000, 15:12:34.565
110, -308.21, 14.33, 5.64, 9.98, 0.000, 0.000, 0.000, 15:12:34.565
111, -235.76, -2.22, 20.36, 20.49, 0.000, 0.000, 0.000, 15:12:34.565
112, 487.15, 11.70, 10.65, 7.55, 0.000, 0.000, 0.000, 15:12:34.566
113, -32.15, 10.17, 4.10, 5.88, 0.000, 0.000, 0.000, 15:12:34.587
114, -464.53, 8.23, 17.22, 12.23, 0.000, 0.000, 0.000, 15:12:34.588
115, 354.41, -2.38, 13.99, 13.71, 0.000, 0.000, 0.000, 15:12:34.588
116, 289.71, 19.29, 3.50, 7.81, 0.000, 0.000, 0.000, 15:12:34.588
117, -488.83, 9.23, 8.95, 14.14, 0.000, 0.000, 0.000, 15:12:34.611
118, 85.02, 0.30, 20.83, 14.05, 0.000, 0.000, 0.000, 15:12:34.611
119, 448.73, 15.09, 6.77, 6.31, 0.000, 0.000, 0.000, 15:12:34.611
120, -334.94, 17.18, 4.46, 4.68, 0.000, 0.000, 0.000, 15:12:34.611
121, -240.97, 2.56, 19.51, 24.00, 0.000, 0.000, 0.000, 15:12:34.612
122, 497.41, 11.91, 6.71, 9.21, 0.000, 0.000, 0.000, 15:12:34.612
123, -1.19, 16.98, 3.48, 10.22, 0.000, 0.000, 0.000, 15:12:34.632
124, -467.16, -2.54, 17.68, 18.72, 0.000, 0.000, 0.000, 15:12:34.633
125, 356.01, 4.72, 16.19, 11.88, 0.000, 0.000, 0.000, 15:12:34.633
126, 272.21, 14.15, 4.23, 9.93, 0.000, 0.000, 0.000, 15:12:34.633
127, -497.40, 11.30, 11.39, 12.06, 0.000, 0.000, 0.000, 15:12:34.655
128, 52.74, -0.24, 22.05, 18.20, 0.000, 0.000, 0.000, 15:12:34.655
129, 436.35, 14.88, 2.91, 8.04, 0.000, 0.000, 0.000, 15:12:34.655
130, -288.15, 14.76, 6.11, 10.86, 0.000, 0.000, 0.000, 15:12:34.655
131, -259.46, 0.99, 19.95, 23.72, 0.000, 0.000, 0.000, 15:12:34.678
132, 485.99, 15.46, 7.52, 9.28, 0.000, 0.000, 0.000, 15:12:34.678
133, -23.91, 11.46, 1.89, 4.28, 0.000, 0.000, 0.000, 15:12:34.678
134, -450.94, 5.69, 17.27, 13.78, 0.000, 0.000, 0.000, 15:12:34.678
135, 324.66, 4.75, 16.23, 15.26, 0.000, 0.000, 0.000, 15:12:34.700
136, 250.90, 17.50, 5.98, 7.99, 0.000, 0.000, 0.000, 15:12:34.700
137, -494.28, 9.50, 11.92, 14.55, 0.000, 0.000, 0.000, 15:12:34.700
138, 105.59, -1.87, 24.20, 17.72, 0.000, 0.000, 0.000, 15:12:34.701
139, 434.14, 13.82, 5.85, 9.35, 0.000, 0.000, 0.000, 15:12:34.701
140, -294.76, 13.86, 3.62, 3.96, 0.000, 0.000, 0.000, 15:12:34.701
141, -251.97, 0.02, 25.02, 20.26, 0.000, 0.000, 0.000, 15:12:34.722
142, 474.93, 9.68, 8.09, 12.62, 0.000, 0.000, 0.000, 15:12:34.722
143, -7.93, 15.26, 7.58, 6.91, 0.000, 0.000, 0.000, 15:12:34.723
144, -469.41, 5.96, 19.91, 15.38, 0.000, 0.000, 0.000, 15:12:34.723
145, 335.47, 3.83, 11.65, 15.34, 0.000, 0.000, 0.000, 15:12:34.745
146, 238.39, 12.84, 3.47, 9.12, 0.000, 0.000, 0.000, 15:12:34.745
147, -467.24, 7.24, 10.59, 11.99, 0.000, 0.000, 0.000, 15:12:34.745
148, 77.92, -0.86, 16.42, 12.67, 0.000, 0.000, 0.000, 15:12:34.746
149, 459.62, 13.24, 1.45, 4.97, 0.000, 0.000, 0.000, 15:12:34.767
150, -311.35, 16.42, 6.65, 5.58, 0.000, 0.000, 0.000, 15:12:34.768
151, -237.76, -4.87, 22.74, 19.26, 0.000, 0.000, 0.000, 15:12:34.768
152, 476.04, 7.88, 10.59, 12.97, 0.000, 0.000, 0.000, 15:12:34.768
153, -6.05, 13.59, 2.64, 6.26, 0.000, 0.000, 0.000, 15:12:34.790
154, -461.70, 4.60, 18.29, 17.40, 0.000, 0.000, 0.000, 15:12:34.790
155, 358.37, -0.18, 13.94, 17.76, 0.000, 0.000, 0.000, 15:12:34.790
156, 312.38, 17.83, 0.87, 7.16, 0.000, 0.000, 0.000, 15:12:34.791
157, -458.15, 9.44, 13.80, 14.22, 0.000, 0.000, 0.000, 15:12:34.791
158, 63.00, -0.17, 18.93, 19.29, 0.000, 0.000, 0.000, 15:12:34.791
159, 442.82, 14.93, 7.28, 5.13, 0.000, 0.000, 0.000, 15:12:34.812
160, -321.13, 7.89, 5.92, 6.86, 0.000, 0.000, 0.000, 15:12:34.813
161, -267.02, -1.91, 22.17, 16.41, 0.000, 0.000, 0.000, 15:12:34.813
162, 460.22, 9.16, 6.27, 7.55, 0.000, 0.000, 0.000, 15:12:34.813
163, -50.00, 15.80, 2.39, 4.38, 0.000, 0.000, 0.000, 15:12:34.835
164, -483.14, 0.56, 15.73, 20.01, 0.000, 0.000, 0.000, 15:12:34.835
165, 380.66, 5.37, 13.82, 10.74, 0.000, 0.000, 0.000, 15:12:34.835
166, 281.09, 17.30, 0.32, 5.37, 0.000, 0.000, 0.000, 15:12:34.836
167, -485.14, 11.22, 11.27, 11.69, 0.000, 0.000, 0.000, 15:12:34.858
168, 65.92, 4.80, 20.06, 21.51, 0.000, 0.000, 0.000, 15:12:34.858
169, 451.75, 5.62, 5.17, 10.69, 0.000, 0.000, 0.000, 15:12:34.858
170, -306.32, 14.85, 6.67, 6.61, 0.000, 0.000, 0.000, 15:12:34.858
171, -237.62, -0.48, 20.14, 23.14, 0.000, 0.000, 0.000, 15:12:34.880
172, 484.76, 13.91, 10.00, 12.10, 0.000, 0.000, 0.000, 15:12:34.880
173, 10.36, 19.67, 4.77, 7.61, 0.000, 0.000, 0.000, 15:12:34.880
174, -473.54, 3.19, 17.60, 16.83, 0.000, 0.000, 0.000, 15:12:34.880
175, 347.86, 2.69, 13.61, 11.59, 0.000, 0.000, 0.000, 15:12:34.881
176, 253.53, 13.31, 4.67, 4.47, 0.000, 0.000, 0.000, 15:12:34.881
177, -473.28, 12.13, 12.15, 8.52, 0.000, 0.000, 0.000, 15:12:34.903
178, 85.83, 1.63, 20.81, 19.35, 0.000, 0.000, 0.000, 15:12:34.903
179, 440.81, 14.45, 4.66, 6.75, 0.000, 0.000, 0.000, 15:12:34.903
180, -308.71, 14.69, 3.99, 4.75, 0.000, 0.000, 0.000, 15:12:34.903
181, -252.66, -0.77, 24.98, 19.70, 0.000, 0.000, 0.000, 15:12:34.925
182, 471.07, 8.64, 10.80, 10.12, 0.000, 0.000, 0.000, 15:12:34.925
183, -4.81, 14.88, 0.62, 4.31, 0.000, 0.000, 0.000, 15:12:34.926
184, -464.22, 4.18, 14.08, 17.73, 0.000, 0.000, 0.000, 15:12:34.926
185, 338.01, 1.88, 13.84, 12.58, 0.000, 0.000, 0.000, 15:12:34.947
186, 279.31, 20.39, 2.43, 0.93, 0.000, 0.000, 0.000, 15:12:34.948
187, -478.65, 3.46, 10.84, 15.60, 0.000, 0.000, 0.000, 15:12:34.948
188, 63.93, -0.06, 21.16, 22.06, 0.000, 0.000, 0.000, 15:12:34.948
189, 452.58, 11.11, 10.80, 6.34, 0.000, 0.000, 0.000, 15:12:34.970
